* Measurement data measured by REW V5.31.3
* Source: Headset (3- CX31993 HIFI AUDIO), MICROPHONE (Master Volume), R, volume: 0.400
* Format: 256k Log Swept Sine, 1 sweep at -12.0 dBFS with no timing reference
* Dated: 04 1, 25 11:20:56 AM
* REW Settings:
*  C-weighting compensation: Off
*  Target level: 75.0 dB
* Note: ; 
* Measurement: AFUL Magic One R
* Smoothing: 1/12 octave
* Frequency Step: 96 ppo
* Start Frequency: 0.36621094 Hz
*
* Freq(Hz) SPL(dB) Phase(degrees)
0.366211 47.178 -174.3475
0.368865 47.219 -174.4398
0.371538 47.280 -174.5754
0.374230 47.356 -174.7409
0.376942 47.440 -174.9251
0.379673 47.530 -175.1198
0.382424 47.624 -175.3196
0.385196 47.720 -175.5215
0.387987 47.818 -175.7234
0.390798 47.917 -175.9244
0.393630 48.017 -176.1240
0.396483 48.118 -176.3218
0.399356 48.219 -176.5178
0.402250 48.322 -176.7119
0.405165 48.425 -176.9040
0.408101 48.529 -177.0942
0.411058 48.633 -177.2825
0.414037 48.739 -177.4689
0.417037 48.845 -177.6534
0.420059 48.951 -177.8361
0.423103 49.059 -178.0170
0.426169 49.168 -178.1962
0.429257 49.277 -178.3737
0.432368 49.387 -178.5494
0.435501 49.498 -178.7236
0.438656 49.609 -178.8962
0.441835 49.722 -179.0673
0.445037 49.835 -179.2369
0.448262 49.949 -179.4051
0.451510 50.064 -179.5720
0.454782 50.180 -179.7376
0.458077 50.296 -179.9020
0.461397 50.413 179.9347
0.464740 50.532 179.7726
0.468108 50.651 179.6114
0.471500 50.771 179.4512
0.474917 50.892 179.2918
0.478358 51.013 179.1333
0.481825 51.136 178.9755
0.485316 51.260 178.8183
0.488833 51.384 178.6617
0.492375 51.509 178.5056
0.495943 51.635 178.3499
0.499537 51.763 178.1945
0.503157 51.891 178.0395
0.506803 52.020 177.8846
0.510475 52.150 177.7298
0.514175 52.280 177.5750
0.517900 52.412 177.4202
0.521653 52.545 177.2652
0.525434 52.679 177.1100
0.529241 52.813 176.9545
0.533076 52.949 176.7986
0.536939 53.086 176.6423
0.540830 53.223 176.4854
0.544749 53.362 176.3279
0.548696 53.502 176.1697
0.552673 53.642 176.0107
0.556677 53.784 175.8508
0.560711 53.927 175.6899
0.564774 54.071 175.5280
0.568867 54.215 175.3651
0.572989 54.361 175.2008
0.577141 54.508 175.0353
0.581324 54.656 174.8684
0.585536 54.805 174.7001
0.589779 54.955 174.5302
0.594053 55.107 174.3587
0.598358 55.259 174.1855
0.602694 55.412 174.0106
0.607061 55.567 173.8337
0.611460 55.723 173.6549
0.615891 55.880 173.4741
0.620354 56.037 173.2912
0.624849 56.197 173.1060
0.629377 56.357 172.9186
0.633938 56.518 172.7289
0.638532 56.681 172.5367
0.643159 56.845 172.3419
0.647819 57.010 172.1446
0.652514 57.176 171.9446
0.657242 57.343 171.7418
0.662005 57.512 171.5361
0.666802 57.681 171.3275
0.671634 57.852 171.1158
0.676501 58.025 170.9011
0.681403 58.198 170.6831
0.686341 58.373 170.4619
0.691314 58.549 170.2374
0.696324 58.725 170.0095
0.701370 58.903 169.7781
0.706452 59.080 169.5433
0.711571 59.258 169.3052
0.716728 59.434 169.0640
0.721921 59.608 168.8200
0.727153 59.778 168.5738
0.732422 59.942 168.3262
0.737729 60.101 168.0781
0.743075 60.253 167.8306
0.748460 60.401 167.5844
0.753883 60.546 167.3400
0.759346 60.688 167.0977
0.764849 60.828 166.8577
0.770391 60.967 166.6200
0.775974 61.105 166.3846
0.781597 61.242 166.1514
0.787261 61.378 165.9203
0.792966 61.513 165.6912
0.798712 61.647 165.4640
0.804500 61.780 165.2385
0.810329 61.912 165.0146
0.816201 62.043 164.7922
0.822116 62.174 164.5711
0.828073 62.304 164.3512
0.834074 62.433 164.1323
0.840118 62.561 163.9143
0.846206 62.688 163.6971
0.852338 62.815 163.4805
0.858514 62.941 163.2643
0.864735 63.066 163.0484
0.871001 63.190 162.8326
0.877313 63.314 162.6169
0.883670 63.437 162.4010
0.890074 63.560 162.1848
0.896524 63.682 161.9681
0.903020 63.803 161.7509
0.909564 63.924 161.5328
0.916155 64.045 161.3138
0.922794 64.165 161.0938
0.929481 64.284 160.8725
0.936216 64.404 160.6498
0.943000 64.523 160.4256
0.949834 64.641 160.1996
0.956717 64.760 159.9718
0.963649 64.879 159.7419
0.970632 64.997 159.5098
0.977666 65.115 159.2754
0.984750 65.234 159.0384
0.991886 65.352 158.7987
0.999074 65.471 158.5562
1.006314 65.590 158.3106
1.013606 65.709 158.0618
1.020951 65.829 157.8096
1.028349 65.949 157.5538
1.035801 66.070 157.2944
1.043307 66.191 157.0310
1.050867 66.313 156.7636
1.058482 66.436 156.4920
1.066152 66.560 156.2161
1.073878 66.685 155.9360
1.081660 66.811 155.6517
1.089498 66.937 155.3633
1.097393 67.064 155.0714
1.105345 67.191 154.7765
1.113355 67.318 154.4790
1.121423 67.445 154.1796
1.129549 67.572 153.8787
1.137734 67.698 153.5765
1.145979 67.824 153.2732
1.154283 67.949 152.9689
1.162647 68.074 152.6638
1.171072 68.199 152.3578
1.179558 68.322 152.0511
1.188106 68.446 151.7435
1.196715 68.569 151.4352
1.205387 68.691 151.1261
1.214122 68.813 150.8161
1.222920 68.934 150.5054
1.231782 69.055 150.1938
1.240708 69.176 149.8813
1.249699 69.296 149.5679
1.258754 69.416 149.2536
1.267876 69.536 148.9383
1.277063 69.655 148.6219
1.286318 69.774 148.3044
1.295639 69.892 147.9858
1.305027 70.011 147.6660
1.314484 70.129 147.3448
1.324009 70.247 147.0224
1.333604 70.365 146.6984
1.343268 70.483 146.3730
1.353002 70.601 146.0459
1.362806 70.718 145.7170
1.372681 70.836 145.3864
1.382628 70.954 145.0538
1.392647 71.072 144.7193
1.402739 71.190 144.3826
1.412904 71.308 144.0436
1.423142 71.427 143.7024
1.433455 71.545 143.3589
1.443843 71.664 143.0130
1.454305 71.783 142.6649
1.464844 71.902 142.3146
1.475459 72.021 141.9626
1.486150 72.140 141.6089
1.496920 72.258 141.2539
1.507767 72.376 140.8976
1.518693 72.494 140.5402
1.529698 72.611 140.1816
1.540783 72.727 139.8220
1.551948 72.843 139.4612
1.563194 72.959 139.0992
1.574521 73.074 138.7360
1.585931 73.189 138.3713
1.597423 73.303 138.0052
1.608999 73.416 137.6376
1.620658 73.530 137.2684
1.632402 73.642 136.8973
1.644232 73.755 136.5244
1.656146 73.867 136.1495
1.668147 73.979 135.7723
1.680235 74.090 135.3928
1.692411 74.201 135.0109
1.704675 74.312 134.6262
1.717028 74.422 134.2388
1.729470 74.533 133.8483
1.742003 74.643 133.4545
1.754626 74.753 133.0574
1.767341 74.863 132.6566
1.780147 74.972 132.2519
1.793047 75.082 131.8431
1.806040 75.191 131.4300
1.819128 75.301 131.0124
1.832310 75.410 130.5901
1.845587 75.518 130.1630
1.858961 75.626 129.7311
1.872432 75.734 129.2946
1.886001 75.841 128.8537
1.899667 75.948 128.4087
1.913433 76.053 127.9597
1.927299 76.159 127.5073
1.941265 76.263 127.0516
1.955332 76.367 126.5929
1.969501 76.470 126.1315
1.983773 76.573 125.6677
1.998148 76.675 125.2018
2.012627 76.777 124.7338
2.027212 76.878 124.2640
2.041902 76.979 123.7926
2.056698 77.079 123.3198
2.071602 77.178 122.8456
2.086614 77.277 122.3701
2.101734 77.376 121.8934
2.116964 77.474 121.4155
2.132304 77.572 120.9364
2.147756 77.669 120.4557
2.163320 77.766 119.9734
2.178996 77.862 119.4888
2.194786 77.958 119.0014
2.210690 78.053 118.5105
2.226710 78.148 118.0155
2.242845 78.242 117.5161
2.259098 78.335 117.0122
2.275468 78.427 116.5038
2.291957 78.519 115.9915
2.308566 78.609 115.4753
2.325295 78.699 114.9561
2.342145 78.788 114.4341
2.359117 78.876 113.9099
2.376212 78.963 113.3840
2.393431 79.050 112.8569
2.410775 79.136 112.3290
2.428244 79.221 111.8007
2.445840 79.305 111.2725
2.463564 79.389 110.7446
2.481416 79.472 110.2173
2.499397 79.554 109.6906
2.517509 79.635 109.1645
2.535752 79.716 108.6385
2.554127 79.796 108.1119
2.572635 79.876 107.5839
2.591277 79.954 107.0535
2.610055 80.031 106.5198
2.628968 80.108 105.9825
2.648019 80.183 105.4415
2.667208 80.257 104.8972
2.686535 80.330 104.3500
2.706003 80.402 103.8006
2.725612 80.474 103.2496
2.745363 80.544 102.6978
2.765257 80.613 102.1460
2.785295 80.681 101.5948
2.805478 80.749 101.0450
2.825808 80.815 100.4972
2.846285 80.881 99.9519
2.866910 80.945 99.4095
2.887685 81.009 98.8699
2.908611 81.072 98.3328
2.929688 81.134 97.7975
2.950917 81.195 97.2628
2.972301 81.255 96.7279
2.993839 81.314 96.1920
3.015534 81.371 95.6548
3.037386 81.428 95.1165
3.059396 81.483 94.5774
3.081565 81.537 94.0383
3.103896 81.590 93.4999
3.126388 81.642 92.9631
3.149043 81.693 92.4288
3.171862 81.743 91.8979
3.194847 81.792 91.3713
3.217998 81.840 90.8496
3.241317 81.888 90.3335
3.264805 81.934 89.8229
3.288463 81.980 89.3178
3.312293 82.025 88.8175
3.336295 82.069 88.3212
3.360471 82.112 87.8282
3.384822 82.153 87.3380
3.409350 82.194 86.8506
3.434056 82.233 86.3662
3.458940 82.272 85.8851
3.484005 82.309 85.4078
3.509252 82.346 84.9351
3.534681 82.383 84.4674
3.560295 82.418 84.0056
3.586094 82.453 83.5503
3.612081 82.488 83.1019
3.638255 82.522 82.6608
3.664620 82.556 82.2270
3.691175 82.589 81.8004
3.717923 82.622 81.3805
3.744864 82.654 80.9670
3.772001 82.685 80.5597
3.799335 82.716 80.1583
3.826866 82.746 79.7627
3.854597 82.776 79.3729
3.882529 82.806 78.9890
3.910664 82.836 78.6110
3.939002 82.865 78.2391
3.967546 82.895 77.8736
3.996296 82.925 77.5148
4.025255 82.955 77.1630
4.054423 82.985 76.8184
4.083804 83.015 76.4810
4.113396 83.046 76.1507
4.143204 83.077 75.8271
4.173227 83.107 75.5098
4.203468 83.138 75.1979
4.233928 83.169 74.8909
4.264609 83.201 74.5880
4.295512 83.233 74.2887
4.326639 83.266 73.9925
4.357992 83.299 73.6991
4.389572 83.333 73.4088
4.421380 83.368 73.1215
4.453419 83.403 72.8376
4.485691 83.439 72.5570
4.518196 83.475 72.2795
4.550936 83.512 72.0043
4.583914 83.550 71.7308
4.617131 83.588 71.4579
4.650589 83.627 71.1848
4.684289 83.666 70.9107
4.718233 83.706 70.6349
4.752424 83.746 70.3572
4.786862 83.787 70.0776
4.821549 83.828 69.7961
4.856488 83.870 69.5128
4.891680 83.913 69.2277
4.927127 83.955 68.9406
4.962831 83.998 68.6510
4.998794 84.041 68.3585
5.035017 84.085 68.0625
5.071503 84.128 67.7627
5.108253 84.171 67.4586
5.145270 84.214 67.1501
5.182555 84.257 66.8371
5.220110 84.299 66.5197
5.257937 84.342 66.1982
5.296038 84.384 65.8730
5.334415 84.426 65.5442
5.373071 84.467 65.2123
5.412006 84.508 64.8774
5.451224 84.549 64.5396
5.490725 84.588 64.1989
5.530514 84.627 63.8551
5.570590 84.665 63.5083
5.610957 84.702 63.1588
5.651616 84.739 62.8069
5.692570 84.774 62.4535
5.733821 84.809 62.0991
5.775370 84.843 61.7444
5.817221 84.877 61.3901
5.859375 84.909 61.0363
5.901834 84.940 60.6830
5.944602 84.971 60.3304
5.987679 85.000 59.9785
6.031068 85.029 59.6277
6.074771 85.057 59.2783
6.118792 85.085 58.9310
6.163131 85.111 58.5862
6.207792 85.137 58.2443
6.252776 85.163 57.9055
6.298086 85.188 57.5697
6.343725 85.212 57.2369
6.389694 85.236 56.9070
6.435996 85.260 56.5797
6.482634 85.283 56.2552
6.529610 85.306 55.9332
6.576926 85.329 55.6139
6.624585 85.351 55.2971
6.672590 85.374 54.9828
6.720942 85.396 54.6706
6.769645 85.418 54.3603
6.818700 85.440 54.0512
6.868111 85.462 53.7430
6.917881 85.483 53.4352
6.968010 85.505 53.1275
7.018504 85.527 52.8198
7.069362 85.548 52.5118
7.120590 85.569 52.2035
7.172189 85.590 51.8948
7.224161 85.610 51.5853
7.276511 85.630 51.2750
7.329239 85.649 50.9636
7.382350 85.668 50.6512
7.435845 85.686 50.3380
7.489729 85.703 50.0245
7.544002 85.719 49.7112
7.598669 85.735 49.3987
7.653732 85.749 49.0876
7.709194 85.763 48.7784
7.765058 85.775 48.4716
7.821327 85.786 48.1680
7.878004 85.796 47.8684
7.935091 85.805 47.5742
7.992592 85.813 47.2867
8.050510 85.820 47.0068
8.108847 85.826 46.7354
8.167607 85.831 46.4733
8.226793 85.835 46.2211
8.286408 85.839 45.9799
8.346454 85.843 45.7503
8.406936 85.847 45.5333
8.467856 85.851 45.3293
8.529218 85.855 45.1384
8.591024 85.860 44.9603
8.653278 85.867 44.7945
8.715983 85.874 44.6402
8.779143 85.884 44.4966
8.842760 85.895 44.3630
8.906839 85.909 44.2379
8.971381 85.924 44.1195
9.036392 85.943 44.0054
9.101873 85.964 43.8928
9.167829 85.988 43.7796
9.234263 86.015 43.6635
9.301178 86.045 43.5422
9.368578 86.078 43.4129
9.436467 86.113 43.2726
9.504847 86.150 43.1187
9.573723 86.190 42.9489
9.643099 86.231 42.7615
9.712976 86.274 42.5553
9.783361 86.318 42.3289
9.854255 86.362 42.0812
9.925663 86.405 41.8115
9.997588 86.449 41.5200
10.070035 86.491 41.2074
10.143007 86.532 40.8750
10.216507 86.571 40.5241
10.290540 86.608 40.1565
10.365109 86.642 39.7741
10.440219 86.672 39.3796
10.515873 86.700 38.9762
10.592076 86.724 38.5673
10.668830 86.745 38.1559
10.746141 86.762 37.7452
10.824012 86.775 37.3386
10.902447 86.786 36.9396
10.981451 86.793 36.5517
11.061027 86.797 36.1777
11.141180 86.799 35.8202
11.221913 86.799 35.4811
11.303232 86.797 35.1625
11.385140 86.795 34.8656
11.467641 86.792 34.5909
11.550741 86.790 34.3382
11.634442 86.788 34.1063
11.718750 86.788 33.8938
11.803669 86.790 33.6987
11.889203 86.795 33.5180
11.975357 86.802 33.3483
12.062136 86.812 33.1856
12.149543 86.825 33.0260
12.237583 86.840 32.8657
12.326262 86.859 32.7007
12.415583 86.880 32.5274
12.505552 86.902 32.3425
12.596172 86.926 32.1437
12.687449 86.951 31.9295
12.779387 86.975 31.6992
12.871992 86.999 31.4528
12.965268 87.021 31.1915
13.059220 87.041 30.9175
13.153852 87.059 30.6340
13.249170 87.073 30.3448
13.345179 87.084 30.0541
13.441884 87.090 29.7672
13.539289 87.094 29.4895
13.637401 87.093 29.2263
13.736223 87.090 28.9826
13.835761 87.083 28.7631
13.936021 87.075 28.5720
14.037007 87.066 28.4123
14.138725 87.057 28.2854
14.241180 87.049 28.1916
14.344377 87.043 28.1295
14.448323 87.040 28.0961
14.553021 87.042 28.0865
14.658478 87.048 28.0945
14.764700 87.060 28.1127
14.871691 87.077 28.1331
14.979457 87.100 28.1470
15.088005 87.129 28.1461
15.197339 87.161 28.1233
15.307465 87.197 28.0724
15.418389 87.235 27.9889
15.530117 87.274 27.8705
15.642655 87.312 27.7172
15.756008 87.348 27.5306
15.870182 87.382 27.3149
15.985184 87.411 27.0758
16.101019 87.435 26.8204
16.217694 87.454 26.5566
16.335214 87.467 26.2929
16.453586 87.476 26.0373
16.572815 87.481 25.7971
16.692909 87.482 25.5781
16.813872 87.482 25.3842
16.935713 87.481 25.2167
17.058436 87.481 25.0746
17.182048 87.484 24.9538
17.306556 87.490 24.8480
17.431967 87.501 24.7488
17.558286 87.516 24.6463
17.685521 87.536 24.5300
17.813677 87.560 24.3902
17.942762 87.587 24.2181
18.072783 87.616 24.0072
18.203746 87.645 23.7538
18.335658 87.672 23.4573
18.468526 87.695 23.1201
18.602356 87.714 22.7479
18.737156 87.726 22.3486
18.872934 87.731 21.9323
19.009695 87.728 21.5101
19.147447 87.717 21.0941
19.286197 87.700 20.6954
19.425953 87.676 20.3242
19.566721 87.648 19.9890
19.708510 87.617 19.6953
19.851326 87.585 19.4463
19.995177 87.553 19.2418
20.140070 87.524 19.0786
20.286013 87.499 18.9510
20.433014 87.479 18.8514
20.581080 87.464 18.7706
20.730219 87.456 18.6996
20.880439 87.453 18.6295
21.031747 87.455 18.5530
21.184152 87.462 18.4645
21.337661 87.471 18.3605
21.492282 87.484 18.2401
21.648024 87.497 18.1042
21.804895 87.511 17.9553
21.962902 87.526 17.7972
22.122054 87.540 17.6342
22.282360 87.554 17.4705
22.443827 87.569 17.3097
22.606464 87.585 17.1540
22.770280 87.602 17.0043
22.935283 87.620 16.8596
23.101481 87.642 16.7173
23.268884 87.666 16.5730
23.437500 87.693 16.4216
23.607338 87.722 16.2578
23.778406 87.753 16.0762
23.950714 87.785 15.8729
24.124271 87.817 15.6461
24.299086 87.847 15.3960
24.475167 87.874 15.1254
24.652524 87.897 14.8395
24.831166 87.915 14.5454
25.011103 87.928 14.2515
25.192344 87.935 13.9664
25.374898 87.938 13.6984
25.558775 87.936 13.4541
25.743984 87.931 13.2383
25.930536 87.924 13.0533
26.118439 87.917 12.8990
26.307704 87.910 12.7733
26.498341 87.904 12.6721
26.690359 87.899 12.5905
26.883768 87.897 12.5232
27.078579 87.896 12.4648
27.274801 87.898 12.4104
27.472446 87.902 12.3552
27.671522 87.907 12.2952
27.872042 87.914 12.2264
28.074014 87.922 12.1459
28.277450 87.930 12.0513
28.482360 87.939 11.9417
28.688755 87.946 11.8176
28.896645 87.952 11.6810
29.106042 87.956 11.5355
29.316957 87.959 11.3854
29.529400 87.960 11.2350
29.743382 87.960 11.0872
29.958915 87.960 10.9434
30.176009 87.960 10.8027
30.394677 87.961 10.6622
30.614929 87.964 10.5178
30.836778 87.968 10.3656
31.060234 87.972 10.2029
31.285309 87.977 10.0293
31.512015 87.980 9.8471
31.740364 87.982 9.6603
31.970368 87.984 9.4736
32.202039 87.984 9.2915
32.435388 87.984 9.1163
32.670428 87.985 8.9481
32.907171 87.986 8.7849
33.145630 87.988 8.6236
33.385817 87.992 8.4611
33.627745 87.995 8.2959
33.871425 87.998 8.1285
34.116871 88.001 7.9617
34.364096 88.002 7.7986
34.613113 88.003 7.6426
34.863934 88.003 7.4950
35.116572 88.004 7.3553
35.371041 88.005 7.2209
35.627354 88.008 7.0880
35.885525 88.011 6.9528
36.145566 88.014 6.8129
36.407492 88.016 6.6677
36.671316 88.018 6.5184
36.937051 88.019 6.3669
37.204712 88.019 6.2155
37.474313 88.018 6.0652
37.745867 88.016 5.9167
38.019389 88.014 5.7697
38.294893 88.012 5.6235
38.572394 88.010 5.4780
38.851905 88.008 5.3331
39.133442 88.006 5.1894
39.417019 88.004 5.0471
39.702651 88.002 4.9062
39.990353 88.001 4.7662
40.280140 88.001 4.6260
40.572026 88.002 4.4847
40.866028 88.002 4.3419
41.162160 88.004 4.1976
41.460438 88.005 4.0525
41.760877 88.007 3.9076
42.063494 88.008 3.7634
42.368303 88.010 3.6201
42.675322 88.012 3.4772
42.984565 88.013 3.3341
43.296048 88.015 3.1906
43.609789 88.015 3.0472
43.925804 88.014 2.9060
44.244108 88.013 2.7692
44.564719 88.010 2.6389
44.887654 88.007 2.5160
45.212928 88.004 2.3994
45.540560 88.001 2.2857
45.870565 87.999 2.1711
46.202962 87.997 2.0523
46.537768 87.995 1.9286
46.875000 87.991 1.8015
47.214676 87.987 1.6745
47.556813 87.982 1.5498
47.901429 87.978 1.4272
48.248542 87.975 1.3032
48.598171 87.973 1.1727
48.950334 87.971 1.0320
49.305048 87.969 0.8815
49.662333 87.966 0.7261
50.022206 87.961 0.5735
50.384688 87.956 0.4298
50.749796 87.952 0.2958
51.117550 87.950 0.1660
51.487969 87.950 0.0315
51.861072 87.951 -0.1152
52.236879 87.952 -0.2758
52.615409 87.950 -0.4439
52.996681 87.946 -0.6082
53.380717 87.940 -0.7577
53.767536 87.933 -0.8876
54.157158 87.928 -1.0013
54.549603 87.925 -1.1090
54.944892 87.924 -1.2227
55.343045 87.924 -1.3502
55.744084 87.923 -1.4926
56.148028 87.919 -1.6432
56.554900 87.911 -1.7913
56.964720 87.902 -1.9255
57.377510 87.891 -2.0391
57.793291 87.881 -2.1321
58.212085 87.874 -2.2133
58.633914 87.871 -2.2977
59.058799 87.871 -2.4016
59.486764 87.871 -2.5350
59.917829 87.870 -2.6973
60.352019 87.864 -2.8749
60.789354 87.853 -3.0476
61.229859 87.838 -3.1965
61.673556 87.823 -3.3126
62.120468 87.811 -3.4003
62.570618 87.803 -3.4746
63.024031 87.800 -3.5552
63.480729 87.800 -3.6583
63.940736 87.802 -3.7919
64.404077 87.801 -3.9539
64.870776 87.797 -4.1323
65.340856 87.788 -4.3087
65.814343 87.774 -4.4634
66.291261 87.759 -4.5825
66.771635 87.744 -4.6642
67.255489 87.734 -4.7192
67.742850 87.729 -4.7663
68.233743 87.729 -4.8256
68.728193 87.732 -4.9114
69.226226 87.736 -5.0305
69.727867 87.738 -5.1824
70.233144 87.736 -5.3601
70.742083 87.729 -5.5520
71.254709 87.716 -5.7424
71.771050 87.698 -5.9149
72.291132 87.676 -6.0565
72.814984 87.654 -6.1621
73.342631 87.632 -6.2361
73.874102 87.615 -6.2898
74.409424 87.602 -6.3372
74.948626 87.592 -6.3907
75.491734 87.586 -6.4591
76.038779 87.582 -6.5459
76.589787 87.580 -6.6506
77.144788 87.579 -6.7716
77.703811 87.579 -6.9076
78.266885 87.581 -7.0594
78.834039 87.582 -7.2284
79.405303 87.583 -7.4153
79.980706 87.583 -7.6182
80.560280 87.580 -7.8322
81.144053 87.572 -8.0504
81.732056 87.560 -8.2659
82.324320 87.542 -8.4734
82.920876 87.519 -8.6683
83.521755 87.490 -8.8462
84.126988 87.454 -9.0026
84.736607 87.413 -9.1331
85.350643 87.367 -9.2307
85.969129 87.317 -9.2865
86.592097 87.266 -9.2925
87.219579 87.217 -9.2479
87.851608 87.173 -9.1625
88.488217 87.137 -9.0540
89.129439 87.109 -8.9380
89.775308 87.087 -8.8214
90.425856 87.071 -8.7024
91.081119 87.062 -8.5791
91.741131 87.059 -8.4567
92.405925 87.063 -8.3494
93.075536 87.072 -8.2762
93.750000 87.084 -8.2518
94.429351 87.095 -8.2788
95.113625 87.101 -8.3475
95.802858 87.100 -8.4449
96.497085 87.094 -8.5624
97.196342 87.080 -8.6954
97.900667 87.059 -8.8414
98.610096 87.030 -9.0000
99.324665 86.995 -9.1731
100.044413 86.953 -9.3630
100.769376 86.906 -9.5730
101.499592 86.859 -9.8091
102.235100 86.815 -10.0790
102.975938 86.778 -10.3879
103.722144 86.750 -10.7344
104.473757 86.735 -11.1074
105.230817 86.733 -11.4862
105.993363 86.745 -11.8433
106.761435 86.768 -12.1498
107.535072 86.799 -12.3824
108.314315 86.833 -12.5326
109.099206 86.865 -12.6062
109.889783 86.889 -12.6172
110.686090 86.899 -12.5814
111.488167 86.895 -12.5186
112.296056 86.878 -12.4557
113.109800 86.852 -12.4254
113.929440 86.821 -12.4559
114.755020 86.789 -12.5574
115.586582 86.759 -12.7150
116.424170 86.735 -12.8966
117.267827 86.717 -13.0679
118.117598 86.705 -13.2032
118.973527 86.696 -13.2888
119.835658 86.685 -13.3171
120.704037 86.669 -13.2864
121.578708 86.646 -13.2098
122.459718 86.619 -13.1179
123.347111 86.589 -13.0477
124.240935 86.557 -13.0253
125.141236 86.526 -13.0539
126.048061 86.495 -13.1171
126.961458 86.467 -13.1913
127.881473 86.441 -13.2554
128.808154 86.416 -13.2951
129.741551 86.393 -13.3071
130.681712 86.371 -13.2992
131.628686 86.350 -13.2856
132.582521 86.331 -13.2788
133.543269 86.315 -13.2818
134.510979 86.304 -13.2865
135.485701 86.295 -13.2776
136.467486 86.289 -13.2393
137.456386 86.280 -13.1642
138.452451 86.267 -13.0574
139.455735 86.247 -12.9332
140.466288 86.220 -12.8125
141.484165 86.189 -12.7175
142.509418 86.157 -12.6622
143.542100 86.132 -12.6458
144.582265 86.116 -12.6531
145.629968 86.112 -12.6595
146.685262 86.119 -12.6390
147.748204 86.133 -12.5753
148.818849 86.152 -12.4731
149.897251 86.173 -12.3590
150.983469 86.194 -12.2705
152.077557 86.212 -12.2378
153.179574 86.229 -12.2733
154.289576 86.246 -12.3743
155.407622 86.262 -12.5228
156.533770 86.276 -12.6910
157.668078 86.287 -12.8558
158.810606 86.295 -13.0100
159.961413 86.299 -13.1595
161.120559 86.296 -13.3185
162.288105 86.289 -13.4976
163.464112 86.275 -13.6942
164.648640 86.258 -13.8929
165.841752 86.239 -14.0770
167.043510 86.219 -14.2390
168.253976 86.199 -14.3857
169.473213 86.179 -14.5319
170.701286 86.158 -14.6876
171.938258 86.134 -14.8545
173.184194 86.108 -15.0291
174.439158 86.082 -15.2062
175.703216 86.055 -15.3813
176.976434 86.028 -15.5520
178.258878 86.001 -15.7141
179.550615 85.974 -15.8595
180.851713 85.948 -15.9797
182.162239 85.922 -16.0737
183.482262 85.898 -16.1489
184.811850 85.875 -16.2156
186.151073 85.851 -16.2831
187.500000 85.825 -16.3595
188.858702 85.798 -16.4481
190.227250 85.769 -16.5432
191.605715 85.738 -16.6323
192.994169 85.708 -16.7067
194.392685 85.679 -16.7669
195.801334 85.651 -16.8182
197.220191 85.623 -16.8650
198.649330 85.596 -16.9138
200.088825 85.569 -16.9725
201.538751 85.542 -17.0430
202.999184 85.514 -17.1189
204.470200 85.485 -17.1931
205.951875 85.457 -17.2628
207.444287 85.429 -17.3301
208.947514 85.401 -17.3986
210.461634 85.373 -17.4708
211.986726 85.345 -17.5482
213.522869 85.317 -17.6320
215.070144 85.288 -17.7218
216.628631 85.259 -17.8131
218.198411 85.229 -17.8970
219.779567 85.197 -17.9649
221.372180 85.164 -18.0160
222.976334 85.130 -18.0576
224.592112 85.095 -18.1005
226.219600 85.058 -18.1503
227.858880 85.020 -18.2056
229.510039 84.981 -18.2625
231.173164 84.941 -18.3175
232.848340 84.900 -18.3691
234.535655 84.860 -18.4161
236.235197 84.819 -18.4589
237.947054 84.778 -18.4987
239.671317 84.736 -18.5374
241.408074 84.694 -18.5764
243.157416 84.652 -18.6144
244.919435 84.611 -18.6473
246.694223 84.569 -18.6711
248.481871 84.527 -18.6835
250.282473 84.482 -18.6840
252.096123 84.433 -18.6725
253.922915 84.383 -18.6479
255.762945 84.331 -18.6089
257.616309 84.279 -18.5543
259.483103 84.226 -18.4855
261.363424 84.174 -18.4052
263.257372 84.122 -18.3142
265.165043 84.071 -18.2102
267.086538 84.021 -18.0901
269.021957 83.972 -17.9522
270.971401 83.924 -17.7980
272.934972 83.875 -17.6338
274.912771 83.826 -17.4694
276.904902 83.779 -17.3134
278.911469 83.734 -17.1685
280.932577 83.693 -17.0314
282.968330 83.655 -16.8961
285.018835 83.620 -16.7569
287.084199 83.586 -16.6083
289.164530 83.552 -16.4453
291.259935 83.519 -16.2670
293.370525 83.487 -16.0759
295.496408 83.457 -15.8752
297.637697 83.428 -15.6664
299.794503 83.401 -15.4506
301.966937 83.372 -15.2305
304.155114 83.344 -15.0116
306.359147 83.315 -14.8007
308.579152 83.286 -14.5999
310.815244 83.258 -14.4053
313.067539 83.230 -14.2098
315.336156 83.202 -14.0092
317.621211 83.174 -13.8027
319.922826 83.146 -13.5918
322.241118 83.117 -13.3775
324.576210 83.090 -13.1608
326.928223 83.062 -12.9426
329.297280 83.035 -12.7231
331.683504 83.008 -12.5009
334.087019 82.982 -12.2733
336.507952 82.955 -12.0391
338.946427 82.930 -11.7972
341.402572 82.904 -11.5460
343.876516 82.880 -11.2815
346.368387 82.856 -10.9994
348.878315 82.833 -10.6981
351.406431 82.812 -10.3782
353.952867 82.793 -10.0414
356.517756 82.779 -9.6891
359.101230 82.770 -9.3225
361.703426 82.769 -8.9450
364.324478 82.776 -8.5648
366.964523 82.792 -8.1963
369.623699 82.816 -7.8584
372.302145 82.847 -7.5703
375.000000 82.883 -7.3475
377.717405 82.919 -7.2004
380.454501 82.953 -7.1310
383.211431 82.983 -7.1309
385.988339 83.005 -7.1839
388.785369 83.020 -7.2692
391.602668 83.027 -7.3657
394.440383 83.027 -7.4562
397.298660 83.020 -7.5300
400.177650 83.007 -7.5821
403.077502 82.990 -7.6117
405.998368 82.970 -7.6198
408.940400 82.948 -7.6083
411.903750 82.925 -7.5798
414.888575 82.901 -7.5366
417.895028 82.876 -7.4804
420.923268 82.852 -7.4124
423.973452 82.827 -7.3336
427.045738 82.803 -7.2448
430.140287 82.778 -7.1467
433.257261 82.755 -7.0396
436.396822 82.731 -6.9238
439.559133 82.708 -6.8004
442.744360 82.685 -6.6702
445.952668 82.663 -6.5347
449.184225 82.641 -6.3956
452.439199 82.618 -6.2539
455.717760 82.597 -6.1100
459.020079 82.575 -5.9633
462.346327 82.554 -5.8128
465.696680 82.533 -5.6583
469.071310 82.513 -5.5000
472.470394 82.493 -5.3387
475.894109 82.473 -5.1754
479.342634 82.453 -5.0103
482.816148 82.433 -4.8444
486.314833 82.413 -4.6775
489.838871 82.393 -4.5096
493.388445 82.373 -4.3400
496.963741 82.354 -4.1679
500.564945 82.335 -3.9931
504.192245 82.316 -3.8156
507.845830 82.298 -3.6345
511.525890 82.279 -3.4496
515.232618 82.261 -3.2616
518.966206 82.243 -3.0714
522.726849 82.225 -2.8785
526.514743 82.207 -2.6832
530.330086 82.189 -2.4869
534.173076 82.171 -2.2903
538.043915 82.154 -2.0914
541.942803 82.136 -1.8882
545.869944 82.118 -1.6813
549.825542 82.101 -1.4730
553.809805 82.084 -1.2650
557.822939 82.067 -1.0571
561.865154 82.050 -0.8476
565.936660 82.032 -0.6345
570.037671 82.014 -0.4165
574.168399 81.996 -0.1934
578.329060 81.979 0.0342
582.519870 81.962 0.2656
586.741049 81.946 0.5001
590.992817 81.930 0.7372
595.275394 81.914 0.9766
599.589005 81.899 1.2180
603.933874 81.884 1.4619
608.310228 81.870 1.7087
612.718295 81.856 1.9589
617.158304 81.842 2.2123
621.630488 81.828 2.4690
626.135079 81.815 2.7288
630.672311 81.801 2.9915
635.242423 81.787 3.2570
639.845651 81.774 3.5255
644.482237 81.761 3.7975
649.152421 81.748 4.0736
653.856447 81.735 4.3536
658.594560 81.722 4.6372
663.367008 81.709 4.9237
668.174039 81.697 5.2131
673.015903 81.686 5.5057
677.892854 81.674 5.8019
682.805145 81.664 6.1025
687.753032 81.653 6.4078
692.736774 81.643 6.7181
697.756631 81.633 7.0330
702.812863 81.624 7.3520
707.905735 81.615 7.6748
713.035511 81.607 8.0013
718.202461 81.600 8.3316
723.406852 81.593 8.6658
728.648956 81.586 9.0037
733.929047 81.581 9.3452
739.247399 81.576 9.6902
744.604290 81.571 10.0388
750.000000 81.568 10.3914
755.434809 81.565 10.7482
760.909001 81.563 11.1091
766.422861 81.562 11.4740
771.976677 81.561 11.8427
777.570739 81.562 12.2151
783.205337 81.563 12.5914
788.880766 81.565 12.9716
794.597321 81.567 13.3553
800.355301 81.571 13.7422
806.155005 81.575 14.1321
811.996736 81.581 14.5249
817.880799 81.588 14.9209
823.807501 81.595 15.3201
829.777150 81.604 15.7225
835.790057 81.615 16.1278
841.846536 81.626 16.5356
847.946903 81.639 16.9454
854.091476 81.653 17.3568
860.280575 81.669 17.7690
866.514523 81.685 18.1818
872.793644 81.703 18.5950
879.118267 81.723 19.0085
885.488720 81.744 19.4224
891.905336 81.766 19.8357
898.368450 81.790 20.2479
904.878398 81.815 20.6582
911.435520 81.842 21.0662
918.040157 81.871 21.4714
924.692655 81.901 21.8736
931.393359 81.932 22.2726
938.142619 81.965 22.6686
944.940787 81.999 23.0612
951.788218 82.034 23.4500
958.685268 82.071 23.8342
965.632296 82.109 24.2132
972.629666 82.148 24.5866
979.677741 82.188 24.9539
986.776890 82.230 25.3146
993.927482 82.273 25.6681
1001.129891 82.317 26.0137
1008.384491 82.361 26.3514
1015.691660 82.407 26.6811
1023.051781 82.454 27.0027
1030.465236 82.502 27.3158
1037.932411 82.550 27.6200
1045.453698 82.599 27.9151
1053.029486 82.649 28.2011
1060.660172 82.699 28.4784
1068.346153 82.750 28.7469
1076.087829 82.800 29.0067
1083.885605 82.851 29.2580
1091.739887 82.903 29.5005
1099.651084 82.954 29.7343
1107.619609 83.005 29.9596
1115.645878 83.056 30.1767
1123.730308 83.107 30.3859
1131.873321 83.157 30.5876
1140.075341 83.208 30.7821
1148.336797 83.258 30.9698
1156.658119 83.307 31.1510
1165.039741 83.357 31.3267
1173.482099 83.406 31.4977
1181.985634 83.454 31.6644
1190.550789 83.502 31.8271
1199.178011 83.549 31.9860
1207.867749 83.596 32.1409
1216.620457 83.642 32.2922
1225.436590 83.688 32.4406
1234.316609 83.733 32.5867
1243.260976 83.778 32.7314
1252.270157 83.822 32.8754
1261.344623 83.867 33.0193
1270.484846 83.911 33.1632
1279.691303 83.954 33.3073
1288.964474 83.998 33.4522
1298.304842 84.041 33.5981
1307.712894 84.084 33.7455
1317.189120 84.127 33.8943
1326.734016 84.171 34.0449
1336.348077 84.214 34.1971
1346.031806 84.257 34.3513
1355.785708 84.300 34.5074
1365.610290 84.344 34.6656
1375.506065 84.389 34.8255
1385.473549 84.435 34.9860
1395.513261 84.481 35.1454
1405.625726 84.529 35.3028
1415.811469 84.577 35.4586
1426.071023 84.625 35.6151
1436.404921 84.673 35.7755
1446.813703 84.722 35.9418
1457.297912 84.771 36.1135
1467.858093 84.821 36.2881
1478.494798 84.871 36.4622
1489.208581 84.923 36.6339
1500.000000 84.975 36.8032
1510.869618 85.028 36.9717
1521.818002 85.083 37.1408
1532.845723 85.139 37.3112
1543.953355 85.196 37.4821
1555.141477 85.253 37.6521
1566.410674 85.312 37.8201
1577.761531 85.372 37.9854
1589.194642 85.434 38.1472
1600.710601 85.497 38.3047
1612.310010 85.562 38.4571
1623.993473 85.628 38.6038
1635.761599 85.696 38.7443
1647.615002 85.765 38.8783
1659.554299 85.836 39.0051
1671.580114 85.909 39.1237
1683.693072 85.984 39.2333
1695.893807 86.060 39.3328
1708.182952 86.138 39.4214
1720.561150 86.217 39.4983
1733.029045 86.298 39.5624
1745.587288 86.380 39.6125
1758.236533 86.464 39.6475
1770.977440 86.549 39.6664
1783.810673 86.636 39.6682
1796.736900 86.724 39.6521
1809.756796 86.812 39.6172
1822.871040 86.902 39.5627
1836.080315 86.992 39.4878
1849.385310 87.082 39.3915
1862.786718 87.173 39.2732
1876.285239 87.265 39.1322
1889.881575 87.356 38.9681
1903.576436 87.447 38.7803
1917.370535 87.537 38.5685
1931.264593 87.627 38.3322
1945.259332 87.715 38.0712
1959.355483 87.802 37.7856
1973.553781 87.888 37.4757
1987.854965 87.972 37.1416
2002.259781 88.053 36.7839
2016.768981 88.132 36.4034
2031.383320 88.209 36.0008
2046.103561 88.282 35.5773
2060.930471 88.353 35.1339
2075.864823 88.419 34.6721
2090.907395 88.482 34.1933
2106.058972 88.541 33.6995
2121.320344 88.595 33.1928
2136.692305 88.646 32.6755
2152.175658 88.691 32.1500
2167.771210 88.733 31.6191
2183.479774 88.769 31.0854
2199.302169 88.801 30.5515
2215.239219 88.828 30.0201
2231.291755 88.851 29.4939
2247.460615 88.870 28.9756
2263.746641 88.885 28.4677
2280.150683 88.896 27.9724
2296.673595 88.903 27.4915
2313.316238 88.908 27.0259
2330.079481 88.911 26.5762
2346.964198 88.911 26.1417
2363.971268 88.911 25.7212
2381.101578 88.909 25.3130
2398.356022 88.905 24.9147
2415.735498 88.901 24.5244
2433.240913 88.896 24.1403
2450.873180 88.889 23.7615
2468.633217 88.881 23.3877
2486.521951 88.871 23.0192
2504.540314 88.858 22.6571
2522.689246 88.844 22.3029
2540.969692 88.828 21.9584
2559.382606 88.809 21.6253
2577.928947 88.789 21.3053
2596.609683 88.766 20.9996
2615.425787 88.742 20.7098
2634.378241 88.717 20.4374
2653.468031 88.690 20.1842
2672.696154 88.662 19.9523
2692.063613 88.633 19.7433
2711.571415 88.604 19.5591
2731.220579 88.575 19.4005
2751.012130 88.548 19.2673
2770.947098 88.522 19.1579
2791.026522 88.499 19.0690
2811.251451 88.478 18.9966
2831.622938 88.460 18.9368
2852.142045 88.445 18.8859
2872.809842 88.432 18.8422
2893.627406 88.422 18.8049
2914.595823 88.414 18.7748
2935.716186 88.408 18.7531
2956.989596 88.404 18.7413
2978.417161 88.404 18.7401
3000.000000 88.407 18.7485
3021.739237 88.415 18.7634
3043.636005 88.429 18.7795
3065.691446 88.448 18.7889
3087.906710 88.473 18.7819
3110.282955 88.503 18.7479
3132.821347 88.538 18.6777
3155.523062 88.576 18.5642
3178.389283 88.616 18.4042
3201.421202 88.654 18.1985
3224.620020 88.691 17.9512
3247.986946 88.726 17.6686
3271.523198 88.756 17.3580
3295.230004 88.783 17.0264
3319.108599 88.806 16.6798
3343.160228 88.826 16.3230
3367.386145 88.842 15.9594
3391.787613 88.856 15.5909
3416.365904 88.866 15.2191
3441.122300 88.875 14.8441
3466.058091 88.881 14.4661
3491.174576 88.885 14.0847
3516.473066 88.887 13.6995
3541.954880 88.886 13.3098
3567.621345 88.884 12.9155
3593.473800 88.880 12.5165
3619.513592 88.873 12.1132
3645.742080 88.863 11.7057
3672.160630 88.851 11.2950
3698.770620 88.835 10.8818
3725.573436 88.817 10.4674
3752.570477 88.795 10.0530
3779.763150 88.770 9.6399
3807.152872 88.742 9.2296
3834.741071 88.710 8.8240
3862.529185 88.675 8.4248
3890.518664 88.636 8.0336
3918.710966 88.593 7.6522
3947.107561 88.548 7.2820
3975.709929 88.498 6.9248
4004.519563 88.446 6.5819
4033.537962 88.390 6.2545
4062.766641 88.331 5.9438
4092.207123 88.269 5.6510
4121.860942 88.204 5.3771
4151.729646 88.136 5.1232
4181.814790 88.066 4.8900
4212.117944 87.992 4.6785
4242.640687 87.916 4.4899
4273.384610 87.837 4.3256
4304.351317 87.756 4.1879
4335.542421 87.671 4.0795
4366.959549 87.583 4.0037
4398.604338 87.492 3.9647
4430.478438 87.399 3.9671
4462.583511 87.304 4.0155
4494.921231 87.208 4.1144
4527.493283 87.111 4.2672
4560.301365 87.015 4.4762
4593.347189 86.921 4.7416
4626.632476 86.830 5.0614
4660.158962 86.744 5.4316
4693.928395 86.663 5.8470
4727.942535 86.588 6.3016
4762.203156 86.519 6.7896
4796.712043 86.456 7.3062
4831.470996 86.399 7.8477
4866.481826 86.348 8.4124
4901.746360 86.303 8.9991
4937.266434 86.265 9.6077
4973.043902 86.234 10.2374
5009.080628 86.210 10.8870
5045.378492 86.195 11.5535
5081.939384 86.188 12.2323
5118.765212 86.191 12.9167
5155.857894 86.205 13.5988
5193.219366 86.228 14.2690
5230.851574 86.263 14.9174
5268.756481 86.307 15.5333
5306.936062 86.361 16.1063
5345.392309 86.424 16.6265
5384.127225 86.494 17.0847
5423.142830 86.569 17.4739
5462.441159 86.649 17.7887
5502.024259 86.730 18.0264
5541.894195 86.812 18.1870
5582.053045 86.891 18.2732
5622.502902 86.967 18.2899
5663.245876 87.038 18.2444
5704.284090 87.102 18.1455
5745.619684 87.159 18.0028
5787.254813 87.208 17.8266
5829.191647 87.250 17.6271
5871.432373 87.283 17.4139
5913.979192 87.309 17.1957
5956.834323 87.328 16.9797
6000.000000 87.340 16.7717
6043.478473 87.347 16.5764
6087.272010 87.349 16.3970
6131.382892 87.347 16.2358
6175.813420 87.342 16.0940
6220.565910 87.334 15.9722
6265.642695 87.324 15.8706
6311.046124 87.313 15.7889
6356.778566 87.301 15.7267
6402.842404 87.288 15.6833
6449.240040 87.275 15.6580
6495.973891 87.263 15.6495
6543.046396 87.252 15.6567
6590.460007 87.243 15.6780
6638.217197 87.235 15.7114
6686.320456 87.230 15.7555
6734.772290 87.227 15.8085
6783.575226 87.229 15.8685
6832.731809 87.234 15.9332
6882.244600 87.244 15.9985
6932.116181 87.259 16.0604
6982.349153 87.278 16.1141
7032.946133 87.304 16.1549
7083.909760 87.335 16.1771
7135.242690 87.373 16.1740
7186.947600 87.417 16.1383
7239.027185 87.468 16.0615
7291.484160 87.526 15.9343
7344.321260 87.590 15.7465
7397.541239 87.661 15.4871
7451.146872 87.737 15.1445
7505.140954 87.818 14.7061
7559.526299 87.902 14.1595
7614.305743 87.988 13.4926
7669.482141 88.073 12.6930
7725.058371 88.155 11.7496
7781.037328 88.231 10.6523
7837.421932 88.296 9.3940
7894.215122 88.347 7.9712
7951.419859 88.377 6.3854
8009.039125 88.382 4.6461
8067.075924 88.355 2.7723
8125.533282 88.288 0.7965
8184.414245 88.176 -1.2316
8243.721885 88.013 -3.2397
8303.459292 87.797 -5.1290
8363.629581 87.530 -6.7732
8424.235888 87.227 -8.0330
8485.281374 86.914 -8.8018
8546.769221 86.633 -9.0939
8608.702634 86.420 -9.1411
8671.084842 86.281 -9.3673
8733.919097 86.169 -10.1346
8797.208675 86.016 -11.4581
8860.956876 85.773 -13.0341
8925.167022 85.430 -14.4891
8989.842461 85.006 -15.5472
9054.986566 84.531 -16.0634
9120.602731 84.036 -15.9976
9186.694378 83.547 -15.3792
9253.264952 83.085 -14.2758
9320.317925 82.663 -12.7714
9387.856790 82.291 -10.9524
9455.885071 81.975 -8.9003
9524.406312 81.715 -6.6887
9593.424086 81.512 -4.3829
9662.941992 81.366 -2.0406
9732.963653 81.272 0.2869
9803.492719 81.229 2.5540
9874.532869 81.233 4.7195
9946.087805 81.281 6.7468
10018.161257 81.367 8.6029
10090.756983 81.487 10.2592
10163.878768 81.636 11.6912
10237.530423 81.808 12.8787
10311.715789 81.998 13.8065
10386.438732 82.198 14.4649
10461.703149 82.403 14.8507
10537.512962 82.605 14.9678
10613.872125 82.797 14.8282
10690.784618 82.973 14.4531
10768.254450 83.128 13.8737
10846.285661 83.257 13.1298
10924.882318 83.357 12.2678
11004.048518 83.428 11.3341
11083.788390 83.474 10.3680
11164.106090 83.497 9.3945
11245.005805 83.503 8.4218
11326.491752 83.493 7.4454
11408.568180 83.469 6.4562
11491.239368 83.430 5.4477
11574.509626 83.375 4.4196
11658.383294 83.303 3.3778
11742.864745 83.214 2.3320
11827.958384 83.108 1.2935
11913.668646 82.984 0.2728
12000.000000 82.844 -0.7208
12086.956947 82.689 -1.6797
12174.544019 82.519 -2.5975
12262.765784 82.335 -3.4689
12351.626840 82.138 -4.2885
12441.131819 81.930 -5.0518
12531.285389 81.710 -5.7548
12622.092249 81.481 -6.3940
12713.557132 81.242 -6.9664
12805.684808 80.997 -7.4694
12898.480079 80.745 -7.9014
12991.947783 80.489 -8.2626
13086.092792 80.232 -8.5553
13180.920015 79.975 -8.7847
13276.434395 79.721 -8.9580
13372.640911 79.473 -9.0851
13469.544580 79.233 -9.1773
13567.150452 79.003 -9.2487
13665.463617 78.786 -9.3162
13764.489200 78.583 -9.4009
13864.232362 78.398 -9.5262
13964.698305 78.230 -9.7164
14065.892266 78.081 -9.9965
14167.819519 77.950 -10.3923
14270.485380 77.837 -10.9303
14373.895200 77.738 -11.6353
14478.054370 77.650 -12.5281
14582.968320 77.567 -13.6224
14688.642520 77.483 -14.9219
14795.082478 77.391 -16.4185
14902.293745 77.282 -18.0913
15010.281908 77.150 -19.9065
15119.052599 76.989 -21.8176
15228.611486 76.793 -23.7683
15338.964283 76.561 -25.6941
15450.116741 76.290 -27.5264
15562.074656 75.982 -29.1967
15674.843864 75.642 -30.6404
15788.430244 75.276 -31.8024
15902.839718 74.890 -32.6393
16018.078250 74.494 -33.1235
16134.151848 74.099 -33.2439
16251.066563 73.715 -33.0079
16368.828491 73.353 -32.4431
16487.443769 73.023 -31.5985
16606.918584 72.735 -30.5457
16727.259161 72.500 -29.3805
16848.471777 72.323 -28.2233
16970.562748 72.209 -27.2177
17093.538442 72.157 -26.5259
17217.405268 72.162 -26.3211
17342.169684 72.210 -26.7749
17467.838194 72.281 -28.0415
17594.417350 72.344 -30.2411
17721.913751 72.366 -33.4447
17850.334044 72.304 -37.6626
17979.684923 72.118 -42.8373
18109.973131 71.766 -48.8431
18241.205462 71.217 -55.4950
18373.388756 70.445 -62.5677
18506.529905 69.437 -69.8245
18640.635849 68.194 -77.0447
18775.713581 66.724 -84.0421
18911.770141 65.053 -90.6631
19048.812624 63.226 -96.7432
19186.848172 61.326 -101.8427
19325.883983 59.501 -95.8267
19465.927305 57.955 63.1373
19606.985439 56.874 60.1337
19749.065738 56.284 56.8774
19892.175609 56.045 54.3671
20036.322514 55.978 52.9932
