* Measurement data measured by REW V5.31.3
* Source: Headset (2- CX31993 HIFI AUDIO), MICROPHONE (Master Volume), R, volume: 0.250
* Format: 256k Log Swept Sine, 1 sweep at -12.0 dBFS with no timing reference
* Dated: 12 5, 24 1:26:50 PM
* REW Settings:
*  C-weighting compensation: Off
*  Target level: 75.0 dB
* Note: ; 
* Measurement: Aoshida E20 R
* Smoothing: 1/12 octave
* Frequency Step: 96 ppo
* Start Frequency: 0.36621094 Hz
*
* Freq(Hz) SPL(dB) Phase(degrees)
0.366211 38.294 -12.8551
0.368865 38.302 -12.7912
0.371538 38.314 -12.6966
0.374230 38.328 -12.5795
0.376942 38.345 -12.4472
0.379673 38.362 -12.3048
0.382424 38.380 -12.1558
0.385196 38.399 -12.0023
0.387987 38.418 -11.8455
0.390798 38.437 -11.6859
0.393630 38.457 -11.5240
0.396483 38.476 -11.3598
0.399356 38.496 -11.1933
0.402250 38.516 -11.0245
0.405165 38.536 -10.8533
0.408101 38.556 -10.6797
0.411058 38.577 -10.5035
0.414037 38.597 -10.3247
0.417037 38.618 -10.1431
0.420059 38.639 -9.9587
0.423103 38.660 -9.7713
0.426169 38.681 -9.5809
0.429257 38.702 -9.3873
0.432368 38.723 -9.1905
0.435501 38.745 -8.9903
0.438656 38.767 -8.7865
0.441835 38.789 -8.5792
0.445037 38.811 -8.3682
0.448262 38.833 -8.1532
0.451510 38.855 -7.9344
0.454782 38.878 -7.7114
0.458077 38.900 -7.4843
0.461397 38.923 -7.2528
0.464740 38.946 -7.0169
0.468108 38.970 -6.7764
0.471500 38.993 -6.5312
0.474917 39.016 -6.2811
0.478358 39.040 -6.0262
0.481825 39.064 -5.7662
0.485316 39.088 -5.5010
0.488833 39.112 -5.2305
0.492375 39.137 -4.9547
0.495943 39.161 -4.6732
0.499537 39.186 -4.3862
0.503157 39.211 -4.0934
0.506803 39.236 -3.7948
0.510475 39.261 -3.4902
0.514175 39.287 -3.1795
0.517900 39.312 -2.8628
0.521653 39.338 -2.5398
0.525434 39.364 -2.2106
0.529241 39.390 -1.8749
0.533076 39.417 -1.5329
0.536939 39.443 -1.1845
0.540830 39.470 -0.8295
0.544749 39.497 -0.4680
0.548696 39.524 -0.0999
0.552673 39.552 0.2747
0.556677 39.579 0.6558
0.560711 39.607 1.0434
0.564774 39.635 1.4375
0.568867 39.663 1.8381
0.572989 39.692 2.2449
0.577141 39.720 2.6581
0.581324 39.749 3.0773
0.585536 39.778 3.5026
0.589779 39.807 3.9338
0.594053 39.837 4.3707
0.598358 39.866 4.8130
0.602694 39.896 5.2607
0.607061 39.926 5.7135
0.611460 39.956 6.1711
0.615891 39.987 6.6332
0.620354 40.018 7.0996
0.624849 40.049 7.5699
0.629377 40.080 8.0439
0.633938 40.111 8.5210
0.638532 40.143 9.0010
0.643159 40.175 9.4835
0.647819 40.207 9.9681
0.652514 40.239 10.4542
0.657242 40.272 10.9415
0.662005 40.304 11.4295
0.666802 40.337 11.9177
0.671634 40.371 12.4057
0.676501 40.404 12.8929
0.681403 40.438 13.3789
0.686341 40.472 13.8631
0.691314 40.507 14.3450
0.696324 40.542 14.8242
0.701370 40.578 15.3003
0.706452 40.615 15.7727
0.711571 40.653 16.2414
0.716728 40.695 16.7060
0.721921 40.741 17.1668
0.727153 40.793 17.6241
0.732422 40.852 18.0788
0.737729 40.921 18.5316
0.743075 40.999 18.9835
0.748460 41.084 19.4351
0.753883 41.175 19.8869
0.759346 41.272 20.3386
0.764849 41.373 20.7901
0.770391 41.479 21.2409
0.775974 41.588 21.6905
0.781597 41.701 22.1383
0.787261 41.818 22.5838
0.792966 41.938 23.0262
0.798712 42.062 23.4651
0.804500 42.189 23.8998
0.810329 42.319 24.3297
0.816201 42.453 24.7542
0.822116 42.590 25.1728
0.828073 42.730 25.5848
0.834074 42.874 25.9899
0.840118 43.020 26.3873
0.846206 43.170 26.7767
0.852338 43.322 27.1576
0.858514 43.478 27.5294
0.864735 43.636 27.8917
0.871001 43.797 28.2441
0.877313 43.961 28.5862
0.883670 44.127 28.9175
0.890074 44.296 29.2378
0.896524 44.467 29.5466
0.903020 44.641 29.8436
0.909564 44.817 30.1286
0.916155 44.995 30.4011
0.922794 45.174 30.6609
0.929481 45.356 30.9077
0.936216 45.539 31.1414
0.943000 45.724 31.3616
0.949834 45.910 31.5682
0.956717 46.098 31.7610
0.963649 46.286 31.9398
0.970632 46.476 32.1044
0.977666 46.666 32.2547
0.984750 46.857 32.3906
0.991886 47.048 32.5119
0.999074 47.239 32.6186
1.006314 47.431 32.7105
1.013606 47.622 32.7877
1.020951 47.812 32.8499
1.028349 48.002 32.8973
1.035801 48.192 32.9298
1.043307 48.380 32.9474
1.050867 48.566 32.9503
1.058482 48.751 32.9386
1.066152 48.935 32.9128
1.073878 49.116 32.8734
1.081660 49.296 32.8214
1.089498 49.474 32.7583
1.097393 49.650 32.6859
1.105345 49.826 32.6066
1.113355 50.001 32.5225
1.121423 50.175 32.4353
1.129549 50.349 32.3463
1.137734 50.524 32.2559
1.145979 50.699 32.1645
1.154283 50.874 32.0720
1.162647 51.050 31.9780
1.171072 51.225 31.8824
1.179558 51.402 31.7848
1.188106 51.578 31.6848
1.196715 51.755 31.5821
1.205387 51.932 31.4762
1.214122 52.109 31.3669
1.222920 52.286 31.2537
1.231782 52.464 31.1364
1.240708 52.642 31.0147
1.249699 52.820 30.8881
1.258754 52.998 30.7565
1.267876 53.177 30.6195
1.277063 53.355 30.4769
1.286318 53.534 30.3283
1.295639 53.712 30.1735
1.305027 53.891 30.0123
1.314484 54.070 29.8442
1.324009 54.248 29.6693
1.333604 54.427 29.4870
1.343268 54.606 29.2973
1.353002 54.784 29.0999
1.362806 54.962 28.8945
1.372681 55.141 28.6809
1.382628 55.319 28.4589
1.392647 55.497 28.2284
1.402739 55.674 27.9891
1.412904 55.852 27.7410
1.423142 56.029 27.4842
1.433455 56.205 27.2189
1.443843 56.382 26.9456
1.454305 56.557 26.6651
1.464844 56.733 26.3788
1.475459 56.907 26.0880
1.486150 57.081 25.7942
1.496920 57.254 25.4985
1.507767 57.426 25.2016
1.518693 57.598 24.9039
1.529698 57.769 24.6054
1.540783 57.938 24.3060
1.551948 58.108 24.0056
1.563194 58.276 23.7038
1.574521 58.444 23.4004
1.585931 58.611 23.0950
1.597423 58.777 22.7873
1.608999 58.942 22.4770
1.620658 59.107 22.1637
1.632402 59.272 21.8471
1.644232 59.436 21.5268
1.656146 59.599 21.2026
1.668147 59.762 20.8740
1.680235 59.924 20.5408
1.692411 60.087 20.2026
1.704675 60.248 19.8591
1.717028 60.410 19.5100
1.729470 60.571 19.1549
1.742003 60.732 18.7935
1.754626 60.893 18.4257
1.767341 61.053 18.0510
1.780147 61.214 17.6694
1.793047 61.374 17.2808
1.806040 61.535 16.8853
1.819128 61.695 16.4832
1.832310 61.855 16.0751
1.845587 62.014 15.6618
1.858961 62.173 15.2440
1.872432 62.331 14.8225
1.886001 62.488 14.3979
1.899667 62.645 13.9705
1.913433 62.800 13.5408
1.927299 62.955 13.1090
1.941265 63.109 12.6751
1.955332 63.261 12.2393
1.969501 63.414 11.8017
1.983773 63.565 11.3622
1.998148 63.716 10.9208
2.012627 63.866 10.4775
2.027212 64.015 10.0324
2.041902 64.164 9.5851
2.056698 64.313 9.1358
2.071602 64.461 8.6842
2.086614 64.608 8.2302
2.101734 64.755 7.7737
2.116964 64.902 7.3144
2.132304 65.048 6.8521
2.147756 65.194 6.3867
2.163320 65.340 5.9180
2.178996 65.485 5.4458
2.194786 65.630 4.9699
2.210690 65.774 4.4904
2.226710 65.918 4.0073
2.242845 66.061 3.5208
2.259098 66.203 3.0313
2.275468 66.344 2.5389
2.291957 66.484 2.0441
2.308566 66.623 1.5471
2.325295 66.762 1.0483
2.342145 66.899 0.5478
2.359117 67.036 0.0461
2.376212 67.172 -0.4568
2.393431 67.308 -0.9606
2.410775 67.442 -1.4652
2.428244 67.576 -1.9704
2.445840 67.710 -2.4762
2.463564 67.843 -2.9825
2.481416 67.975 -3.4894
2.499397 68.107 -3.9968
2.517509 68.239 -4.5051
2.535752 68.370 -5.0145
2.554127 68.500 -5.5252
2.572635 68.630 -6.0378
2.591277 68.759 -6.5526
2.610055 68.888 -7.0698
2.628968 69.015 -7.5895
2.648019 69.142 -8.1115
2.667208 69.268 -8.6355
2.686535 69.392 -9.1611
2.706003 69.516 -9.6879
2.725612 69.639 -10.2156
2.745363 69.761 -10.7437
2.765257 69.883 -11.2719
2.785295 70.004 -11.7998
2.805478 70.124 -12.3270
2.825808 70.244 -12.8534
2.846285 70.363 -13.3787
2.866910 70.482 -13.9028
2.887685 70.600 -14.4260
2.908611 70.718 -14.9483
2.929688 70.835 -15.4703
2.950917 70.951 -15.9924
2.972301 71.067 -16.5151
2.993839 71.182 -17.0388
3.015534 71.295 -17.5634
3.037386 71.409 -18.0888
3.059396 71.521 -18.6148
3.081565 71.632 -19.1409
3.103896 71.743 -19.6669
3.126388 71.853 -20.1923
3.149043 71.963 -20.7166
3.171862 72.072 -21.2395
3.194847 72.180 -21.7607
3.217998 72.288 -22.2800
3.241317 72.395 -22.7972
3.264805 72.503 -23.3124
3.288463 72.609 -23.8259
3.312293 72.715 -24.3379
3.336295 72.821 -24.8490
3.360471 72.926 -25.3595
3.384822 73.030 -25.8696
3.409350 73.133 -26.3792
3.434056 73.236 -26.8883
3.458940 73.338 -27.3966
3.484005 73.440 -27.9039
3.509252 73.541 -28.4098
3.534681 73.642 -28.9142
3.560295 73.742 -29.4167
3.586094 73.842 -29.9172
3.612081 73.942 -30.4156
3.638255 74.041 -30.9118
3.664620 74.140 -31.4061
3.691175 74.239 -31.8986
3.717923 74.337 -32.3897
3.744864 74.435 -32.8796
3.772001 74.532 -33.3684
3.799335 74.629 -33.8562
3.826866 74.725 -34.3428
3.854597 74.821 -34.8283
3.882529 74.917 -35.3126
3.910664 75.013 -35.7956
3.939002 75.108 -36.2772
3.967546 75.203 -36.7575
3.996296 75.298 -37.2362
4.025255 75.392 -37.7137
4.054423 75.487 -38.1899
4.083804 75.581 -38.6650
4.113396 75.675 -39.1391
4.143204 75.769 -39.6124
4.173227 75.862 -40.0849
4.203468 75.955 -40.5568
4.233928 76.048 -41.0281
4.264609 76.140 -41.4988
4.295512 76.233 -41.9690
4.326639 76.325 -42.4387
4.357992 76.417 -42.9081
4.389572 76.509 -43.3772
4.421380 76.601 -43.8461
4.453419 76.692 -44.3149
4.485691 76.783 -44.7836
4.518196 76.874 -45.2523
4.550936 76.965 -45.7211
4.583914 77.056 -46.1899
4.617131 77.146 -46.6588
4.650589 77.236 -47.1279
4.684289 77.326 -47.5972
4.718233 77.415 -48.0668
4.752424 77.504 -48.5368
4.786862 77.593 -49.0074
4.821549 77.682 -49.4786
4.856488 77.770 -49.9505
4.891680 77.859 -50.4229
4.927127 77.946 -50.8959
4.962831 78.034 -51.3693
4.998794 78.121 -51.8431
5.035017 78.207 -52.3173
5.071503 78.294 -52.7918
5.108253 78.380 -53.2668
5.145270 78.465 -53.7422
5.182555 78.551 -54.2183
5.220110 78.635 -54.6950
5.257937 78.720 -55.1724
5.296038 78.804 -55.6501
5.334415 78.887 -56.1281
5.373071 78.970 -56.6063
5.412006 79.053 -57.0843
5.451224 79.135 -57.5622
5.490725 79.217 -58.0400
5.530514 79.298 -58.5178
5.570590 79.379 -58.9956
5.610957 79.459 -59.4735
5.651616 79.539 -59.9513
5.692570 79.619 -60.4288
5.733821 79.698 -60.9060
5.775370 79.776 -61.3825
5.817221 79.854 -61.8583
5.859375 79.932 -62.3333
5.901834 80.009 -62.8076
5.944602 80.086 -63.2813
5.987679 80.163 -63.7544
6.031068 80.239 -64.2269
6.074771 80.314 -64.6985
6.118792 80.390 -65.1693
6.163131 80.465 -65.6392
6.207792 80.539 -66.1079
6.252776 80.614 -66.5757
6.298086 80.687 -67.0426
6.343725 80.761 -67.5086
6.389694 80.834 -67.9738
6.435996 80.907 -68.4381
6.482634 80.980 -68.9017
6.529610 81.052 -69.3644
6.576926 81.124 -69.8263
6.624585 81.196 -70.2874
6.672590 81.268 -70.7479
6.720942 81.339 -71.2077
6.769645 81.410 -71.6670
6.818700 81.481 -72.1257
6.868111 81.552 -72.5840
6.917881 81.622 -73.0419
6.968010 81.692 -73.4994
7.018504 81.762 -73.9567
7.069362 81.832 -74.4137
7.120590 81.901 -74.8705
7.172189 81.970 -75.3272
7.224161 82.039 -75.7837
7.276511 82.107 -76.2400
7.329239 82.176 -76.6962
7.382350 82.244 -77.1524
7.435845 82.311 -77.6085
7.489729 82.378 -78.0645
7.544002 82.445 -78.5205
7.598669 82.512 -78.9762
7.653732 82.578 -79.4317
7.709194 82.644 -79.8870
7.765058 82.710 -80.3421
7.821327 82.775 -80.7969
7.878004 82.840 -81.2514
7.935091 82.905 -81.7054
7.992592 82.969 -82.1590
8.050510 83.033 -82.6119
8.108847 83.096 -83.0643
8.167607 83.159 -83.5160
8.226793 83.222 -83.9670
8.286408 83.285 -84.4174
8.346454 83.347 -84.8669
8.406936 83.409 -85.3156
8.467856 83.470 -85.7634
8.529218 83.532 -86.2104
8.591024 83.593 -86.6565
8.653278 83.653 -87.1017
8.715983 83.714 -87.5462
8.779143 83.774 -87.9898
8.842760 83.834 -88.4326
8.906839 83.894 -88.8747
8.971381 83.953 -89.3162
9.036392 84.012 -89.7570
9.101873 84.071 -90.1973
9.167829 84.130 -90.6371
9.234263 84.189 -91.0764
9.301178 84.247 -91.5155
9.368578 84.305 -91.9542
9.436467 84.363 -92.3928
9.504847 84.421 -92.8312
9.573723 84.479 -93.2694
9.643099 84.536 -93.7077
9.712976 84.593 -94.1459
9.783361 84.649 -94.5840
9.854255 84.706 -95.0222
9.925663 84.762 -95.4603
9.997588 84.818 -95.8985
10.070035 84.873 -96.3366
10.143007 84.928 -96.7746
10.216507 84.983 -97.2125
10.290540 85.038 -97.6501
10.365109 85.092 -98.0876
10.440219 85.145 -98.5248
10.515873 85.199 -98.9616
10.592076 85.252 -99.3980
10.668830 85.305 -99.8339
10.746141 85.357 -100.2693
10.824012 85.409 -100.7042
10.902447 85.461 -101.1384
10.981451 85.512 -101.5720
11.061027 85.563 -102.0050
11.141180 85.614 -102.4374
11.221913 85.665 -102.8691
11.303232 85.715 -103.3003
11.385140 85.765 -103.7309
11.467641 85.815 -104.1610
11.550741 85.864 -104.5907
11.634442 85.914 -105.0200
11.718750 85.963 -105.4489
11.803669 86.011 -105.8777
11.889203 86.060 -106.3062
11.975357 86.108 -106.7347
12.062136 86.156 -107.1630
12.149543 86.204 -107.5914
12.237583 86.251 -108.0199
12.326262 86.298 -108.4483
12.415583 86.345 -108.8769
12.505552 86.392 -109.3056
12.596172 86.438 -109.7344
12.687449 86.484 -110.1633
12.779387 86.529 -110.5922
12.871992 86.575 -111.0211
12.965268 86.620 -111.4500
13.059220 86.664 -111.8789
13.153852 86.708 -112.3076
13.249170 86.752 -112.7362
13.345179 86.796 -113.1646
13.441884 86.839 -113.5928
13.539289 86.882 -114.0208
13.637401 86.925 -114.4485
13.736223 86.967 -114.8759
13.835761 87.009 -115.3032
13.936021 87.051 -115.7302
14.037007 87.092 -116.1570
14.138725 87.133 -116.5837
14.241180 87.174 -117.0103
14.344377 87.215 -117.4368
14.448323 87.255 -117.8634
14.553021 87.295 -118.2901
14.658478 87.335 -118.7169
14.764700 87.374 -119.1438
14.871691 87.414 -119.5709
14.979457 87.453 -119.9983
15.088005 87.491 -120.4258
15.197339 87.529 -120.8536
15.307465 87.567 -121.2815
15.418389 87.605 -121.7095
15.530117 87.642 -122.1376
15.642655 87.679 -122.5657
15.756008 87.716 -122.9938
15.870182 87.752 -123.4218
15.985184 87.788 -123.8497
16.101019 87.824 -124.2773
16.217694 87.859 -124.7047
16.335214 87.894 -125.1319
16.453586 87.929 -125.5588
16.572815 87.963 -125.9856
16.692909 87.997 -126.4121
16.813872 88.031 -126.8385
16.935713 88.065 -127.2648
17.058436 88.098 -127.6910
17.182048 88.131 -128.1173
17.306556 88.164 -128.5436
17.431967 88.196 -128.9700
17.558286 88.228 -129.3965
17.685521 88.260 -129.8231
17.813677 88.291 -130.2497
17.942762 88.322 -130.6764
18.072783 88.353 -131.1030
18.203746 88.384 -131.5295
18.335658 88.414 -131.9557
18.468526 88.443 -132.3818
18.602356 88.473 -132.8074
18.737156 88.502 -133.2327
18.872934 88.530 -133.6576
19.009695 88.558 -134.0821
19.147447 88.586 -134.5063
19.286197 88.614 -134.9302
19.425953 88.642 -135.3539
19.566721 88.669 -135.7774
19.708510 88.696 -136.2010
19.851326 88.722 -136.6246
19.995177 88.748 -137.0483
20.140070 88.774 -137.4721
20.286013 88.799 -137.8960
20.433014 88.825 -138.3200
20.581080 88.849 -138.7441
20.730219 88.874 -139.1682
20.880439 88.898 -139.5923
21.031747 88.921 -140.0163
21.184152 88.944 -140.4402
21.337661 88.967 -140.8640
21.492282 88.990 -141.2878
21.648024 89.012 -141.7115
21.804895 89.033 -142.1353
21.962902 89.055 -142.5591
22.122054 89.076 -142.9830
22.282360 89.096 -143.4068
22.443827 89.116 -143.8304
22.606464 89.135 -144.2537
22.770280 89.154 -144.6764
22.935283 89.173 -145.0982
23.101481 89.191 -145.5188
23.268884 89.209 -145.9381
23.437500 89.226 -146.3559
23.607338 89.244 -146.7724
23.778406 89.261 -147.1875
23.950714 89.278 -147.6018
24.124271 89.294 -148.0155
24.299086 89.311 -148.4294
24.475167 89.328 -148.8439
24.652524 89.344 -149.2596
24.831166 89.361 -149.6768
25.011103 89.377 -150.0956
25.192344 89.392 -150.5162
25.374898 89.408 -150.9382
25.558775 89.422 -151.3612
25.743984 89.436 -151.7846
25.930536 89.449 -152.2078
26.118439 89.462 -152.6302
26.307704 89.474 -153.0513
26.498341 89.486 -153.4709
26.690359 89.497 -153.8889
26.883768 89.508 -154.3055
27.078579 89.518 -154.7207
27.274801 89.529 -155.1349
27.472446 89.539 -155.5486
27.671522 89.548 -155.9618
27.872042 89.558 -156.3748
28.074014 89.567 -156.7874
28.277450 89.576 -157.1997
28.482360 89.584 -157.6115
28.688755 89.592 -158.0226
28.896645 89.599 -158.4330
29.106042 89.607 -158.8428
29.316957 89.614 -159.2522
29.529400 89.621 -159.6614
29.743382 89.627 -160.0708
29.958915 89.633 -160.4808
30.176009 89.639 -160.8917
30.394677 89.645 -161.3034
30.614929 89.650 -161.7161
30.836778 89.654 -162.1294
31.060234 89.658 -162.5432
31.285309 89.661 -162.9570
31.512015 89.664 -163.3707
31.740364 89.666 -163.7838
31.970368 89.668 -164.1963
32.202039 89.669 -164.6082
32.435388 89.670 -165.0194
32.670428 89.670 -165.4301
32.907171 89.669 -165.8402
33.145630 89.668 -166.2495
33.385817 89.667 -166.6578
33.627745 89.665 -167.0647
33.871425 89.663 -167.4699
34.116871 89.660 -167.8730
34.364096 89.656 -168.2740
34.613113 89.653 -168.6730
34.863934 89.649 -169.0704
35.116572 89.645 -169.4670
35.371041 89.641 -169.8635
35.627354 89.637 -170.2605
35.885525 89.632 -170.6584
36.145566 89.627 -171.0573
36.407492 89.622 -171.4569
36.671316 89.615 -171.8564
36.937051 89.608 -172.2551
37.204712 89.600 -172.6523
37.474313 89.592 -173.0476
37.745867 89.583 -173.4410
38.019389 89.574 -173.8327
38.294893 89.565 -174.2233
38.572394 89.555 -174.6132
38.851905 89.545 -175.0026
39.133442 89.534 -175.3915
39.417019 89.522 -175.7795
39.702651 89.510 -176.1661
39.990353 89.498 -176.5508
40.280140 89.485 -176.9335
40.572026 89.472 -177.3143
40.866028 89.458 -177.6936
41.162160 89.445 -178.0718
41.460438 89.431 -178.4495
41.760877 89.417 -178.8268
42.063494 89.402 -179.2037
42.368303 89.387 -179.5803
42.675322 89.371 -179.9561
42.984565 89.355 179.6689
43.296048 89.338 179.2951
43.609789 89.321 178.9227
43.925804 89.303 178.5519
44.244108 89.285 178.1831
44.564719 89.265 177.8167
44.887654 89.246 177.4530
45.212928 89.225 177.0923
45.540560 89.204 176.7345
45.870565 89.183 176.3795
46.202962 89.161 176.0269
46.537768 89.139 175.6763
46.875000 89.116 175.3269
47.214676 89.093 174.9781
47.556813 89.070 174.6297
47.901429 89.046 174.2812
48.248542 89.022 173.9327
48.598171 88.997 173.5844
48.950334 88.971 173.2369
49.305048 88.945 172.8907
49.662333 88.919 172.5460
50.022206 88.892 172.2029
50.384688 88.865 171.8611
50.749796 88.838 171.5203
51.117550 88.810 171.1804
51.487969 88.783 170.8416
51.861072 88.755 170.5042
52.236879 88.726 170.1692
52.615409 88.697 169.8370
52.996681 88.667 169.5088
53.380717 88.637 169.1856
53.767536 88.606 168.8684
54.157158 88.575 168.5576
54.549603 88.544 168.2529
54.944892 88.513 167.9531
55.343045 88.481 167.6575
55.744084 88.449 167.3666
56.148028 88.416 167.0812
56.554900 88.383 166.8016
56.964720 88.350 166.5252
57.377510 88.318 166.2465
57.793291 88.286 165.9598
58.212085 88.253 165.6624
58.633914 88.217 165.3572
59.058799 88.179 165.0508
59.486764 88.139 164.7499
59.917829 88.098 164.4576
60.352019 88.056 164.1727
60.789354 88.015 163.8921
61.229859 87.973 163.6137
61.673556 87.932 163.3372
62.120468 87.890 163.0632
62.570618 87.849 162.7916
63.024031 87.808 162.5217
63.480729 87.767 162.2530
63.940736 87.725 161.9861
64.404077 87.684 161.7222
64.870776 87.642 161.4623
65.340856 87.600 161.2066
65.814343 87.557 160.9551
66.291261 87.514 160.7075
66.771635 87.470 160.4637
67.255489 87.427 160.2234
67.742850 87.382 159.9857
68.233743 87.337 159.7502
68.728193 87.292 159.5163
69.226226 87.246 159.2835
69.727867 87.199 159.0513
70.233144 87.152 158.8204
70.742083 87.103 158.5931
71.254709 87.054 158.3734
71.771050 87.004 158.1647
72.291132 86.954 157.9680
72.814984 86.904 157.7812
73.342631 86.856 157.6008
73.874102 86.808 157.4239
74.409424 86.760 157.2488
74.948626 86.712 157.0747
75.491734 86.664 156.9015
76.038779 86.614 156.7297
76.589787 86.564 156.5604
77.144788 86.514 156.3942
77.703811 86.462 156.2317
78.266885 86.410 156.0728
78.834039 86.357 155.9176
79.405303 86.303 155.7662
79.980706 86.250 155.6185
80.560280 86.196 155.4748
81.144053 86.142 155.3354
81.732056 86.089 155.2007
82.324320 86.035 155.0710
82.920876 85.981 154.9465
83.521755 85.928 154.8273
84.126988 85.874 154.7136
84.736607 85.820 154.6057
85.350643 85.765 154.5034
85.969129 85.711 154.4060
86.592097 85.656 154.3128
87.219579 85.600 154.2237
87.851608 85.544 154.1385
88.488217 85.488 154.0574
89.129439 85.432 153.9801
89.775308 85.375 153.9067
90.425856 85.318 153.8370
91.081119 85.261 153.7715
91.741131 85.204 153.7107
92.405925 85.146 153.6556
93.075536 85.088 153.6071
93.750000 85.031 153.5651
94.429351 84.973 153.5294
95.113625 84.915 153.4990
95.802858 84.858 153.4735
96.497085 84.800 153.4525
97.196342 84.742 153.4359
97.900667 84.685 153.4237
98.610096 84.627 153.4167
99.324665 84.569 153.4155
100.044413 84.511 153.4209
100.769376 84.453 153.4330
101.499592 84.395 153.4520
102.235100 84.337 153.4777
102.975938 84.280 153.5101
103.722144 84.222 153.5486
104.473757 84.165 153.5928
105.230817 84.108 153.6422
105.993363 84.051 153.6962
106.761435 83.995 153.7542
107.535072 83.938 153.8163
108.314315 83.882 153.8831
109.099206 83.826 153.9554
109.889783 83.770 154.0346
110.686090 83.714 154.1214
111.488167 83.657 154.2155
112.296056 83.599 154.3152
113.109800 83.542 154.4187
113.929440 83.485 154.5241
114.755020 83.429 154.6289
115.586582 83.375 154.7285
116.424170 83.323 154.8154
117.267827 83.272 154.8841
118.117598 83.222 154.9386
118.973527 83.170 154.9953
119.835658 83.115 155.0779
120.704037 83.059 155.2053
121.578708 83.004 155.3812
122.459718 82.950 155.5946
123.347111 82.898 155.8288
124.240935 82.847 156.0684
125.141236 82.795 156.3024
126.048061 82.743 156.5250
126.961458 82.690 156.7342
127.881473 82.637 156.9307
128.808154 82.585 157.1182
129.741551 82.533 157.3018
130.681712 82.483 157.4867
131.628686 82.433 157.6768
132.582521 82.384 157.8730
133.543269 82.333 158.0749
134.510979 82.281 158.2832
135.485701 82.227 158.4977
136.467486 82.175 158.7145
137.456386 82.125 158.9282
138.452451 82.079 159.1356
139.455735 82.037 159.3365
140.466288 81.996 159.5384
141.484165 81.954 159.7603
142.509418 81.908 160.0313
143.542100 81.854 160.3834
144.582265 81.795 160.8359
145.629968 81.733 161.3784
146.685262 81.671 161.9784
147.748204 81.612 162.6032
148.818849 81.557 163.2337
149.897251 81.509 163.8664
150.983469 81.470 164.5043
152.077557 81.445 165.1479
153.179574 81.435 165.7922
154.289576 81.439 166.4285
155.407622 81.457 167.0466
156.533770 81.485 167.6329
157.668078 81.524 168.1728
158.810606 81.569 168.6512
159.961413 81.620 169.0537
161.120559 81.672 169.3708
162.288105 81.724 169.6022
163.464112 81.771 169.7585
164.648640 81.811 169.8594
165.841752 81.841 169.9310
167.043510 81.864 169.9964
168.253976 81.880 170.0669
169.473213 81.892 170.1423
170.701286 81.902 170.2181
171.938258 81.910 170.2932
173.184194 81.916 170.3713
174.439158 81.919 170.4575
175.703216 81.920 170.5542
176.976434 81.919 170.6609
178.258878 81.916 170.7748
179.550615 81.912 170.8929
180.851713 81.908 171.0115
182.162239 81.904 171.1265
183.482262 81.900 171.2350
184.811850 81.897 171.3387
186.151073 81.894 171.4420
187.500000 81.891 171.5488
188.858702 81.888 171.6612
190.227250 81.886 171.7798
191.605715 81.885 171.9043
192.994169 81.885 172.0334
194.392685 81.885 172.1655
195.801334 81.886 172.2994
197.220191 81.887 172.4346
198.649330 81.888 172.5711
200.088825 81.890 172.7086
201.538751 81.891 172.8459
202.999184 81.892 172.9806
204.470200 81.892 173.1103
205.951875 81.892 173.2344
207.444287 81.890 173.3549
208.947514 81.887 173.4754
210.461634 81.883 173.5987
211.986726 81.880 173.7251
213.522869 81.877 173.8515
215.070144 81.876 173.9716
216.628631 81.877 174.0798
218.198411 81.880 174.1759
219.779567 81.884 174.2657
221.372180 81.889 174.3568
222.976334 81.894 174.4535
224.592112 81.898 174.5551
226.219600 81.902 174.6578
227.858880 81.907 174.7573
229.510039 81.910 174.8512
231.173164 81.914 174.9404
232.848340 81.916 175.0270
234.535655 81.918 175.1111
236.235197 81.919 175.1905
237.947054 81.920 175.2640
239.671317 81.919 175.3339
241.408074 81.918 175.4053
243.157416 81.916 175.4832
244.919435 81.915 175.5694
246.694223 81.916 175.6630
248.481871 81.918 175.7605
250.282473 81.921 175.8573
252.096123 81.924 175.9487
253.922915 81.928 176.0315
255.762945 81.931 176.1051
257.616309 81.933 176.1724
259.483103 81.935 176.2381
261.363424 81.937 176.3063
263.257372 81.940 176.3768
265.165043 81.943 176.4466
267.086538 81.946 176.5131
269.021957 81.950 176.5758
270.971401 81.954 176.6345
272.934972 81.958 176.6885
274.912771 81.960 176.7371
276.904902 81.962 176.7791
278.911469 81.964 176.8134
280.932577 81.965 176.8410
282.968330 81.966 176.8654
285.018835 81.965 176.8931
287.084199 81.962 176.9310
289.164530 81.956 176.9820
291.259935 81.949 177.0411
293.370525 81.940 177.0997
295.496408 81.933 177.1526
297.637697 81.925 177.2003
299.794503 81.918 177.2455
301.966937 81.912 177.2902
304.155114 81.905 177.3349
306.359147 81.899 177.3796
308.579152 81.893 177.4244
310.815244 81.886 177.4704
313.067539 81.879 177.5187
315.336156 81.870 177.5699
317.621211 81.860 177.6245
319.922826 81.849 177.6825
322.241118 81.837 177.7444
324.576210 81.824 177.8110
326.928223 81.810 177.8841
329.297280 81.796 177.9663
331.683504 81.782 178.0595
334.087019 81.768 178.1650
336.507952 81.755 178.2834
338.946427 81.742 178.4161
341.402572 81.730 178.5639
343.876516 81.720 178.7256
346.368387 81.711 178.8994
348.878315 81.705 179.0831
351.406431 81.702 179.2741
353.952867 81.703 179.4673
356.517756 81.709 179.6540
359.101230 81.718 179.8235
361.703426 81.731 179.9665
364.324478 81.747 -179.9220
366.964523 81.763 -179.8432
369.623699 81.779 -179.7956
372.302145 81.793 -179.7759
375.000000 81.803 -179.7788
377.717405 81.811 -179.7977
380.454501 81.815 -179.8258
383.211431 81.816 -179.8573
385.988339 81.813 -179.8875
388.785369 81.808 -179.9129
391.602668 81.800 -179.9311
394.440383 81.790 -179.9406
397.298660 81.779 -179.9406
400.177650 81.767 -179.9310
403.077502 81.753 -179.9121
405.998368 81.739 -179.8844
408.940400 81.724 -179.8483
411.903750 81.709 -179.8044
414.888575 81.693 -179.7534
417.895028 81.677 -179.6961
420.923268 81.661 -179.6332
423.973452 81.646 -179.5656
427.045738 81.630 -179.4939
430.140287 81.614 -179.4180
433.257261 81.598 -179.3379
436.396822 81.583 -179.2534
439.559133 81.567 -179.1644
442.744360 81.552 -179.0708
445.952668 81.536 -178.9728
449.184225 81.521 -178.8707
452.439199 81.505 -178.7648
455.717760 81.490 -178.6553
459.020079 81.474 -178.5427
462.346327 81.459 -178.4271
465.696680 81.443 -178.3086
469.071310 81.428 -178.1870
472.470394 81.412 -178.0620
475.894109 81.397 -177.9335
479.342634 81.382 -177.8018
482.816148 81.367 -177.6670
486.314833 81.352 -177.5293
489.838871 81.337 -177.3886
493.388445 81.322 -177.2448
496.963741 81.307 -177.0980
500.564945 81.292 -176.9480
504.192245 81.278 -176.7952
507.845830 81.264 -176.6398
511.525890 81.250 -176.4816
515.232618 81.236 -176.3207
518.966206 81.222 -176.1568
522.726849 81.208 -175.9899
526.514743 81.194 -175.8198
530.330086 81.180 -175.6466
534.173076 81.167 -175.4700
538.043915 81.153 -175.2897
541.942803 81.140 -175.1059
545.869944 81.127 -174.9186
549.825542 81.114 -174.7283
553.809805 81.101 -174.5354
557.822939 81.089 -174.3397
561.865154 81.076 -174.1411
565.936660 81.064 -173.9391
570.037671 81.052 -173.7338
574.168399 81.040 -173.5248
578.329060 81.029 -173.3120
582.519870 81.017 -173.0957
586.741049 81.006 -172.8760
590.992817 80.995 -172.6535
595.275394 80.985 -172.4281
599.589005 80.974 -172.1997
603.933874 80.964 -171.9679
608.310228 80.954 -171.7328
612.718295 80.944 -171.4941
617.158304 80.935 -171.2519
621.630488 80.926 -171.0061
626.135079 80.918 -170.7565
630.672311 80.910 -170.5028
635.242423 80.903 -170.2450
639.845651 80.895 -169.9832
644.482237 80.889 -169.7175
649.152421 80.882 -169.4484
653.856447 80.876 -169.1759
658.594560 80.870 -168.9003
663.367008 80.865 -168.6214
668.174039 80.860 -168.3393
673.015903 80.855 -168.0537
677.892854 80.852 -167.7642
682.805145 80.848 -167.4709
687.753032 80.846 -167.1738
692.736774 80.843 -166.8729
697.756631 80.841 -166.5683
702.812863 80.840 -166.2602
707.905735 80.840 -165.9488
713.035511 80.840 -165.6341
718.202461 80.840 -165.3157
723.406852 80.842 -164.9932
728.648956 80.844 -164.6667
733.929047 80.847 -164.3363
739.247399 80.850 -164.0024
744.604290 80.855 -163.6652
750.000000 80.860 -163.3251
755.434809 80.866 -162.9821
760.909001 80.873 -162.6364
766.422861 80.880 -162.2876
771.976677 80.889 -161.9355
777.570739 80.899 -161.5799
783.205337 80.909 -161.2209
788.880766 80.921 -160.8585
794.597321 80.934 -160.4933
800.355301 80.947 -160.1252
806.155005 80.962 -159.7548
811.996736 80.978 -159.3822
817.880799 80.995 -159.0079
823.807501 81.013 -158.6323
829.777150 81.033 -158.2554
835.790057 81.054 -157.8774
841.846536 81.076 -157.4986
847.946903 81.099 -157.1193
854.091476 81.123 -156.7395
860.280575 81.149 -156.3594
866.514523 81.176 -155.9791
872.793644 81.204 -155.5993
879.118267 81.234 -155.2202
885.488720 81.265 -154.8423
891.905336 81.297 -154.4660
898.368450 81.331 -154.0916
904.878398 81.366 -153.7197
911.435520 81.403 -153.3506
918.040157 81.441 -152.9846
924.692655 81.481 -152.6219
931.393359 81.522 -152.2631
938.142619 81.564 -151.9083
944.940787 81.608 -151.5582
951.788218 81.652 -151.2130
958.685268 81.699 -150.8735
965.632296 81.746 -150.5400
972.629666 81.795 -150.2128
979.677741 81.844 -149.8920
986.776890 81.895 -149.5777
993.927482 81.947 -149.2703
1001.129891 81.999 -148.9705
1008.384491 82.053 -148.6784
1015.691660 82.107 -148.3943
1023.051781 82.162 -148.1185
1030.465236 82.217 -147.8508
1037.932411 82.274 -147.5913
1045.453698 82.331 -147.3399
1053.029486 82.389 -147.0966
1060.660172 82.447 -146.8613
1068.346153 82.506 -146.6340
1076.087829 82.565 -146.4145
1083.885605 82.624 -146.2029
1091.739887 82.684 -145.9991
1099.651084 82.743 -145.8033
1107.619609 82.803 -145.6155
1115.645878 82.863 -145.4358
1123.730308 82.923 -145.2641
1131.873321 82.983 -145.1003
1140.075341 83.043 -144.9444
1148.336797 83.103 -144.7962
1156.658119 83.163 -144.6556
1165.039741 83.222 -144.5226
1173.482099 83.282 -144.3968
1181.985634 83.341 -144.2779
1190.550789 83.399 -144.1656
1199.178011 83.458 -144.0595
1207.867749 83.516 -143.9593
1216.620457 83.573 -143.8647
1225.436590 83.630 -143.7751
1234.316609 83.686 -143.6901
1243.260976 83.742 -143.6092
1252.270157 83.797 -143.5319
1261.344623 83.852 -143.4578
1270.484846 83.906 -143.3866
1279.691303 83.960 -143.3177
1288.964474 84.013 -143.2509
1298.304842 84.065 -143.1859
1307.712894 84.118 -143.1223
1317.189120 84.169 -143.0597
1326.734016 84.221 -142.9979
1336.348077 84.271 -142.9369
1346.031806 84.322 -142.8763
1355.785708 84.372 -142.8159
1365.610290 84.422 -142.7553
1375.506065 84.471 -142.6944
1385.473549 84.521 -142.6332
1395.513261 84.570 -142.5714
1405.625726 84.619 -142.5090
1415.811469 84.668 -142.4456
1426.071023 84.716 -142.3810
1436.404921 84.765 -142.3151
1446.813703 84.813 -142.2480
1457.297912 84.862 -142.1798
1467.858093 84.911 -142.1104
1478.494798 84.960 -142.0397
1489.208581 85.009 -141.9677
1500.000000 85.058 -141.8946
1510.869618 85.107 -141.8203
1521.818002 85.157 -141.7449
1532.845723 85.207 -141.6684
1543.953355 85.257 -141.5909
1555.141477 85.308 -141.5126
1566.410674 85.359 -141.4337
1577.761531 85.411 -141.3541
1589.194642 85.463 -141.2739
1600.710601 85.515 -141.1931
1612.310010 85.568 -141.1120
1623.993473 85.621 -141.0307
1635.761599 85.675 -140.9494
1647.615002 85.730 -140.8685
1659.554299 85.785 -140.7878
1671.580114 85.841 -140.7076
1683.693072 85.898 -140.6279
1695.893807 85.955 -140.5490
1708.182952 86.014 -140.4711
1720.561150 86.072 -140.3945
1733.029045 86.132 -140.3194
1745.587288 86.192 -140.2462
1758.236533 86.253 -140.1747
1770.977440 86.315 -140.1053
1783.810673 86.378 -140.0381
1796.736900 86.441 -139.9732
1809.756796 86.505 -139.9109
1822.871040 86.570 -139.8516
1836.080315 86.636 -139.7955
1849.385310 86.703 -139.7430
1862.786718 86.770 -139.6943
1876.285239 86.839 -139.6496
1889.881575 86.908 -139.6090
1903.576436 86.978 -139.5726
1917.370535 87.049 -139.5407
1931.264593 87.120 -139.5135
1945.259332 87.193 -139.4913
1959.355483 87.267 -139.4746
1973.553781 87.341 -139.4636
1987.854965 87.416 -139.4588
2002.259781 87.492 -139.4604
2016.768981 87.569 -139.4688
2031.383320 87.647 -139.4846
2046.103561 87.726 -139.5082
2060.930471 87.805 -139.5399
2075.864823 87.885 -139.5802
2090.907395 87.966 -139.6295
2106.058972 88.048 -139.6880
2121.320344 88.131 -139.7561
2136.692305 88.214 -139.8342
2152.175658 88.297 -139.9224
2167.771210 88.381 -140.0211
2183.479774 88.466 -140.1305
2199.302169 88.551 -140.2511
2215.239219 88.636 -140.3832
2231.291755 88.722 -140.5270
2247.460615 88.808 -140.6827
2263.746641 88.894 -140.8506
2280.150683 88.981 -141.0309
2296.673595 89.067 -141.2239
2313.316238 89.154 -141.4300
2330.079481 89.240 -141.6495
2346.964198 89.327 -141.8826
2363.971268 89.413 -142.1299
2381.101578 89.499 -142.3916
2398.356022 89.584 -142.6680
2415.735498 89.670 -142.9591
2433.240913 89.754 -143.2653
2450.873180 89.838 -143.5865
2468.633217 89.921 -143.9230
2486.521951 90.003 -144.2747
2504.540314 90.085 -144.6416
2522.689246 90.165 -145.0237
2540.969692 90.243 -145.4208
2559.382606 90.321 -145.8329
2577.928947 90.397 -146.2598
2596.609683 90.471 -146.7015
2615.425787 90.543 -147.1575
2634.378241 90.614 -147.6276
2653.468031 90.683 -148.1116
2672.696154 90.749 -148.6092
2692.063613 90.813 -149.1199
2711.571415 90.875 -149.6431
2731.220579 90.935 -150.1784
2751.012130 90.991 -150.7249
2770.947098 91.045 -151.2821
2791.026522 91.096 -151.8490
2811.251451 91.144 -152.4248
2831.622938 91.188 -153.0083
2852.142045 91.230 -153.5983
2872.809842 91.268 -154.1936
2893.627406 91.302 -154.7926
2914.595823 91.333 -155.3937
2935.716186 91.360 -155.9953
2956.989596 91.384 -156.5956
2978.417161 91.403 -157.1927
3000.000000 91.420 -157.7844
3021.739237 91.432 -158.3686
3043.636005 91.442 -158.9430
3065.691446 91.448 -159.5053
3087.906710 91.452 -160.0536
3110.282955 91.453 -160.5861
3132.821347 91.452 -161.1018
3155.523062 91.450 -161.6006
3178.389283 91.448 -162.0835
3201.421202 91.445 -162.5530
3224.620020 91.442 -163.0123
3247.986946 91.440 -163.4654
3271.523198 91.438 -163.9162
3295.230004 91.436 -164.3683
3319.108599 91.434 -164.8245
3343.160228 91.431 -165.2863
3367.386145 91.427 -165.7545
3391.787613 91.420 -166.2281
3416.365904 91.412 -166.7056
3441.122300 91.401 -167.1846
3466.058091 91.387 -167.6625
3491.174576 91.370 -168.1366
3516.473066 91.350 -168.6043
3541.954880 91.328 -169.0635
3567.621345 91.303 -169.5124
3593.473800 91.276 -169.9495
3619.513592 91.247 -170.3741
3645.742080 91.215 -170.7854
3672.160630 91.182 -171.1832
3698.770620 91.147 -171.5671
3725.573436 91.111 -171.9368
3752.570477 91.073 -172.2915
3779.763150 91.034 -172.6304
3807.152872 90.993 -172.9518
3834.741071 90.951 -173.2542
3862.529185 90.908 -173.5358
3890.518664 90.865 -173.7957
3918.710966 90.822 -174.0336
3947.107561 90.780 -174.2506
3975.709929 90.739 -174.4487
4004.519563 90.699 -174.6308
4033.537962 90.662 -174.8001
4062.766641 90.626 -174.9602
4092.207123 90.592 -175.1140
4121.860942 90.560 -175.2643
4151.729646 90.529 -175.4133
4181.814790 90.500 -175.5631
4212.117944 90.473 -175.7154
4242.640687 90.446 -175.8714
4273.384610 90.420 -176.0319
4304.351317 90.395 -176.1974
4335.542421 90.370 -176.3679
4366.959549 90.346 -176.5433
4398.604338 90.321 -176.7235
4430.478438 90.296 -176.9084
4462.583511 90.271 -177.0978
4494.921231 90.245 -177.2917
4527.493283 90.219 -177.4899
4560.301365 90.193 -177.6924
4593.347189 90.166 -177.8995
4626.632476 90.139 -178.1113
4660.158962 90.111 -178.3281
4693.928395 90.082 -178.5500
4727.942535 90.052 -178.7771
4762.203156 90.022 -179.0093
4796.712043 89.990 -179.2462
4831.470996 89.957 -179.4877
4866.481826 89.923 -179.7330
4901.746360 89.887 -179.9816
4937.266434 89.850 179.7673
4973.043902 89.811 179.5146
5009.080628 89.770 179.2617
5045.378492 89.727 179.0099
5081.939384 89.682 178.7609
5118.765212 89.635 178.5165
5155.857894 89.586 178.2786
5193.219366 89.536 178.0487
5230.851574 89.484 177.8281
5268.756481 89.431 177.6175
5306.936062 89.376 177.4171
5345.392309 89.320 177.2271
5384.127225 89.264 177.0475
5423.142830 89.206 176.8787
5462.441159 89.147 176.7216
5502.024259 89.088 176.5768
5541.894195 89.027 176.4459
5582.053045 88.966 176.3300
5622.502902 88.904 176.2304
5663.245876 88.842 176.1481
5704.284090 88.780 176.0838
5745.619684 88.717 176.0378
5787.254813 88.655 176.0103
5829.191647 88.593 176.0013
5871.432373 88.532 176.0110
5913.979192 88.471 176.0395
5956.834323 88.411 176.0871
6000.000000 88.353 176.1545
6043.478473 88.295 176.2422
6087.272010 88.238 176.3516
6131.382892 88.183 176.4838
6175.813420 88.130 176.6409
6220.565910 88.078 176.8247
6265.642695 88.030 177.0374
6311.046124 87.984 177.2807
6356.778566 87.942 177.5557
6402.842404 87.905 177.8625
6449.240040 87.875 178.1999
6495.973891 87.850 178.5654
6543.046396 87.834 178.9556
6590.460007 87.826 179.3662
6638.217197 87.827 179.7925
6686.320456 87.837 -179.7701
6734.772290 87.857 -179.3260
6783.575226 87.887 -178.8786
6832.731809 87.929 -178.4310
6882.244600 87.981 -177.9860
6932.116181 88.046 -177.5470
6982.349153 88.124 -177.1183
7032.946133 88.216 -176.7063
7083.909760 88.324 -176.3192
7135.242690 88.448 -175.9675
7186.947600 88.590 -175.6642
7239.027185 88.750 -175.4247
7291.484160 88.929 -175.2665
7344.321260 89.128 -175.2091
7397.541239 89.346 -175.2743
7451.146872 89.583 -175.4862
7505.140954 89.837 -175.8707
7559.526299 90.108 -176.4551
7614.305743 90.391 -177.2678
7669.482141 90.685 -178.3370
7725.058371 90.983 -179.6896
7781.037328 91.280 178.6508
7837.421932 91.568 176.6661
7894.215122 91.841 174.3450
7951.419859 92.089 171.6857
8009.039125 92.303 168.6966
8067.075924 92.472 165.3989
8125.533282 92.588 161.8265
8184.414245 92.642 158.0269
8243.721885 92.626 154.0602
8303.459292 92.535 149.9974
8363.629581 92.364 145.9175
8424.235888 92.114 141.9041
8485.281374 91.783 138.0413
8546.769221 91.377 134.4099
8608.702634 90.902 131.0840
8671.084842 90.364 128.1280
8733.919097 89.774 125.5933
8797.208675 89.142 123.5172
8860.956876 88.481 121.9211
8925.167022 87.801 120.8106
8989.842461 87.113 120.1763
9054.986566 86.429 119.9953
9120.602731 85.757 120.2340
9186.694378 85.105 120.8511
9253.264952 84.479 121.8005
9320.317925 83.881 123.0353
9387.856790 83.316 124.5106
9455.885071 82.782 126.1857
9524.406312 82.280 128.0254
9593.424086 81.809 130.0002
9662.941992 81.366 132.0864
9732.963653 80.951 134.2654
9803.492719 80.561 136.5229
9874.532869 80.196 138.8477
9946.087805 79.852 141.2308
10018.161257 79.530 143.6644
10090.756983 79.229 146.1415
10163.878768 78.947 148.6556
10237.530423 78.683 151.2014
10311.715789 78.437 153.7748
10386.438732 78.208 156.3726
10461.703149 77.996 158.9930
10537.512962 77.799 161.6340
10613.872125 77.619 164.2938
10690.784618 77.455 166.9692
10768.254450 77.308 169.6569
10846.285661 77.177 172.3537
10924.882318 77.063 175.0558
11004.048518 76.967 177.7589
11083.788390 76.887 -179.5417
11164.106090 76.825 -176.8510
11245.005805 76.780 -174.1743
11326.491752 76.753 -171.5176
11408.568180 76.744 -168.8877
11491.239368 76.754 -166.2919
11574.509626 76.783 -163.7383
11658.383294 76.832 -161.2362
11742.864745 76.901 -158.7956
11827.958384 76.990 -156.4271
11913.668646 77.099 -154.1412
12000.000000 77.228 -151.9481
12086.956947 77.377 -149.8565
12174.544019 77.544 -147.8727
12262.765784 77.730 -145.9996
12351.626840 77.933 -144.2357
12441.131819 78.156 -142.5761
12531.285389 78.399 -141.0143
12622.092249 78.665 -139.5458
12713.557132 78.960 -138.1736
12805.684808 79.288 -136.9125
12898.480079 79.655 -135.7962
12991.947783 80.065 -134.8803
13086.092792 80.522 -134.2425
13180.920015 81.023 -133.9764
13276.434395 81.560 -134.1814
13372.640911 82.120 -134.9490
13469.544580 82.683 -136.3478
13567.150452 83.228 -138.4110
13665.463617 83.731 -141.1277
13764.489200 84.169 -144.4407
13864.232362 84.525 -148.2520
13964.698305 84.784 -152.4358
14065.892266 84.939 -156.8518
14167.819519 84.985 -161.3541
14270.485380 84.925 -165.7968
14373.895200 84.763 -170.0402
14478.054370 84.510 -173.9593
14582.968320 84.182 -177.4531
14688.642520 83.794 179.5489
14795.082478 83.365 177.0846
14902.293745 82.915 175.1607
15010.281908 82.460 173.7567
15119.052599 82.013 172.8318
15228.611486 81.587 172.3308
15338.964283 81.189 172.1906
15450.116741 80.825 172.3443
15562.074656 80.496 172.7255
15674.843864 80.204 173.2708
15788.430244 79.945 173.9219
15902.839718 79.717 174.6266
16018.078250 79.515 175.3395
16134.151848 79.333 176.0215
16251.066563 79.164 176.6401
16368.828491 79.003 177.1700
16487.443769 78.842 177.5957
16606.918584 78.672 177.9130
16727.259161 78.487 178.1302
16848.471777 78.280 178.2660
16970.562748 78.046 178.3467
17093.538442 77.782 178.4040
17217.405268 77.485 178.4728
17342.169684 77.154 178.5894
17467.838194 76.789 178.7899
17594.417350 76.393 179.1075
17721.913751 75.967 179.5696
17850.334044 75.516 -179.8036
17979.684923 75.044 -179.0015
18109.973131 74.556 -178.0241
18241.205462 74.058 -176.8835
18373.388756 73.556 -175.6040
18506.529905 73.055 -174.2231
18640.635849 72.560 -172.7900
18775.713581 72.073 -171.3650
18911.770141 71.599 -170.0157
19048.812624 71.136 -168.8126
19186.848172 70.686 -167.8218
19325.883983 70.247 -167.0967
19465.927305 69.826 -166.6678
19606.985439 69.432 -166.5295
19749.065738 69.088 -166.6250
19892.175609 68.827 -166.8367
20036.322514 68.686 -167.0060
