* Measurement data measured by REW V5.31.3
* Source: Headset (2- CX31993 HIFI AUDIO), MICROPHONE (Master Volume), R, volume: 0.400
* Format: 256k Log Swept Sine, 1 sweep at -11.9 dBFS with no timing reference
* Dated: 08 4, 25 6:16:45 PM
* REW Settings:
*  C-weighting compensation: Off
*  Target level: 75.0 dB
* Note: ; 
* Measurement: CrinEar Daybreak R
* Smoothing: 1/12 octave
* Frequency Step: 96 ppo
* Start Frequency: 0.36621094 Hz
*
* Freq(Hz) SPL(dB) Phase(degrees)
0.366211 44.596 -36.0542
0.368865 44.598 -36.1160
0.371538 44.602 -36.2083
0.374230 44.608 -36.3236
0.376942 44.613 -36.4555
0.379673 44.620 -36.5992
0.382424 44.626 -36.7517
0.385196 44.633 -36.9111
0.387987 44.640 -37.0762
0.390798 44.647 -37.2465
0.393630 44.654 -37.4216
0.396483 44.661 -37.6015
0.399356 44.668 -37.7861
0.402250 44.675 -37.9754
0.405165 44.682 -38.1693
0.408101 44.689 -38.3679
0.411058 44.696 -38.5713
0.414037 44.704 -38.7795
0.417037 44.711 -38.9925
0.420059 44.719 -39.2104
0.423103 44.726 -39.4331
0.426169 44.734 -39.6608
0.429257 44.741 -39.8934
0.432368 44.749 -40.1310
0.435501 44.757 -40.3736
0.438656 44.764 -40.6213
0.441835 44.772 -40.8741
0.445037 44.780 -41.1319
0.448262 44.788 -41.3949
0.451510 44.796 -41.6631
0.454782 44.804 -41.9365
0.458077 44.812 -42.2151
0.461397 44.820 -42.4989
0.464740 44.828 -42.7880
0.468108 44.837 -43.0823
0.471500 44.845 -43.3820
0.474917 44.853 -43.6870
0.478358 44.862 -43.9974
0.481825 44.870 -44.3131
0.485316 44.879 -44.6342
0.488833 44.888 -44.9607
0.492375 44.896 -45.2926
0.495943 44.905 -45.6299
0.499537 44.914 -45.9727
0.503157 44.923 -46.3209
0.506803 44.932 -46.6746
0.510475 44.941 -47.0337
0.514175 44.950 -47.3984
0.517900 44.959 -47.7686
0.521653 44.968 -48.1442
0.525434 44.978 -48.5254
0.529241 44.987 -48.9121
0.533076 44.997 -49.3044
0.536939 45.006 -49.7022
0.540830 45.016 -50.1056
0.544749 45.025 -50.5145
0.548696 45.035 -50.9291
0.552673 45.045 -51.3492
0.556677 45.055 -51.7750
0.560711 45.065 -52.2063
0.564774 45.075 -52.6433
0.568867 45.085 -53.0860
0.572989 45.095 -53.5343
0.577141 45.105 -53.9883
0.581324 45.115 -54.4480
0.585536 45.126 -54.9134
0.589779 45.136 -55.3846
0.594053 45.147 -55.8616
0.598358 45.157 -56.3444
0.602694 45.168 -56.8330
0.607061 45.179 -57.3275
0.611460 45.189 -57.8280
0.615891 45.200 -58.3343
0.620354 45.211 -58.8468
0.624849 45.222 -59.3652
0.629377 45.234 -59.8898
0.633938 45.245 -60.4206
0.638532 45.256 -60.9576
0.643159 45.267 -61.5009
0.647819 45.279 -62.0507
0.652514 45.290 -62.6070
0.657242 45.302 -63.1698
0.662005 45.314 -63.7393
0.666802 45.326 -64.3157
0.671634 45.337 -64.8989
0.676501 45.349 -65.4893
0.681403 45.362 -66.0868
0.686341 45.374 -66.6916
0.691314 45.386 -67.3040
0.696324 45.399 -67.9240
0.701370 45.411 -68.5519
0.706452 45.424 -69.1879
0.711571 45.438 -69.8322
0.716728 45.453 -70.4852
0.721921 45.468 -71.1471
0.727153 45.486 -71.8182
0.732422 45.507 -72.4989
0.737729 45.530 -73.1894
0.743075 45.555 -73.8899
0.748460 45.583 -74.6004
0.753883 45.613 -75.3209
0.759346 45.644 -76.0512
0.764849 45.676 -76.7910
0.770391 45.709 -77.5400
0.775974 45.743 -78.2980
0.781597 45.778 -79.0645
0.787261 45.814 -79.8394
0.792966 45.850 -80.6222
0.798712 45.887 -81.4127
0.804500 45.926 -82.2104
0.810329 45.965 -83.0151
0.816201 46.005 -83.8265
0.822116 46.045 -84.6442
0.828073 46.087 -85.4680
0.834074 46.129 -86.2976
0.840118 46.173 -87.1326
0.846206 46.217 -87.9729
0.852338 46.262 -88.8181
0.858514 46.309 -89.6681
0.864735 46.356 -90.5226
0.871001 46.404 -91.3814
0.877313 46.453 -92.2445
0.883670 46.503 -93.1115
0.890074 46.554 -93.9825
0.896524 46.606 -94.8572
0.903020 46.660 -95.7357
0.909564 46.714 -96.6178
0.916155 46.769 -97.5035
0.922794 46.826 -98.3928
0.929481 46.883 -99.2858
0.936216 46.942 -100.1825
0.943000 47.001 -101.0829
0.949834 47.062 -101.9873
0.956717 47.124 -102.8956
0.963649 47.188 -103.8081
0.970632 47.252 -104.7249
0.977666 47.318 -105.6463
0.984750 47.385 -106.5725
0.991886 47.453 -107.5037
0.999074 47.522 -108.4404
1.006314 47.593 -109.3826
1.013606 47.665 -110.3310
1.020951 47.738 -111.2857
1.028349 47.813 -112.2471
1.035801 47.888 -113.2158
1.043307 47.966 -114.1920
1.050867 48.044 -115.1763
1.058482 48.125 -116.1689
1.066152 48.206 -117.1703
1.073878 48.289 -118.1806
1.081660 48.374 -119.1998
1.089498 48.460 -120.2276
1.097393 48.548 -121.2633
1.105345 48.639 -122.3059
1.113355 48.731 -123.3538
1.121423 48.825 -124.4058
1.129549 48.922 -125.4606
1.137734 49.020 -126.5171
1.145979 49.121 -127.5744
1.154283 49.225 -128.6318
1.162647 49.331 -129.6886
1.171072 49.438 -130.7444
1.179558 49.549 -131.7986
1.188106 49.661 -132.8508
1.196715 49.776 -133.9009
1.205387 49.892 -134.9485
1.214122 50.011 -135.9934
1.222920 50.132 -137.0355
1.231782 50.255 -138.0746
1.240708 50.380 -139.1108
1.249699 50.506 -140.1440
1.258754 50.635 -141.1742
1.267876 50.765 -142.2016
1.277063 50.897 -143.2263
1.286318 51.031 -144.2484
1.295639 51.166 -145.2681
1.305027 51.303 -146.2858
1.314484 51.442 -147.3016
1.324009 51.581 -148.3158
1.333604 51.723 -149.3289
1.343268 51.865 -150.3410
1.353002 52.008 -151.3526
1.362806 52.153 -152.3641
1.372681 52.298 -153.3759
1.382628 52.444 -154.3883
1.392647 52.591 -155.4018
1.402739 52.739 -156.4166
1.412904 52.887 -157.4330
1.423142 53.036 -158.4511
1.433455 53.185 -159.4705
1.443843 53.335 -160.4908
1.454305 53.485 -161.5107
1.464844 53.636 -162.5284
1.475459 53.788 -163.5416
1.486150 53.942 -164.5482
1.496920 54.096 -165.5464
1.507767 54.253 -166.5349
1.518693 54.411 -167.5132
1.529698 54.570 -168.4812
1.540783 54.731 -169.4392
1.551948 54.894 -170.3877
1.563194 55.058 -171.3273
1.574521 55.224 -172.2590
1.585931 55.391 -173.1834
1.597423 55.559 -174.1017
1.608999 55.729 -175.0148
1.620658 55.900 -175.9236
1.632402 56.073 -176.8293
1.644232 56.246 -177.7329
1.656146 56.421 -178.6355
1.668147 56.596 -179.5381
1.680235 56.773 179.5581
1.692411 56.950 178.6522
1.704675 57.128 177.7429
1.717028 57.306 176.8294
1.729470 57.485 175.9105
1.742003 57.665 174.9853
1.754626 57.845 174.0529
1.767341 58.025 173.1126
1.780147 58.206 172.1640
1.793047 58.386 171.2070
1.806040 58.567 170.2421
1.819128 58.748 169.2705
1.832310 58.929 168.2944
1.845587 59.111 167.3164
1.858961 59.293 166.3392
1.872432 59.475 165.3649
1.886001 59.658 164.3952
1.899667 59.842 163.4310
1.913433 60.026 162.4726
1.927299 60.210 161.5201
1.941265 60.395 160.5732
1.955332 60.581 159.6313
1.969501 60.767 158.6940
1.983773 60.954 157.7603
1.998148 61.141 156.8297
2.012627 61.328 155.9010
2.027212 61.516 154.9735
2.041902 61.704 154.0462
2.056698 61.893 153.1181
2.071602 62.082 152.1882
2.086614 62.271 151.2554
2.101734 62.460 150.3188
2.116964 62.650 149.3776
2.132304 62.840 148.4309
2.147756 63.030 147.4783
2.163320 63.220 146.5197
2.178996 63.410 145.5558
2.194786 63.600 144.5876
2.210690 63.791 143.6169
2.226710 63.981 142.6459
2.242845 64.171 141.6764
2.259098 64.362 140.7096
2.275468 64.552 139.7462
2.291957 64.743 138.7867
2.308566 64.933 137.8309
2.325295 65.124 136.8785
2.342145 65.315 135.9291
2.359117 65.505 134.9818
2.376212 65.696 134.0359
2.393431 65.887 133.0906
2.410775 66.077 132.1448
2.428244 66.268 131.1977
2.445840 66.459 130.2481
2.463564 66.649 129.2951
2.481416 66.840 128.3378
2.499397 67.031 127.3754
2.517509 67.221 126.4073
2.535752 67.412 125.4334
2.554127 67.602 124.4542
2.572635 67.793 123.4707
2.591277 67.983 122.4843
2.610055 68.173 121.4964
2.628968 68.362 120.5082
2.648019 68.551 119.5207
2.667208 68.741 118.5343
2.686535 68.929 117.5492
2.706003 69.118 116.5654
2.725612 69.306 115.5825
2.745363 69.494 114.6000
2.765257 69.682 113.6175
2.785295 69.869 112.6342
2.805478 70.056 111.6493
2.825808 70.243 110.6619
2.846285 70.430 109.6713
2.866910 70.617 108.6767
2.887685 70.803 107.6775
2.908611 70.989 106.6734
2.929688 71.174 105.6646
2.950917 71.359 104.6515
2.972301 71.544 103.6351
2.993839 71.728 102.6162
3.015534 71.912 101.5959
3.037386 72.095 100.5747
3.059396 72.278 99.5533
3.081565 72.460 98.5318
3.103896 72.641 97.5104
3.126388 72.822 96.4890
3.149043 73.003 95.4672
3.171862 73.183 94.4447
3.194847 73.363 93.4210
3.217998 73.542 92.3954
3.241317 73.720 91.3672
3.264805 73.898 90.3359
3.288463 74.076 89.3009
3.312293 74.253 88.2621
3.336295 74.429 87.2197
3.360471 74.605 86.1740
3.384822 74.780 85.1258
3.409350 74.954 84.0759
3.434056 75.128 83.0248
3.458940 75.300 81.9732
3.484005 75.472 80.9216
3.509252 75.643 79.8700
3.534681 75.814 78.8185
3.560295 75.984 77.7671
3.586094 76.153 76.7152
3.612081 76.322 75.6624
3.638255 76.490 74.6080
3.664620 76.657 73.5513
3.691175 76.823 72.4919
3.717923 76.988 71.4295
3.744864 77.153 70.3644
3.772001 77.317 69.2972
3.799335 77.479 68.2287
3.826866 77.641 67.1596
3.854597 77.802 66.0908
3.882529 77.962 65.0226
3.910664 78.122 63.9556
3.939002 78.280 62.8897
3.967546 78.438 61.8248
3.996296 78.595 60.7604
4.025255 78.751 59.6956
4.054423 78.906 58.6298
4.083804 79.060 57.5624
4.113396 79.213 56.4933
4.143204 79.365 55.4228
4.173227 79.516 54.3518
4.203468 79.667 53.2809
4.233928 79.816 52.2112
4.264609 79.964 51.1431
4.295512 80.112 50.0773
4.326639 80.258 49.0137
4.357992 80.404 47.9523
4.389572 80.549 46.8923
4.421380 80.693 45.8330
4.453419 80.836 44.7737
4.485691 80.978 43.7141
4.518196 81.118 42.6546
4.550936 81.258 41.5956
4.583914 81.397 40.5380
4.617131 81.535 39.4825
4.650589 81.672 38.4298
4.684289 81.809 37.3803
4.718233 81.944 36.3339
4.752424 82.079 35.2903
4.786862 82.213 34.2489
4.821549 82.346 33.2089
4.856488 82.478 32.1702
4.891680 82.609 31.1326
4.927127 82.739 30.0968
4.962831 82.868 29.0632
4.998794 82.996 28.0325
5.035017 83.124 27.0051
5.071503 83.251 25.9814
5.108253 83.377 24.9611
5.145270 83.503 23.9438
5.182555 83.627 22.9291
5.220110 83.751 21.9164
5.257937 83.874 20.9056
5.296038 83.997 19.8972
5.334415 84.118 18.8914
5.373071 84.239 17.8886
5.412006 84.359 16.8892
5.451224 84.479 15.8931
5.490725 84.598 14.9001
5.530514 84.716 13.9102
5.570590 84.834 12.9225
5.610957 84.951 11.9371
5.651616 85.067 10.9539
5.692570 85.183 9.9731
5.733821 85.298 8.9950
5.775370 85.412 8.0197
5.817221 85.526 7.0471
5.859375 85.640 6.0773
5.901834 85.752 5.1097
5.944602 85.864 4.1442
5.987679 85.976 3.1806
6.031068 86.087 2.2189
6.074771 86.197 1.2593
6.118792 86.307 0.3018
6.163131 86.416 -0.6534
6.207792 86.524 -1.6064
6.252776 86.632 -2.5575
6.298086 86.739 -3.5070
6.343725 86.846 -4.4550
6.389694 86.952 -5.4014
6.435996 87.057 -6.3462
6.482634 87.162 -7.2891
6.529610 87.265 -8.2300
6.576926 87.369 -9.1692
6.624585 87.471 -10.1066
6.672590 87.573 -11.0426
6.720942 87.674 -11.9772
6.769645 87.775 -12.9103
6.818700 87.874 -13.8417
6.868111 87.973 -14.7711
6.917881 88.071 -15.6985
6.968010 88.169 -16.6239
7.018504 88.265 -17.5476
7.069362 88.361 -18.4696
7.120590 88.456 -19.3898
7.172189 88.551 -20.3081
7.224161 88.644 -21.2242
7.276511 88.737 -22.1379
7.329239 88.829 -23.0493
7.382350 88.920 -23.9584
7.435845 89.010 -24.8653
7.489729 89.100 -25.7700
7.544002 89.189 -26.6724
7.598669 89.277 -27.5722
7.653732 89.364 -28.4694
7.709194 89.451 -29.3638
7.765058 89.537 -30.2557
7.821327 89.622 -31.1451
7.878004 89.706 -32.0320
7.935091 89.790 -32.9163
7.992592 89.873 -33.7980
8.050510 89.955 -34.6769
8.108847 90.036 -35.5532
8.167607 90.117 -36.4271
8.226793 90.197 -37.2985
8.286408 90.277 -38.1675
8.346454 90.356 -39.0341
8.406936 90.434 -39.8983
8.467856 90.512 -40.7601
8.529218 90.589 -41.6198
8.591024 90.665 -42.4773
8.653278 90.740 -43.3327
8.715983 90.815 -44.1860
8.779143 90.890 -45.0372
8.842760 90.963 -45.8865
8.906839 91.036 -46.7338
8.971381 91.108 -47.5792
9.036392 91.180 -48.4227
9.101873 91.251 -49.2643
9.167829 91.321 -50.1039
9.234263 91.390 -50.9415
9.301178 91.459 -51.7773
9.368578 91.527 -52.6111
9.436467 91.594 -53.4427
9.504847 91.661 -54.2722
9.573723 91.726 -55.0995
9.643099 91.791 -55.9247
9.712976 91.856 -56.7475
9.783361 91.919 -57.5679
9.854255 91.982 -58.3859
9.925663 92.044 -59.2012
9.997588 92.106 -60.0140
10.070035 92.166 -60.8242
10.143007 92.226 -61.6318
10.216507 92.286 -62.4366
10.290540 92.344 -63.2387
10.365109 92.402 -64.0381
10.440219 92.460 -64.8348
10.515873 92.517 -65.6289
10.592076 92.573 -66.4203
10.668830 92.629 -67.2092
10.746141 92.684 -67.9957
10.824012 92.739 -68.7798
10.902447 92.793 -69.5615
10.981451 92.847 -70.3411
11.061027 92.900 -71.1186
11.141180 92.952 -71.8940
11.221913 93.004 -72.6676
11.303232 93.056 -73.4392
11.385140 93.107 -74.2091
11.467641 93.157 -74.9772
11.550741 93.207 -75.7435
11.634442 93.257 -76.5081
11.718750 93.305 -77.2709
11.803669 93.353 -78.0319
11.889203 93.401 -78.7910
11.975357 93.448 -79.5482
12.062136 93.494 -80.3034
12.149543 93.540 -81.0564
12.237583 93.585 -81.8072
12.326262 93.629 -82.5557
12.415583 93.673 -83.3016
12.505552 93.716 -84.0450
12.596172 93.759 -84.7858
12.687449 93.801 -85.5240
12.779387 93.842 -86.2594
12.871992 93.883 -86.9922
12.965268 93.924 -87.7222
13.059220 93.964 -88.4496
13.153852 94.004 -89.1744
13.249170 94.043 -89.8967
13.345179 94.082 -90.6166
13.441884 94.120 -91.3342
13.539289 94.158 -92.0496
13.637401 94.196 -92.7629
13.736223 94.233 -93.4743
13.835761 94.270 -94.1838
13.936021 94.306 -94.8914
14.037007 94.341 -95.5971
14.138725 94.377 -96.3010
14.241180 94.411 -97.0030
14.344377 94.446 -97.7030
14.448323 94.479 -98.4009
14.553021 94.512 -99.0966
14.658478 94.545 -99.7898
14.764700 94.577 -100.4806
14.871691 94.608 -101.1686
14.979457 94.639 -101.8539
15.088005 94.669 -102.5363
15.197339 94.699 -103.2156
15.307465 94.728 -103.8918
15.418389 94.757 -104.5651
15.530117 94.786 -105.2355
15.642655 94.814 -105.9029
15.756008 94.842 -106.5676
15.870182 94.869 -107.2298
15.985184 94.896 -107.8895
16.101019 94.923 -108.5471
16.217694 94.949 -109.2026
16.335214 94.975 -109.8563
16.453586 95.001 -110.5082
16.572815 95.026 -111.1583
16.692909 95.051 -111.8066
16.813872 95.075 -112.4533
16.935713 95.099 -113.0981
17.058436 95.122 -113.7410
17.182048 95.145 -114.3818
17.306556 95.167 -115.0203
17.431967 95.189 -115.6565
17.558286 95.210 -116.2902
17.685521 95.231 -116.9212
17.813677 95.251 -117.5496
17.942762 95.271 -118.1754
18.072783 95.290 -118.7986
18.203746 95.309 -119.4193
18.335658 95.328 -120.0377
18.468526 95.346 -120.6539
18.602356 95.364 -121.2680
18.737156 95.381 -121.8802
18.872934 95.399 -122.4905
19.009695 95.415 -123.0990
19.147447 95.432 -123.7057
19.286197 95.448 -124.3105
19.425953 95.463 -124.9135
19.566721 95.478 -125.5144
19.708510 95.493 -126.1133
19.851326 95.507 -126.7098
19.995177 95.520 -127.3043
20.140070 95.534 -127.8965
20.286013 95.547 -128.4865
20.433014 95.559 -129.0743
20.581080 95.572 -129.6602
20.730219 95.584 -130.2441
20.880439 95.595 -130.8264
21.031747 95.606 -131.4069
21.184152 95.617 -131.9856
21.337661 95.628 -132.5626
21.492282 95.637 -133.1377
21.648024 95.647 -133.7108
21.804895 95.656 -134.2814
21.962902 95.665 -134.8496
22.122054 95.673 -135.4151
22.282360 95.681 -135.9778
22.443827 95.688 -136.5377
22.606464 95.696 -137.0950
22.770280 95.703 -137.6498
22.935283 95.710 -138.2026
23.101481 95.717 -138.7538
23.268884 95.723 -139.3038
23.437500 95.730 -139.8529
23.607338 95.736 -140.4015
23.778406 95.741 -140.9496
23.950714 95.747 -141.4972
24.124271 95.751 -142.0441
24.299086 95.755 -142.5899
24.475167 95.759 -143.1342
24.652524 95.762 -143.6764
24.831166 95.764 -144.2161
25.011103 95.766 -144.7529
25.192344 95.767 -145.2864
25.374898 95.768 -145.8166
25.558775 95.768 -146.3434
25.743984 95.768 -146.8671
25.930536 95.768 -147.3878
26.118439 95.767 -147.9059
26.307704 95.766 -148.4215
26.498341 95.765 -148.9351
26.690359 95.764 -149.4467
26.883768 95.762 -149.9563
27.078579 95.761 -150.4642
27.274801 95.758 -150.9704
27.472446 95.756 -151.4749
27.671522 95.753 -151.9777
27.872042 95.750 -152.4789
28.074014 95.747 -152.9787
28.277450 95.743 -153.4772
28.482360 95.739 -153.9742
28.688755 95.734 -154.4700
28.896645 95.729 -154.9642
29.106042 95.724 -155.4565
29.316957 95.718 -155.9468
29.529400 95.711 -156.4345
29.743382 95.704 -156.9196
29.958915 95.697 -157.4019
30.176009 95.690 -157.8815
30.394677 95.683 -158.3590
30.614929 95.675 -158.8348
30.836778 95.668 -159.3096
31.060234 95.660 -159.7840
31.285309 95.652 -160.2583
31.512015 95.643 -160.7327
31.740364 95.634 -161.2068
31.970368 95.624 -161.6801
32.202039 95.614 -162.1518
32.435388 95.603 -162.6213
32.670428 95.591 -163.0879
32.907171 95.579 -163.5512
33.145630 95.566 -164.0113
33.385817 95.553 -164.4683
33.627745 95.540 -164.9227
33.871425 95.527 -165.3750
34.116871 95.513 -165.8256
34.364096 95.499 -166.2747
34.613113 95.485 -166.7224
34.863934 95.470 -167.1686
35.116572 95.455 -167.6132
35.371041 95.440 -168.0558
35.627354 95.424 -168.4962
35.885525 95.408 -168.9344
36.145566 95.391 -169.3703
36.407492 95.374 -169.8041
36.671316 95.357 -170.2358
36.937051 95.339 -170.6660
37.204712 95.322 -171.0947
37.474313 95.304 -171.5223
37.745867 95.285 -171.9490
38.019389 95.267 -172.3745
38.294893 95.248 -172.7986
38.572394 95.228 -173.2208
38.851905 95.208 -173.6404
39.133442 95.187 -174.0570
39.417019 95.167 -174.4705
39.702651 95.146 -174.8811
39.990353 95.125 -175.2893
40.280140 95.103 -175.6957
40.572026 95.082 -176.1009
40.866028 95.060 -176.5050
41.162160 95.038 -176.9077
41.460438 95.015 -177.3085
41.760877 94.992 -177.7067
42.063494 94.969 -178.1017
42.368303 94.945 -178.4933
42.675322 94.920 -178.8817
42.984565 94.896 -179.2673
43.296048 94.871 -179.6506
43.609789 94.845 179.9687
43.925804 94.819 179.5908
44.244108 94.793 179.2164
44.564719 94.766 178.8462
44.887654 94.739 178.4800
45.212928 94.712 178.1171
45.540560 94.686 177.7559
45.870565 94.659 177.3947
46.202962 94.632 177.0323
46.537768 94.604 176.6683
46.875000 94.576 176.3033
47.214676 94.547 175.9387
47.556813 94.517 175.5755
47.901429 94.486 175.2151
48.248542 94.455 174.8579
48.598171 94.423 174.5042
48.950334 94.390 174.1539
49.305048 94.357 173.8069
49.662333 94.324 173.4630
50.022206 94.291 173.1217
50.384688 94.257 172.7825
50.749796 94.223 172.4453
51.117550 94.189 172.1102
51.487969 94.154 171.7781
51.861072 94.119 171.4495
52.236879 94.084 171.1248
52.615409 94.049 170.8036
52.996681 94.014 170.4851
53.380717 93.979 170.1683
53.767536 93.943 169.8530
54.157158 93.907 169.5391
54.549603 93.871 169.2272
54.944892 93.834 168.9183
55.343045 93.797 168.6129
55.744084 93.759 168.3115
56.148028 93.721 168.0146
56.554900 93.683 167.7227
56.964720 93.644 167.4354
57.377510 93.605 167.1521
57.793291 93.566 166.8714
58.212085 93.526 166.5919
58.633914 93.487 166.3130
59.058799 93.446 166.0348
59.486764 93.406 165.7581
59.917829 93.364 165.4840
60.352019 93.322 165.2128
60.789354 93.280 164.9447
61.229859 93.238 164.6791
61.673556 93.195 164.4160
62.120468 93.152 164.1558
62.570618 93.109 163.8984
63.024031 93.065 163.6437
63.480729 93.022 163.3907
63.940736 92.978 163.1395
64.404077 92.934 162.8917
64.870776 92.888 162.6503
65.340856 92.842 162.4180
65.814343 92.796 162.1956
66.291261 92.751 161.9815
66.771635 92.705 161.7728
67.255489 92.660 161.5670
67.742850 92.615 161.3630
68.233743 92.569 161.1611
68.728193 92.522 160.9619
69.226226 92.475 160.7659
69.727867 92.427 160.5735
70.233144 92.379 160.3847
70.742083 92.330 160.1993
71.254709 92.281 160.0172
71.771050 92.232 159.8383
72.291132 92.182 159.6628
72.814984 92.133 159.4905
73.342631 92.084 159.3207
73.874102 92.035 159.1532
74.409424 91.986 158.9882
74.948626 91.937 158.8264
75.491734 91.888 158.6696
76.038779 91.839 158.5186
76.589787 91.790 158.3734
77.144788 91.740 158.2332
77.703811 91.691 158.0973
78.266885 91.640 157.9658
78.834039 91.590 157.8392
79.405303 91.539 157.7180
79.980706 91.487 157.6021
80.560280 91.435 157.4910
81.144053 91.383 157.3838
81.732056 91.331 157.2788
82.324320 91.279 157.1749
82.920876 91.228 157.0721
83.521755 91.176 156.9713
84.126988 91.124 156.8738
84.736607 91.072 156.7803
85.350643 91.020 156.6920
85.969129 90.967 156.6099
86.592097 90.915 156.5352
87.219579 90.863 156.4688
87.851608 90.810 156.4112
88.488217 90.757 156.3618
89.129439 90.705 156.3191
89.775308 90.653 156.2813
90.425856 90.601 156.2471
91.081119 90.549 156.2154
91.741131 90.497 156.1854
92.405925 90.445 156.1574
93.075536 90.393 156.1323
93.750000 90.341 156.1109
94.429351 90.289 156.0945
95.113625 90.237 156.0843
95.802858 90.186 156.0807
96.497085 90.134 156.0833
97.196342 90.083 156.0914
97.900667 90.031 156.1050
98.610096 89.980 156.1241
99.324665 89.928 156.1481
100.044413 89.878 156.1758
100.769376 89.828 156.2061
101.499592 89.778 156.2374
102.235100 89.730 156.2689
102.975938 89.682 156.3018
103.722144 89.635 156.3387
104.473757 89.588 156.3820
105.230817 89.541 156.4320
105.993363 89.494 156.4891
106.761435 89.446 156.5535
107.535072 89.398 156.6245
108.314315 89.349 156.6991
109.099206 89.299 156.7731
109.889783 89.250 156.8436
110.686090 89.201 156.9094
111.488167 89.154 156.9713
112.296056 89.107 157.0316
113.109800 89.063 157.0945
113.929440 89.020 157.1658
114.755020 88.979 157.2510
115.586582 88.938 157.3545
116.424170 88.898 157.4760
117.267827 88.857 157.6089
118.117598 88.815 157.7415
118.973527 88.771 157.8626
119.835658 88.721 157.9707
120.704037 88.667 158.0770
121.578708 88.610 158.1977
122.459718 88.553 158.3422
123.347111 88.501 158.5085
124.240935 88.455 158.6858
125.141236 88.415 158.8636
126.048061 88.378 159.0392
126.961458 88.344 159.2141
127.881473 88.309 159.3911
128.808154 88.272 159.5729
129.741551 88.234 159.7611
130.681712 88.194 159.9542
131.628686 88.154 160.1489
132.582521 88.113 160.3421
133.543269 88.074 160.5316
134.510979 88.035 160.7197
135.485701 87.995 160.9154
136.467486 87.954 161.1293
137.456386 87.914 161.3680
138.452451 87.874 161.6330
139.455735 87.836 161.9201
140.466288 87.802 162.2200
141.484165 87.772 162.5226
142.509418 87.747 162.8232
143.542100 87.724 163.1226
144.582265 87.703 163.4243
145.629968 87.685 163.7317
146.685262 87.668 164.0473
147.748204 87.652 164.3683
148.818849 87.639 164.6846
149.897251 87.630 164.9825
150.983469 87.623 165.2523
152.077557 87.619 165.4933
153.179574 87.618 165.7141
154.289576 87.619 165.9259
155.407622 87.622 166.1367
156.533770 87.628 166.3469
157.668078 87.635 166.5516
158.810606 87.642 166.7456
159.961413 87.647 166.9261
161.120559 87.651 167.0904
162.288105 87.652 167.2356
163.464112 87.652 167.3611
164.648640 87.650 167.4684
165.841752 87.647 167.5587
167.043510 87.644 167.6340
168.253976 87.640 167.6987
169.473213 87.636 167.7587
170.701286 87.631 167.8210
171.938258 87.625 167.8926
173.184194 87.618 167.9786
174.439158 87.610 168.0791
175.703216 87.601 168.1902
176.976434 87.591 168.3058
178.258878 87.580 168.4220
179.550615 87.567 168.5366
180.851713 87.554 168.6490
182.162239 87.540 168.7594
183.482262 87.526 168.8671
184.811850 87.511 168.9700
186.151073 87.498 169.0667
187.500000 87.487 169.1598
188.858702 87.478 169.2576
190.227250 87.471 169.3699
191.605715 87.465 169.5034
192.994169 87.459 169.6589
194.392685 87.452 169.8289
195.801334 87.442 170.0015
197.220191 87.429 170.1687
198.649330 87.415 170.3290
200.088825 87.401 170.4864
201.538751 87.390 170.6461
202.999184 87.381 170.8119
204.470200 87.374 170.9827
205.951875 87.368 171.1517
207.444287 87.363 171.3092
208.947514 87.356 171.4493
210.461634 87.350 171.5751
211.986726 87.344 171.6940
213.522869 87.339 171.8110
215.070144 87.335 171.9272
216.628631 87.331 172.0424
218.198411 87.327 172.1566
219.779567 87.322 172.2705
221.372180 87.317 172.3859
222.976334 87.313 172.5051
224.592112 87.310 172.6320
226.219600 87.307 172.7697
227.858880 87.306 172.9182
229.510039 87.304 173.0710
231.173164 87.303 173.2191
232.848340 87.300 173.3569
234.535655 87.296 173.4843
236.235197 87.291 173.6051
237.947054 87.286 173.7234
239.671317 87.281 173.8388
241.408074 87.278 173.9457
243.157416 87.277 174.0389
244.919435 87.277 174.1235
246.694223 87.279 174.2129
248.481871 87.282 174.3146
250.282473 87.286 174.4210
252.096123 87.290 174.5184
253.922915 87.294 174.6007
255.762945 87.297 174.6729
257.616309 87.301 174.7455
259.483103 87.305 174.8272
261.363424 87.308 174.9207
263.257372 87.311 175.0247
265.165043 87.312 175.1359
267.086538 87.312 175.2501
269.021957 87.310 175.3635
270.971401 87.306 175.4730
272.934972 87.303 175.5775
274.912771 87.299 175.6779
276.904902 87.296 175.7775
278.911469 87.294 175.8788
280.932577 87.292 175.9814
282.968330 87.290 176.0829
285.018835 87.288 176.1812
287.084199 87.286 176.2756
289.164530 87.283 176.3671
291.259935 87.279 176.4570
293.370525 87.275 176.5460
295.496408 87.271 176.6337
297.637697 87.267 176.7196
299.794503 87.263 176.8038
301.966937 87.259 176.8882
304.155114 87.256 176.9761
306.359147 87.253 177.0714
308.579152 87.250 177.1766
310.815244 87.248 177.2932
313.067539 87.245 177.4210
315.336156 87.242 177.5590
317.621211 87.239 177.7050
319.922826 87.237 177.8574
322.241118 87.237 178.0146
324.576210 87.238 178.1748
326.928223 87.243 178.3353
329.297280 87.251 178.4944
331.683504 87.262 178.6514
334.087019 87.278 178.8051
336.507952 87.297 178.9497
338.946427 87.318 179.0757
341.402572 87.340 179.1736
343.876516 87.362 179.2372
346.368387 87.383 179.2645
348.878315 87.401 179.2585
351.406431 87.416 179.2284
353.952867 87.427 179.1855
356.517756 87.435 179.1394
359.101230 87.440 179.0959
361.703426 87.442 179.0587
364.324478 87.441 179.0296
366.964523 87.439 179.0092
369.623699 87.435 178.9966
372.302145 87.430 178.9924
375.000000 87.424 178.9978
377.717405 87.417 179.0126
380.454501 87.410 179.0353
383.211431 87.403 179.0637
385.988339 87.396 179.0964
388.785369 87.389 179.1321
391.602668 87.382 179.1697
394.440383 87.375 179.2089
397.298660 87.368 179.2499
400.177650 87.362 179.2930
403.077502 87.355 179.3387
405.998368 87.349 179.3870
408.940400 87.342 179.4377
411.903750 87.335 179.4905
414.888575 87.329 179.5452
417.895028 87.322 179.6016
420.923268 87.316 179.6596
423.973452 87.309 179.7191
427.045738 87.303 179.7798
430.140287 87.296 179.8414
433.257261 87.289 179.9033
436.396822 87.282 179.9652
439.559133 87.275 -179.9725
442.744360 87.268 -179.9094
445.952668 87.262 -179.8447
449.184225 87.255 -179.7783
452.439199 87.248 -179.7106
455.717760 87.241 -179.6418
459.020079 87.234 -179.5721
462.346327 87.226 -179.5015
465.696680 87.219 -179.4301
469.071310 87.211 -179.3580
472.470394 87.203 -179.2852
475.894109 87.195 -179.2114
479.342634 87.187 -179.1365
482.816148 87.179 -179.0602
486.314833 87.170 -178.9828
489.838871 87.162 -178.9042
493.388445 87.153 -178.8242
496.963741 87.145 -178.7427
500.564945 87.136 -178.6596
504.192245 87.127 -178.5748
507.845830 87.118 -178.4882
511.525890 87.109 -178.3997
515.232618 87.099 -178.3095
518.966206 87.090 -178.2175
522.726849 87.080 -178.1237
526.514743 87.070 -178.0280
530.330086 87.060 -177.9302
534.173076 87.050 -177.8303
538.043915 87.039 -177.7281
541.942803 87.029 -177.6237
545.869944 87.019 -177.5168
549.825542 87.008 -177.4073
553.809805 86.998 -177.2952
557.822939 86.987 -177.1801
561.865154 86.977 -177.0620
565.936660 86.966 -176.9410
570.037671 86.955 -176.8173
574.168399 86.944 -176.6907
578.329060 86.933 -176.5615
582.519870 86.923 -176.4294
586.741049 86.912 -176.2947
590.992817 86.901 -176.1575
595.275394 86.891 -176.0184
599.589005 86.881 -175.8776
603.933874 86.871 -175.7349
608.310228 86.861 -175.5901
612.718295 86.851 -175.4430
617.158304 86.841 -175.2939
621.630488 86.832 -175.1434
626.135079 86.822 -174.9919
630.672311 86.813 -174.8401
635.242423 86.803 -174.6884
639.845651 86.794 -174.5367
644.482237 86.784 -174.3846
649.152421 86.773 -174.2311
653.856447 86.762 -174.0750
658.594560 86.750 -173.9149
663.367008 86.738 -173.7500
668.174039 86.725 -173.5792
673.015903 86.712 -173.4017
677.892854 86.698 -173.2170
682.805145 86.685 -173.0250
687.753032 86.671 -172.8258
692.736774 86.658 -172.6193
697.756631 86.644 -172.4055
702.812863 86.631 -172.1843
707.905735 86.618 -171.9560
713.035511 86.606 -171.7205
718.202461 86.594 -171.4779
723.406852 86.582 -171.2280
728.648956 86.571 -170.9708
733.929047 86.560 -170.7064
739.247399 86.550 -170.4351
744.604290 86.540 -170.1570
750.000000 86.531 -169.8723
755.434809 86.523 -169.5811
760.909001 86.515 -169.2830
766.422861 86.508 -168.9782
771.976677 86.503 -168.6670
777.570739 86.498 -168.3494
783.205337 86.494 -168.0259
788.880766 86.491 -167.6965
794.597321 86.490 -167.3618
800.355301 86.489 -167.0217
806.155005 86.489 -166.6764
811.996736 86.491 -166.3258
817.880799 86.494 -165.9700
823.807501 86.498 -165.6089
829.777150 86.503 -165.2428
835.790057 86.510 -164.8722
841.846536 86.518 -164.4976
847.946903 86.528 -164.1193
854.091476 86.539 -163.7376
860.280575 86.552 -163.3529
866.514523 86.567 -162.9655
872.793644 86.583 -162.5758
879.118267 86.601 -162.1840
885.488720 86.620 -161.7906
891.905336 86.642 -161.3961
898.368450 86.665 -161.0009
904.878398 86.690 -160.6055
911.435520 86.717 -160.2104
918.040157 86.745 -159.8162
924.692655 86.776 -159.4235
931.393359 86.808 -159.0330
938.142619 86.842 -158.6455
944.940787 86.879 -158.2618
951.788218 86.917 -157.8824
958.685268 86.956 -157.5079
965.632296 86.998 -157.1391
972.629666 87.041 -156.7765
979.677741 87.086 -156.4207
986.776890 87.133 -156.0721
993.927482 87.181 -155.7311
1001.129891 87.232 -155.3984
1008.384491 87.283 -155.0746
1015.691660 87.336 -154.7600
1023.051781 87.390 -154.4551
1030.465236 87.446 -154.1603
1037.932411 87.503 -153.8762
1045.453698 87.560 -153.6030
1053.029486 87.619 -153.3413
1060.660172 87.679 -153.0913
1068.346153 87.739 -152.8531
1076.087829 87.800 -152.6270
1083.885605 87.862 -152.4128
1091.739887 87.925 -152.2108
1099.651084 87.987 -152.0210
1107.619609 88.050 -151.8436
1115.645878 88.114 -151.6786
1123.730308 88.177 -151.5258
1131.873321 88.240 -151.3848
1140.075341 88.304 -151.2553
1148.336797 88.367 -151.1367
1156.658119 88.430 -151.0287
1165.039741 88.492 -150.9308
1173.482099 88.554 -150.8427
1181.985634 88.616 -150.7639
1190.550789 88.677 -150.6937
1199.178011 88.737 -150.6320
1207.867749 88.797 -150.5784
1216.620457 88.856 -150.5327
1225.436590 88.914 -150.4945
1234.316609 88.972 -150.4633
1243.260976 89.029 -150.4385
1252.270157 89.084 -150.4194
1261.344623 89.140 -150.4055
1270.484846 89.194 -150.3963
1279.691303 89.247 -150.3911
1288.964474 89.300 -150.3893
1298.304842 89.352 -150.3905
1307.712894 89.403 -150.3943
1317.189120 89.453 -150.4001
1326.734016 89.503 -150.4078
1336.348077 89.552 -150.4175
1346.031806 89.600 -150.4290
1355.785708 89.647 -150.4419
1365.610290 89.694 -150.4557
1375.506065 89.740 -150.4699
1385.473549 89.786 -150.4838
1395.513261 89.831 -150.4969
1405.625726 89.876 -150.5092
1415.811469 89.921 -150.5207
1426.071023 89.965 -150.5313
1436.404921 90.009 -150.5411
1446.813703 90.053 -150.5502
1457.297912 90.097 -150.5582
1467.858093 90.141 -150.5649
1478.494798 90.184 -150.5703
1489.208581 90.228 -150.5740
1500.000000 90.271 -150.5762
1510.869618 90.314 -150.5771
1521.818002 90.358 -150.5765
1532.845723 90.402 -150.5748
1543.953355 90.446 -150.5720
1555.141477 90.490 -150.5685
1566.410674 90.534 -150.5645
1577.761531 90.579 -150.5601
1589.194642 90.624 -150.5551
1600.710601 90.669 -150.5496
1612.310010 90.715 -150.5436
1623.993473 90.762 -150.5373
1635.761599 90.808 -150.5309
1647.615002 90.856 -150.5248
1659.554299 90.903 -150.5190
1671.580114 90.952 -150.5139
1683.693072 91.001 -150.5096
1695.893807 91.050 -150.5062
1708.182952 91.100 -150.5040
1720.561150 91.151 -150.5032
1733.029045 91.202 -150.5040
1745.587288 91.254 -150.5067
1758.236533 91.307 -150.5114
1770.977440 91.360 -150.5182
1783.810673 91.414 -150.5273
1796.736900 91.469 -150.5386
1809.756796 91.525 -150.5524
1822.871040 91.581 -150.5687
1836.080315 91.638 -150.5880
1849.385310 91.697 -150.6104
1862.786718 91.755 -150.6362
1876.285239 91.815 -150.6658
1889.881575 91.876 -150.6992
1903.576436 91.937 -150.7369
1917.370535 92.000 -150.7791
1931.264593 92.063 -150.8260
1945.259332 92.127 -150.8781
1959.355483 92.193 -150.9356
1973.553781 92.259 -150.9991
1987.854965 92.327 -151.0692
2002.259781 92.395 -151.1463
2016.768981 92.464 -151.2309
2031.383320 92.535 -151.3235
2046.103561 92.606 -151.4248
2060.930471 92.679 -151.5352
2075.864823 92.752 -151.6552
2090.907395 92.827 -151.7850
2106.058972 92.902 -151.9254
2121.320344 92.978 -152.0768
2136.692305 93.056 -152.2398
2152.175658 93.134 -152.4151
2167.771210 93.213 -152.6033
2183.479774 93.292 -152.8051
2199.302169 93.373 -153.0208
2215.239219 93.454 -153.2510
2231.291755 93.536 -153.4963
2247.460615 93.618 -153.7574
2263.746641 93.701 -154.0349
2280.150683 93.785 -154.3295
2296.673595 93.868 -154.6419
2313.316238 93.952 -154.9727
2330.079481 94.036 -155.3226
2346.964198 94.120 -155.6923
2363.971268 94.204 -156.0825
2381.101578 94.288 -156.4936
2398.356022 94.370 -156.9261
2415.735498 94.453 -157.3802
2433.240913 94.534 -157.8564
2450.873180 94.615 -158.3549
2468.633217 94.694 -158.8759
2486.521951 94.772 -159.4197
2504.540314 94.848 -159.9865
2522.689246 94.923 -160.5765
2540.969692 94.996 -161.1898
2559.382606 95.066 -161.8263
2577.928947 95.134 -162.4858
2596.609683 95.200 -163.1682
2615.425787 95.262 -163.8730
2634.378241 95.322 -164.6000
2653.468031 95.378 -165.3486
2672.696154 95.430 -166.1179
2692.063613 95.478 -166.9070
2711.571415 95.522 -167.7148
2731.220579 95.561 -168.5400
2751.012130 95.596 -169.3808
2770.947098 95.626 -170.2357
2791.026522 95.651 -171.1027
2811.251451 95.670 -171.9799
2831.622938 95.684 -172.8652
2852.142045 95.693 -173.7563
2872.809842 95.696 -174.6508
2893.627406 95.693 -175.5463
2914.595823 95.685 -176.4402
2935.716186 95.671 -177.3302
2956.989596 95.651 -178.2140
2978.417161 95.626 -179.0894
3000.000000 95.595 -179.9543
3021.739237 95.560 179.1932
3043.636005 95.519 178.3552
3065.691446 95.474 177.5333
3087.906710 95.425 176.7294
3110.282955 95.371 175.9447
3132.821347 95.313 175.1803
3155.523062 95.251 174.4373
3178.389283 95.186 173.7165
3201.421202 95.118 173.0190
3224.620020 95.046 172.3455
3247.986946 94.972 171.6969
3271.523198 94.896 171.0736
3295.230004 94.818 170.4763
3319.108599 94.737 169.9053
3343.160228 94.655 169.3613
3367.386145 94.571 168.8447
3391.787613 94.487 168.3560
3416.365904 94.401 167.8957
3441.122300 94.315 167.4642
3466.058091 94.229 167.0622
3491.174576 94.143 166.6898
3516.473066 94.058 166.3472
3541.954880 93.974 166.0338
3567.621345 93.892 165.7485
3593.473800 93.813 165.4890
3619.513592 93.736 165.2515
3645.742080 93.663 165.0309
3672.160630 93.594 164.8209
3698.770620 93.529 164.6145
3725.573436 93.467 164.4051
3752.570477 93.409 164.1869
3779.763150 93.352 163.9559
3807.152872 93.297 163.7103
3834.741071 93.242 163.4505
3862.529185 93.186 163.1782
3890.518664 93.129 162.8962
3918.710966 93.071 162.6073
3947.107561 93.011 162.3143
3975.709929 92.949 162.0195
4004.519563 92.886 161.7244
4033.537962 92.821 161.4298
4062.766641 92.755 161.1365
4092.207123 92.687 160.8449
4121.860942 92.617 160.5555
4151.729646 92.545 160.2689
4181.814790 92.471 159.9852
4212.117944 92.395 159.7051
4242.640687 92.317 159.4294
4273.384610 92.236 159.1591
4304.351317 92.152 158.8954
4335.542421 92.066 158.6403
4366.959549 91.976 158.3960
4398.604338 91.884 158.1653
4430.478438 91.787 157.9518
4462.583511 91.688 157.7599
4494.921231 91.585 157.5941
4527.493283 91.479 157.4598
4560.301365 91.371 157.3618
4593.347189 91.262 157.3046
4626.632476 91.152 157.2913
4660.158962 91.042 157.3231
4693.928395 90.935 157.3986
4727.942535 90.831 157.5135
4762.203156 90.731 157.6616
4796.712043 90.637 157.8350
4831.470996 90.548 158.0251
4866.481826 90.464 158.2237
4901.746360 90.386 158.4232
4937.266434 90.312 158.6177
4973.043902 90.242 158.8022
5009.080628 90.176 158.9738
5045.378492 90.111 159.1301
5081.939384 90.049 159.2703
5118.765212 89.987 159.3940
5155.857894 89.925 159.5019
5193.219366 89.864 159.5948
5230.851574 89.801 159.6743
5268.756481 89.737 159.7426
5306.936062 89.670 159.8021
5345.392309 89.602 159.8557
5384.127225 89.531 159.9064
5423.142830 89.457 159.9577
5462.441159 89.379 160.0134
5502.024259 89.298 160.0771
5541.894195 89.214 160.1530
5582.053045 89.126 160.2451
5622.502902 89.034 160.3575
5663.245876 88.940 160.4944
5704.284090 88.842 160.6597
5745.619684 88.742 160.8572
5787.254813 88.639 161.0905
5829.191647 88.534 161.3625
5871.432373 88.428 161.6763
5913.979192 88.321 162.0339
5956.834323 88.214 162.4376
6000.000000 88.107 162.8886
6043.478473 88.001 163.3885
6087.272010 87.896 163.9382
6131.382892 87.794 164.5386
6175.813420 87.695 165.1897
6220.565910 87.599 165.8915
6265.642695 87.508 166.6437
6311.046124 87.422 167.4453
6356.778566 87.342 168.2952
6402.842404 87.269 169.1920
6449.240040 87.204 170.1335
6495.973891 87.147 171.1172
6543.046396 87.099 172.1400
6590.460007 87.062 173.1985
6638.217197 87.035 174.2887
6686.320456 87.020 175.4062
6734.772290 87.017 176.5465
6783.575226 87.028 177.7042
6832.731809 87.053 178.8732
6882.244600 87.093 -179.9531
6932.116181 87.149 -178.7827
6982.349153 87.222 -177.6245
7032.946133 87.312 -176.4889
7083.909760 87.421 -175.3878
7135.242690 87.550 -174.3352
7186.947600 87.698 -173.3472
7239.027185 87.866 -172.4418
7291.484160 88.054 -171.6391
7344.321260 88.261 -170.9608
7397.541239 88.488 -170.4308
7451.146872 88.731 -170.0748
7505.140954 88.990 -169.9205
7559.526299 89.260 -169.9968
7614.305743 89.537 -170.3317
7669.482141 89.816 -170.9490
7725.058371 90.088 -171.8657
7781.037328 90.345 -173.0892
7837.421932 90.580 -174.6165
7894.215122 90.783 -176.4316
7951.419859 90.945 -178.5051
8009.039125 91.057 179.2073
8067.075924 91.113 176.7629
8125.533282 91.108 174.2308
8184.414245 91.040 171.6874
8243.721885 90.907 169.2130
8303.459292 90.714 166.8864
8363.629581 90.465 164.7809
8424.235888 90.168 162.9606
8485.281374 89.833 161.4774
8546.769221 89.470 160.3680
8608.702634 89.092 159.6523
8671.084842 88.713 159.3287
8733.919097 88.345 159.3714
8797.208675 88.000 159.7263
8860.956876 87.687 160.3146
8925.167022 87.408 161.0469
8989.842461 87.161 161.8472
9054.986566 86.938 162.6759
9120.602731 86.733 163.5360
9186.694378 86.540 164.4559
9253.264952 86.363 165.4617
9320.317925 86.203 166.5562
9387.856790 86.065 167.7162
9455.885071 85.952 168.9042
9524.406312 85.862 170.0853
9593.424086 85.792 171.2385
9662.941992 85.742 172.3551
9732.963653 85.711 173.4301
9803.492719 85.699 174.4520
9874.532869 85.707 175.4000
9946.087805 85.735 176.2453
10018.161257 85.781 176.9570
10090.756983 85.840 177.5076
10163.878768 85.908 177.8777
10237.530423 85.978 178.0590
10311.715789 86.043 178.0530
10386.438732 86.098 177.8707
10461.703149 86.139 177.5303
10537.512962 86.160 177.0555
10613.872125 86.159 176.4736
10690.784618 86.134 175.8140
10768.254450 86.084 175.1065
10846.285661 86.007 174.3810
10924.882318 85.904 173.6666
11004.048518 85.776 172.9910
11083.788390 85.624 172.3796
11164.106090 85.451 171.8538
11245.005805 85.260 171.4267
11326.491752 85.054 171.1018
11408.568180 84.837 170.8725
11491.239368 84.609 170.7274
11574.509626 84.370 170.6586
11658.383294 84.119 170.6703
11742.864745 83.852 170.7823
11827.958384 83.568 171.0285
11913.668646 83.267 171.4514
12000.000000 82.953 172.0950
12086.956947 82.630 172.9988
12174.544019 82.303 174.1921
12262.765784 81.983 175.6924
12351.626840 81.676 177.5028
12441.131819 81.392 179.6135
12531.285389 81.139 -177.9979
12622.092249 80.925 -175.3642
12713.557132 80.756 -172.5275
12805.684808 80.637 -169.5368
12898.480079 80.573 -166.4475
12991.947783 80.566 -163.3198
13086.092792 80.619 -160.2173
13180.920015 80.731 -157.2068
13276.434395 80.901 -154.3564
13372.640911 81.125 -151.7344
13469.544580 81.398 -149.4067
13567.150452 81.713 -147.4347
13665.463617 82.060 -145.8708
13764.489200 82.429 -144.7560
13864.232362 82.806 -144.1147
13964.698305 83.178 -143.9532
14065.892266 83.531 -144.2565
14167.819519 83.853 -144.9884
14270.485380 84.131 -146.0922
14373.895200 84.356 -147.4927
14478.054370 84.522 -149.1002
14582.968320 84.625 -150.8153
14688.642520 84.666 -152.5358
14795.082478 84.652 -154.1652
14902.293745 84.592 -155.6204
15010.281908 84.499 -156.8409
15119.052599 84.389 -157.7944
15228.611486 84.278 -158.4823
15338.964283 84.184 -158.9423
15450.116741 84.120 -159.2479
15562.074656 84.096 -159.5027
15674.843864 84.115 -159.8272
15788.430244 84.172 -160.3416
15902.839718 84.257 -161.1467
16018.078250 84.353 -162.3109
16134.151848 84.441 -163.8635
16251.066563 84.502 -165.7946
16368.828491 84.519 -168.0590
16487.443769 84.476 -170.5798
16606.918584 84.361 -173.2539
16727.259161 84.169 -175.9580
16848.471777 83.896 -178.5584
16970.562748 83.548 179.0775
17093.538442 83.137 177.0678
17217.405268 82.679 175.5032
17342.169684 82.195 174.4343
17467.838194 81.710 173.8635
17594.417350 81.248 173.7388
17721.913751 80.832 173.9522
17850.334044 80.481 174.3445
17979.684923 80.202 174.7169
18109.973131 79.994 174.8567
18241.205462 79.839 174.5732
18373.388756 79.708 173.7394
18506.529905 79.564 172.3215
18640.635849 79.370 170.3866
18775.713581 79.098 168.0790
18911.770141 78.732 165.5737
19048.812624 78.269 163.0261
19186.848172 77.717 160.5414
19325.883983 77.087 158.1760
19465.927305 76.400 155.9633
19606.985439 75.686 153.9467
19749.065738 75.004 152.2115
19892.175609 74.448 150.8976
20036.322514 74.128 150.1771
