* Measurement data measured by REW V5.31.3
* Source: Headset (2- CX31993 HIFI AUDIO), MICROPHONE (Master Volume), R, volume: 0.400
* Format: 256k Log Swept Sine, 1 sweep at -11.9 dBFS with no timing reference
* Dated: 08 4, 25 6:18:41 PM
* REW Settings:
*  C-weighting compensation: Off
*  Target level: 75.0 dB
* Note: ; 
* Measurement: CrinEar Daybreak  JVC L
* Smoothing: 1/12 octave
* Frequency Step: 96 ppo
* Start Frequency: 0.36621094 Hz
*
* Freq(Hz) SPL(dB) Phase(degrees)
0.366211 44.319 -28.5487
0.368865 44.322 -28.6047
0.371538 44.327 -28.6884
0.374230 44.332 -28.7928
0.376942 44.339 -28.9121
0.379673 44.346 -29.0419
0.382424 44.353 -29.1795
0.385196 44.361 -29.3231
0.387987 44.369 -29.4717
0.390798 44.377 -29.6248
0.393630 44.384 -29.7820
0.396483 44.392 -29.9432
0.399356 44.400 -30.1084
0.402250 44.409 -30.2776
0.405165 44.417 -30.4507
0.408101 44.425 -30.6278
0.411058 44.433 -30.8090
0.414037 44.441 -30.9942
0.417037 44.450 -31.1834
0.420059 44.458 -31.3767
0.423103 44.467 -31.5742
0.426169 44.475 -31.7758
0.429257 44.484 -31.9815
0.432368 44.493 -32.1915
0.435501 44.501 -32.4056
0.438656 44.510 -32.6240
0.441835 44.519 -32.8467
0.445037 44.528 -33.0736
0.448262 44.537 -33.3048
0.451510 44.546 -33.5404
0.454782 44.555 -33.7802
0.458077 44.564 -34.0245
0.461397 44.574 -34.2731
0.464740 44.583 -34.5261
0.468108 44.593 -34.7835
0.471500 44.602 -35.0453
0.474917 44.612 -35.3116
0.478358 44.621 -35.5824
0.481825 44.631 -35.8576
0.485316 44.641 -36.1374
0.488833 44.650 -36.4216
0.492375 44.660 -36.7104
0.495943 44.670 -37.0037
0.499537 44.680 -37.3016
0.503157 44.690 -37.6041
0.506803 44.701 -37.9112
0.510475 44.711 -38.2228
0.514175 44.721 -38.5392
0.517900 44.732 -38.8601
0.521653 44.742 -39.1858
0.525434 44.753 -39.5161
0.529241 44.763 -39.8512
0.533076 44.774 -40.1910
0.536939 44.785 -40.5356
0.540830 44.796 -40.8849
0.544749 44.807 -41.2391
0.548696 44.818 -41.5982
0.552673 44.829 -41.9621
0.556677 44.840 -42.3309
0.560711 44.851 -42.7046
0.564774 44.863 -43.0834
0.568867 44.874 -43.4672
0.572989 44.885 -43.8560
0.577141 44.897 -44.2500
0.581324 44.909 -44.6491
0.585536 44.921 -45.0535
0.589779 44.932 -45.4631
0.594053 44.944 -45.8781
0.598358 44.956 -46.2985
0.602694 44.968 -46.7244
0.607061 44.981 -47.1558
0.611460 44.993 -47.5929
0.615891 45.005 -48.0358
0.620354 45.018 -48.4844
0.624849 45.030 -48.9390
0.629377 45.043 -49.3996
0.633938 45.056 -49.8664
0.638532 45.069 -50.3394
0.643159 45.082 -50.8189
0.647819 45.095 -51.3049
0.652514 45.108 -51.7976
0.657242 45.121 -52.2971
0.662005 45.134 -52.8037
0.666802 45.148 -53.3175
0.671634 45.161 -53.8387
0.676501 45.175 -54.3675
0.681403 45.188 -54.9041
0.686341 45.202 -55.4488
0.691314 45.216 -56.0018
0.696324 45.230 -56.5634
0.701370 45.245 -57.1338
0.706452 45.259 -57.7134
0.711571 45.274 -58.3025
0.716728 45.290 -58.9015
0.721921 45.307 -59.5107
0.727153 45.325 -60.1307
0.732422 45.344 -60.7618
0.737729 45.366 -61.4043
0.743075 45.390 -62.0586
0.748460 45.414 -62.7245
0.753883 45.440 -63.4022
0.759346 45.467 -64.0915
0.764849 45.495 -64.7922
0.770391 45.523 -65.5039
0.775974 45.552 -66.2264
0.781597 45.581 -66.9594
0.787261 45.611 -67.7027
0.792966 45.641 -68.4558
0.798712 45.671 -69.2186
0.804500 45.702 -69.9906
0.810329 45.734 -70.7716
0.816201 45.766 -71.5612
0.822116 45.799 -72.3592
0.828073 45.832 -73.1653
0.834074 45.866 -73.9793
0.840118 45.900 -74.8008
0.846206 45.935 -75.6297
0.852338 45.971 -76.4657
0.858514 46.008 -77.3086
0.864735 46.045 -78.1583
0.871001 46.083 -79.0145
0.877313 46.122 -79.8771
0.883670 46.161 -80.7461
0.890074 46.202 -81.6213
0.896524 46.243 -82.5028
0.903020 46.285 -83.3903
0.909564 46.328 -84.2841
0.916155 46.373 -85.1840
0.922794 46.418 -86.0903
0.929481 46.464 -87.0029
0.936216 46.511 -87.9220
0.943000 46.559 -88.8478
0.949834 46.609 -89.7805
0.956717 46.659 -90.7204
0.963649 46.711 -91.6676
0.970632 46.764 -92.6227
0.977666 46.819 -93.5858
0.984750 46.874 -94.5573
0.991886 46.932 -95.5378
0.999074 46.990 -96.5277
1.006314 47.050 -97.5275
1.013606 47.112 -98.5378
1.020951 47.175 -99.5590
1.028349 47.240 -100.5919
1.035801 47.307 -101.6370
1.043307 47.375 -102.6951
1.050867 47.446 -103.7668
1.058482 47.518 -104.8529
1.066152 47.592 -105.9538
1.073878 47.668 -107.0701
1.081660 47.746 -108.2022
1.089498 47.826 -109.3498
1.097393 47.909 -110.5125
1.105345 47.994 -111.6892
1.113355 48.082 -112.8783
1.121423 48.172 -114.0781
1.129549 48.264 -115.2870
1.137734 48.360 -116.5032
1.145979 48.457 -117.7253
1.154283 48.558 -118.9520
1.162647 48.661 -120.1820
1.171072 48.766 -121.4141
1.179558 48.874 -122.6474
1.188106 48.985 -123.8810
1.196715 49.098 -125.1142
1.205387 49.213 -126.3461
1.214122 49.331 -127.5761
1.222920 49.451 -128.8039
1.231782 49.574 -130.0289
1.240708 49.698 -131.2508
1.249699 49.825 -132.4694
1.258754 49.954 -133.6845
1.267876 50.086 -134.8961
1.277063 50.219 -136.1043
1.286318 50.354 -137.3090
1.295639 50.492 -138.5106
1.305027 50.631 -139.7091
1.314484 50.771 -140.9050
1.324009 50.914 -142.0986
1.333604 51.058 -143.2904
1.343268 51.204 -144.4807
1.353002 51.351 -145.6701
1.362806 51.500 -146.8592
1.372681 51.650 -148.0486
1.382628 51.801 -149.2388
1.392647 51.953 -150.4304
1.402739 52.107 -151.6239
1.412904 52.261 -152.8199
1.423142 52.416 -154.0184
1.433455 52.572 -155.2194
1.443843 52.729 -156.4223
1.454305 52.887 -157.6256
1.464844 53.046 -158.8273
1.475459 53.207 -160.0245
1.486150 53.370 -161.2142
1.496920 53.534 -162.3941
1.507767 53.702 -163.5621
1.518693 53.871 -164.7174
1.529698 54.043 -165.8594
1.540783 54.217 -166.9880
1.551948 54.393 -168.1038
1.563194 54.572 -169.2071
1.574521 54.752 -170.2989
1.585931 54.935 -171.3801
1.597423 55.120 -172.4515
1.608999 55.306 -173.5144
1.620658 55.494 -174.5700
1.632402 55.684 -175.6193
1.644232 55.875 -176.6638
1.656146 56.067 -177.7046
1.668147 56.261 -178.7432
1.680235 56.456 -179.7807
1.692411 56.652 179.1815
1.704675 56.848 178.1419
1.717028 57.046 177.0994
1.729470 57.243 176.0527
1.742003 57.442 175.0005
1.754626 57.640 173.9418
1.767341 57.838 172.8757
1.780147 58.037 171.8014
1.793047 58.235 170.7188
1.806040 58.433 169.6285
1.819128 58.631 168.5319
1.832310 58.829 167.4312
1.845587 59.028 166.3295
1.858961 59.226 165.2300
1.872432 59.425 164.1355
1.886001 59.624 163.0479
1.899667 59.824 161.9684
1.913433 60.025 160.8976
1.927299 60.226 159.8357
1.941265 60.428 158.7824
1.955332 60.630 157.7372
1.969501 60.832 156.6995
1.983773 61.036 155.6684
1.998148 61.239 154.6430
2.012627 61.443 153.6223
2.027212 61.647 152.6053
2.041902 61.852 151.5907
2.056698 62.056 150.5774
2.071602 62.261 149.5641
2.086614 62.466 148.5497
2.101734 62.671 147.5330
2.116964 62.876 146.5128
2.132304 63.082 145.4881
2.147756 63.287 144.4585
2.163320 63.492 143.4236
2.178996 63.696 142.3839
2.194786 63.901 141.3407
2.210690 64.106 140.2958
2.226710 64.310 139.2514
2.242845 64.514 138.2096
2.259098 64.718 137.1719
2.275468 64.921 136.1392
2.291957 65.125 135.1119
2.308566 65.328 134.0902
2.325295 65.531 133.0737
2.342145 65.734 132.0619
2.359117 65.937 131.0541
2.376212 66.139 130.0496
2.393431 66.342 129.0473
2.410775 66.544 128.0463
2.428244 66.746 127.0455
2.445840 66.948 126.0437
2.463564 67.149 125.0400
2.481416 67.351 124.0331
2.499397 67.552 123.0222
2.517509 67.753 122.0067
2.535752 67.954 120.9862
2.554127 68.154 119.9611
2.572635 68.355 118.9323
2.591277 68.554 117.9012
2.610055 68.754 116.8691
2.628968 68.952 115.8376
2.648019 69.151 114.8074
2.667208 69.348 113.7793
2.686535 69.545 112.7535
2.706003 69.742 111.7300
2.725612 69.938 110.7088
2.745363 70.134 109.6893
2.765257 70.329 108.6711
2.785295 70.524 107.6534
2.805478 70.718 106.6355
2.825808 70.912 105.6166
2.846285 71.105 104.5957
2.866910 71.298 103.5721
2.887685 71.491 102.5450
2.908611 71.683 101.5141
2.929688 71.875 100.4792
2.950917 72.066 99.4409
2.972301 72.256 98.3997
2.993839 72.446 97.3567
3.015534 72.635 96.3127
3.037386 72.823 95.2685
3.059396 73.010 94.2247
3.081565 73.197 93.1818
3.103896 73.383 92.1398
3.126388 73.568 91.0988
3.149043 73.753 90.0587
3.171862 73.937 89.0190
3.194847 74.120 87.9792
3.217998 74.303 86.9389
3.241317 74.485 85.8971
3.264805 74.666 84.8533
3.288463 74.847 83.8069
3.312293 75.027 82.7574
3.336295 75.206 81.7049
3.360471 75.384 80.6497
3.384822 75.562 79.5925
3.409350 75.738 78.5341
3.434056 75.914 77.4751
3.458940 76.088 76.4164
3.484005 76.262 75.3583
3.509252 76.435 74.3013
3.534681 76.607 73.2454
3.560295 76.778 72.1907
3.586094 76.948 71.1367
3.612081 77.118 70.0830
3.638255 77.287 69.0288
3.664620 77.455 67.9734
3.691175 77.622 66.9161
3.717923 77.788 65.8566
3.744864 77.953 64.7950
3.772001 78.117 63.7320
3.799335 78.279 62.6682
3.826866 78.441 61.6046
3.854597 78.602 60.5419
3.882529 78.762 59.4807
3.910664 78.921 58.4217
3.939002 79.079 57.3647
3.967546 79.236 56.3099
3.996296 79.392 55.2565
4.025255 79.548 54.2039
4.054423 79.702 53.1513
4.083804 79.855 52.0979
4.113396 80.008 51.0436
4.143204 80.159 49.9887
4.173227 80.309 48.9339
4.203468 80.458 47.8800
4.233928 80.606 46.8278
4.264609 80.753 45.7782
4.295512 80.899 44.7316
4.326639 81.044 43.6882
4.357992 81.188 42.6479
4.389572 81.332 41.6099
4.421380 81.474 40.5736
4.453419 81.615 39.5383
4.485691 81.756 38.5036
4.518196 81.895 37.4696
4.550936 82.033 36.4369
4.583914 82.171 35.4062
4.617131 82.307 34.3783
4.650589 82.443 33.3537
4.684289 82.577 32.3329
4.718233 82.711 31.3159
4.752424 82.845 30.3024
4.786862 82.977 29.2918
4.821549 83.108 28.2835
4.856488 83.239 27.2771
4.891680 83.368 26.2726
4.927127 83.497 25.2701
4.962831 83.625 24.2705
4.998794 83.752 23.2739
5.035017 83.879 22.2810
5.071503 84.005 21.2919
5.108253 84.130 20.3064
5.145270 84.255 19.3242
5.182555 84.379 18.3448
5.220110 84.502 17.3679
5.257937 84.624 16.3932
5.296038 84.746 15.4208
5.334415 84.867 14.4510
5.373071 84.988 13.4840
5.412006 85.108 12.5200
5.451224 85.228 11.5589
5.490725 85.347 10.6006
5.530514 85.465 9.6448
5.570590 85.583 8.6910
5.610957 85.701 7.7390
5.651616 85.817 6.7889
5.692570 85.934 5.8405
5.733821 86.050 4.8939
5.775370 86.165 3.9492
5.817221 86.280 3.0062
5.859375 86.394 2.0647
5.901834 86.508 1.1244
5.944602 86.621 0.1851
5.987679 86.734 -0.7534
6.031068 86.846 -1.6912
6.074771 86.957 -2.6281
6.118792 87.068 -3.5642
6.163131 87.179 -4.4996
6.207792 87.288 -5.4343
6.252776 87.398 -6.3689
6.298086 87.506 -7.3033
6.343725 87.614 -8.2378
6.389694 87.721 -9.1723
6.435996 87.827 -10.1067
6.482634 87.933 -11.0406
6.529610 88.038 -11.9744
6.576926 88.142 -12.9077
6.624585 88.245 -13.8411
6.672590 88.347 -14.7747
6.720942 88.449 -15.7084
6.769645 88.549 -16.6420
6.818700 88.649 -17.5751
6.868111 88.747 -18.5076
6.917881 88.845 -19.4391
6.968010 88.942 -20.3698
7.018504 89.037 -21.2997
7.069362 89.132 -22.2290
7.120590 89.225 -23.1575
7.172189 89.317 -24.0845
7.224161 89.409 -25.0099
7.276511 89.499 -25.9332
7.329239 89.588 -26.8542
7.382350 89.676 -27.7731
7.435845 89.763 -28.6898
7.489729 89.848 -29.6042
7.544002 89.933 -30.5159
7.598669 90.017 -31.4244
7.653732 90.099 -32.3293
7.709194 90.181 -33.2307
7.765058 90.261 -34.1285
7.821327 90.341 -35.0227
7.878004 90.420 -35.9131
7.935091 90.497 -36.7996
7.992592 90.574 -37.6818
8.050510 90.650 -38.5595
8.108847 90.725 -39.4329
8.167607 90.800 -40.3019
8.226793 90.873 -41.1666
8.286408 90.946 -42.0270
8.346454 91.018 -42.8831
8.406936 91.090 -43.7349
8.467856 91.161 -44.5824
8.529218 91.232 -45.4258
8.591024 91.302 -46.2653
8.653278 91.372 -47.1010
8.715983 91.441 -47.9331
8.779143 91.509 -48.7617
8.842760 91.578 -49.5872
8.906839 91.646 -50.4096
8.971381 91.713 -51.2292
9.036392 91.781 -52.0464
9.101873 91.847 -52.8612
9.167829 91.914 -53.6740
9.234263 91.980 -54.4849
9.301178 92.046 -55.2942
9.368578 92.111 -56.1021
9.436467 92.176 -56.9088
9.504847 92.241 -57.7146
9.573723 92.305 -58.5196
9.643099 92.369 -59.3240
9.712976 92.432 -60.1278
9.783361 92.495 -60.9313
9.854255 92.558 -61.7344
9.925663 92.619 -62.5374
9.997588 92.680 -63.3403
10.070035 92.741 -64.1431
10.143007 92.801 -64.9458
10.216507 92.860 -65.7483
10.290540 92.919 -66.5507
10.365109 92.977 -67.3528
10.440219 93.034 -68.1548
10.515873 93.090 -68.9563
10.592076 93.145 -69.7572
10.668830 93.200 -70.5575
10.746141 93.254 -71.3569
10.824012 93.307 -72.1553
10.902447 93.359 -72.9525
10.981451 93.410 -73.7480
11.061027 93.460 -74.5419
11.141180 93.510 -75.3339
11.221913 93.558 -76.1235
11.303232 93.606 -76.9106
11.385140 93.652 -77.6949
11.467641 93.698 -78.4762
11.550741 93.743 -79.2542
11.634442 93.787 -80.0284
11.718750 93.831 -80.7990
11.803669 93.873 -81.5654
11.889203 93.915 -82.3277
11.975357 93.957 -83.0857
12.062136 93.997 -83.8392
12.149543 94.038 -84.5883
12.237583 94.077 -85.3330
12.326262 94.117 -86.0734
12.415583 94.156 -86.8094
12.505552 94.194 -87.5415
12.596172 94.233 -88.2698
12.687449 94.271 -88.9946
12.779387 94.309 -89.7161
12.871992 94.346 -90.4348
12.965268 94.384 -91.1508
13.059220 94.421 -91.8646
13.153852 94.458 -92.5764
13.249170 94.495 -93.2866
13.345179 94.531 -93.9952
13.441884 94.568 -94.7026
13.539289 94.603 -95.4086
13.637401 94.639 -96.1134
13.736223 94.673 -96.8168
13.835761 94.708 -97.5186
13.936021 94.741 -98.2187
14.037007 94.774 -98.9167
14.138725 94.807 -99.6123
14.241180 94.838 -100.3052
14.344377 94.870 -100.9949
14.448323 94.900 -101.6813
14.553021 94.930 -102.3641
14.658478 94.960 -103.0431
14.764700 94.989 -103.7182
14.871691 95.018 -104.3895
14.979457 95.046 -105.0570
15.088005 95.075 -105.7211
15.197339 95.103 -106.3821
15.307465 95.131 -107.0403
15.418389 95.159 -107.6964
15.530117 95.186 -108.3507
15.642655 95.214 -109.0038
15.756008 95.241 -109.6560
15.870182 95.268 -110.3077
15.985184 95.295 -110.9590
16.101019 95.321 -111.6099
16.217694 95.346 -112.2605
16.335214 95.371 -112.9103
16.453586 95.395 -113.5591
16.572815 95.419 -114.2062
16.692909 95.441 -114.8512
16.813872 95.463 -115.4934
16.935713 95.484 -116.1323
17.058436 95.505 -116.7675
17.182048 95.525 -117.3985
17.306556 95.544 -118.0254
17.431967 95.563 -118.6481
17.558286 95.582 -119.2670
17.685521 95.601 -119.8824
17.813677 95.620 -120.4952
17.942762 95.638 -121.1058
18.072783 95.657 -121.7153
18.203746 95.675 -122.3242
18.335658 95.693 -122.9332
18.468526 95.711 -123.5427
18.602356 95.729 -124.1528
18.737156 95.746 -124.7637
18.872934 95.762 -125.3749
19.009695 95.777 -125.9858
19.147447 95.792 -126.5958
19.286197 95.805 -127.2039
19.425953 95.818 -127.8093
19.566721 95.830 -128.4111
19.708510 95.841 -129.0086
19.851326 95.852 -129.6014
19.995177 95.862 -130.1893
20.140070 95.872 -130.7725
20.286013 95.882 -131.3513
20.433014 95.892 -131.9263
20.581080 95.902 -132.4983
20.730219 95.912 -133.0682
20.880439 95.922 -133.6369
21.031747 95.932 -134.2051
21.184152 95.942 -134.7732
21.337661 95.951 -135.3416
21.492282 95.961 -135.9103
21.648024 95.969 -136.4791
21.804895 95.978 -137.0475
21.962902 95.985 -137.6149
22.122054 95.992 -138.1807
22.282360 95.998 -138.7442
22.443827 96.004 -139.3050
22.606464 96.009 -139.8627
22.770280 96.014 -140.4173
22.935283 96.019 -140.9687
23.101481 96.023 -141.5172
23.268884 96.027 -142.0630
23.437500 96.031 -142.6067
23.607338 96.034 -143.1485
23.778406 96.038 -143.6888
23.950714 96.040 -144.2277
24.124271 96.043 -144.7651
24.299086 96.045 -145.3010
24.475167 96.046 -145.8350
24.652524 96.047 -146.3668
24.831166 96.048 -146.8959
25.011103 96.048 -147.4218
25.192344 96.047 -147.9442
25.374898 96.046 -148.4630
25.558775 96.045 -148.9783
25.743984 96.043 -149.4901
25.930536 96.042 -149.9989
26.118439 96.040 -150.5054
26.307704 96.038 -151.0100
26.498341 96.036 -151.5134
26.690359 96.035 -152.0164
26.883768 96.032 -152.5190
27.078579 96.030 -153.0215
27.274801 96.027 -153.5240
27.472446 96.023 -154.0261
27.671522 96.019 -154.5274
27.872042 96.015 -155.0274
28.074014 96.010 -155.5257
28.277450 96.004 -156.0219
28.482360 95.998 -156.5160
28.688755 95.991 -157.0079
28.896645 95.984 -157.4978
29.106042 95.977 -157.9859
29.316957 95.970 -158.4724
29.529400 95.962 -158.9575
29.743382 95.954 -159.4412
29.958915 95.945 -159.9232
30.176009 95.936 -160.4034
30.394677 95.926 -160.8813
30.614929 95.916 -161.3568
30.836778 95.906 -161.8295
31.060234 95.895 -162.2997
31.285309 95.884 -162.7676
31.512015 95.873 -163.2334
31.740364 95.862 -163.6976
31.970368 95.850 -164.1606
32.202039 95.839 -164.6228
32.435388 95.827 -165.0841
32.670428 95.814 -165.5445
32.907171 95.801 -166.0036
33.145630 95.788 -166.4611
33.385817 95.774 -166.9162
33.627745 95.759 -167.3687
33.871425 95.744 -167.8179
34.116871 95.729 -168.2637
34.364096 95.713 -168.7064
34.613113 95.698 -169.1461
34.863934 95.682 -169.5833
35.116572 95.665 -170.0186
35.371041 95.649 -170.4524
35.627354 95.632 -170.8848
35.885525 95.614 -171.3156
36.145566 95.596 -171.7443
36.407492 95.578 -172.1701
36.671316 95.559 -172.5925
36.937051 95.539 -173.0110
37.204712 95.519 -173.4255
37.474313 95.499 -173.8365
37.745867 95.479 -174.2447
38.019389 95.459 -174.6511
38.294893 95.439 -175.0564
38.572394 95.419 -175.4612
38.851905 95.399 -175.8657
39.133442 95.378 -176.2698
39.417019 95.357 -176.6729
39.702651 95.335 -177.0746
39.990353 95.313 -177.4749
40.280140 95.291 -177.8738
40.572026 95.269 -178.2718
40.866028 95.247 -178.6696
41.162160 95.224 -179.0680
41.460438 95.202 -179.4675
41.760877 95.179 -179.8683
42.063494 95.155 179.7301
42.368303 95.130 179.3287
42.675322 95.105 178.9288
42.984565 95.078 178.5319
43.296048 95.051 178.1390
43.609789 95.023 177.7510
43.925804 94.995 177.3680
44.244108 94.967 176.9897
44.564719 94.939 176.6154
44.887654 94.910 176.2443
45.212928 94.881 175.8756
45.540560 94.852 175.5090
45.870565 94.823 175.1442
46.202962 94.793 174.7814
46.537768 94.762 174.4212
46.875000 94.731 174.0643
47.214676 94.699 173.7114
47.556813 94.667 173.3628
47.901429 94.635 173.0186
48.248542 94.602 172.6778
48.598171 94.569 172.3395
48.950334 94.537 172.0026
49.305048 94.504 171.6662
49.662333 94.471 171.3299
50.022206 94.437 170.9940
50.384688 94.403 170.6588
50.749796 94.368 170.3252
51.117550 94.332 169.9937
51.487969 94.296 169.6649
51.861072 94.260 169.3393
52.236879 94.223 169.0173
52.615409 94.186 168.6992
52.996681 94.148 168.3851
53.380717 94.111 168.0746
53.767536 94.073 167.7673
54.157158 94.035 167.4628
54.549603 93.997 167.1608
54.944892 93.958 166.8613
55.343045 93.919 166.5644
55.744084 93.879 166.2704
56.148028 93.840 165.9793
56.554900 93.799 165.6912
56.964720 93.759 165.4061
57.377510 93.718 165.1238
57.793291 93.677 164.8442
58.212085 93.636 164.5673
58.633914 93.594 164.2926
59.058799 93.552 164.0201
59.486764 93.510 163.7499
59.917829 93.468 163.4822
60.352019 93.425 163.2177
60.789354 93.382 162.9572
61.229859 93.338 162.7014
61.673556 93.295 162.4508
62.120468 93.251 162.2053
62.570618 93.207 161.9648
63.024031 93.164 161.7285
63.480729 93.120 161.4955
63.940736 93.076 161.2643
64.404077 93.032 161.0336
64.870776 92.987 160.8036
65.340856 92.941 160.5758
65.814343 92.894 160.3525
66.291261 92.847 160.1358
66.771635 92.798 159.9258
67.255489 92.750 159.7216
67.742850 92.701 159.5212
68.233743 92.652 159.3239
68.728193 92.603 159.1293
69.226226 92.554 158.9380
69.727867 92.504 158.7500
70.233144 92.455 158.5652
70.742083 92.405 158.3837
71.254709 92.356 158.2055
71.771050 92.307 158.0309
72.291132 92.257 157.8603
72.814984 92.207 157.6937
73.342631 92.158 157.5315
73.874102 92.108 157.3738
74.409424 92.058 157.2211
74.948626 92.007 157.0734
75.491734 91.957 156.9307
76.038779 91.906 156.7927
76.589787 91.855 156.6591
77.144788 91.804 156.5292
77.703811 91.753 156.4027
78.266885 91.701 156.2792
78.834039 91.650 156.1584
79.405303 91.598 156.0403
79.980706 91.547 155.9252
80.560280 91.495 155.8142
81.144053 91.443 155.7086
81.732056 91.390 155.6086
82.324320 91.339 155.5143
82.920876 91.287 155.4246
83.521755 91.235 155.3397
84.126988 91.183 155.2599
84.736607 91.132 155.1855
85.350643 91.080 155.1163
85.969129 91.028 155.0519
86.592097 90.976 154.9922
87.219579 90.924 154.9371
87.851608 90.872 154.8864
88.488217 90.819 154.8399
89.129439 90.767 154.7977
89.775308 90.715 154.7598
90.425856 90.663 154.7258
91.081119 90.611 154.6958
91.741131 90.559 154.6696
92.405925 90.507 154.6469
93.075536 90.455 154.6276
93.750000 90.404 154.6118
94.429351 90.353 154.6001
95.113625 90.301 154.5931
95.802858 90.250 154.5916
96.497085 90.199 154.5955
97.196342 90.148 154.6055
97.900667 90.098 154.6213
98.610096 90.048 154.6423
99.324665 89.998 154.6675
100.044413 89.948 154.6956
100.769376 89.899 154.7266
101.499592 89.849 154.7609
102.235100 89.800 154.7994
102.975938 89.751 154.8423
103.722144 89.702 154.8889
104.473757 89.653 154.9390
105.230817 89.605 154.9921
105.993363 89.557 155.0486
106.761435 89.510 155.1094
107.535072 89.462 155.1754
108.314315 89.415 155.2479
109.099206 89.368 155.3273
109.889783 89.322 155.4134
110.686090 89.276 155.5045
111.488167 89.230 155.5983
112.296056 89.185 155.6931
113.109800 89.140 155.7880
113.929440 89.095 155.8828
114.755020 89.051 155.9780
115.586582 89.007 156.0747
116.424170 88.964 156.1736
117.267827 88.922 156.2750
118.117598 88.881 156.3796
118.973527 88.841 156.4896
119.835658 88.802 156.6073
120.704037 88.763 156.7335
121.578708 88.724 156.8669
122.459718 88.685 157.0074
123.347111 88.646 157.1567
124.240935 88.606 157.3158
125.141236 88.567 157.4830
126.048061 88.529 157.6547
126.961458 88.493 157.8269
127.881473 88.458 157.9959
128.808154 88.424 158.1595
129.741551 88.392 158.3181
130.681712 88.360 158.4740
131.628686 88.329 158.6298
132.582521 88.299 158.7869
133.543269 88.268 158.9453
134.510979 88.238 159.1055
135.485701 88.207 159.2679
136.467486 88.177 159.4324
137.456386 88.146 159.5977
138.452451 88.116 159.7627
139.455735 88.087 159.9283
140.466288 88.057 160.0962
141.484165 88.029 160.2673
142.509418 88.001 160.4415
143.542100 87.973 160.6179
144.582265 87.947 160.7953
145.629968 87.920 160.9725
146.685262 87.894 161.1485
147.748204 87.869 161.3231
148.818849 87.843 161.4981
149.897251 87.819 161.6757
150.983469 87.795 161.8574
152.077557 87.772 162.0433
153.179574 87.751 162.2319
154.289576 87.731 162.4212
155.407622 87.711 162.6100
156.533770 87.692 162.7977
157.668078 87.673 162.9841
158.810606 87.655 163.1686
159.961413 87.636 163.3505
161.120559 87.618 163.5298
162.288105 87.600 163.7065
163.464112 87.582 163.8814
164.648640 87.565 164.0553
165.841752 87.548 164.2292
167.043510 87.533 164.4038
168.253976 87.517 164.5795
169.473213 87.503 164.7560
170.701286 87.489 164.9333
171.938258 87.475 165.1108
173.184194 87.463 165.2877
174.439158 87.450 165.4628
175.703216 87.438 165.6346
176.976434 87.426 165.8022
178.258878 87.414 165.9664
179.550615 87.403 166.1288
180.851713 87.391 166.2913
182.162239 87.381 166.4547
183.482262 87.371 166.6187
184.811850 87.362 166.7821
186.151073 87.354 166.9444
187.500000 87.346 167.1061
188.858702 87.339 167.2683
190.227250 87.332 167.4323
191.605715 87.325 167.6002
192.994169 87.317 167.7731
194.392685 87.309 167.9480
195.801334 87.300 168.1185
197.220191 87.291 168.2787
198.649330 87.282 168.4263
200.088825 87.274 168.5635
201.538751 87.266 168.6952
202.999184 87.259 168.8269
204.470200 87.251 168.9631
205.951875 87.243 169.1060
207.444287 87.234 169.2544
208.947514 87.226 169.4065
210.461634 87.219 169.5601
211.986726 87.213 169.7122
213.522869 87.208 169.8611
215.070144 87.202 170.0084
216.628631 87.194 170.1573
218.198411 87.184 170.3119
219.779567 87.173 170.4747
221.372180 87.160 170.6458
222.976334 87.147 170.8223
224.592112 87.134 170.9993
226.219600 87.121 171.1722
227.858880 87.110 171.3387
229.510039 87.099 171.5013
231.173164 87.090 171.6684
232.848340 87.084 171.8498
234.535655 87.080 172.0521
236.235197 87.079 172.2761
237.947054 87.080 172.5165
239.671317 87.086 172.7640
241.408074 87.094 173.0108
243.157416 87.107 173.2522
244.919435 87.123 173.4832
246.694223 87.145 173.6946
248.481871 87.170 173.8751
250.282473 87.198 174.0162
252.096123 87.225 174.1170
253.922915 87.250 174.1841
255.762945 87.270 174.2272
257.616309 87.286 174.2537
259.483103 87.298 174.2674
261.363424 87.307 174.2708
263.257372 87.314 174.2671
265.165043 87.319 174.2620
267.086538 87.322 174.2610
269.021957 87.324 174.2675
270.971401 87.324 174.2817
272.934972 87.323 174.3019
274.912771 87.322 174.3263
276.904902 87.321 174.3539
278.911469 87.319 174.3846
280.932577 87.317 174.4197
282.968330 87.315 174.4608
285.018835 87.313 174.5088
287.084199 87.310 174.5629
289.164530 87.307 174.6209
291.259935 87.305 174.6813
293.370525 87.302 174.7435
295.496408 87.299 174.8076
297.637697 87.297 174.8729
299.794503 87.294 174.9382
301.966937 87.291 175.0022
304.155114 87.288 175.0655
306.359147 87.285 175.1293
308.579152 87.282 175.1946
310.815244 87.280 175.2618
313.067539 87.277 175.3295
315.336156 87.274 175.3962
317.621211 87.271 175.4608
319.922826 87.269 175.5236
322.241118 87.267 175.5858
324.576210 87.266 175.6481
326.928223 87.264 175.7101
329.297280 87.263 175.7707
331.683504 87.261 175.8291
334.087019 87.259 175.8849
336.507952 87.257 175.9384
338.946427 87.255 175.9905
341.402572 87.253 176.0431
343.876516 87.251 176.0972
346.368387 87.248 176.1531
348.878315 87.246 176.2103
351.406431 87.243 176.2681
353.952867 87.240 176.3263
356.517756 87.236 176.3846
359.101230 87.233 176.4429
361.703426 87.230 176.5010
364.324478 87.227 176.5588
366.964523 87.224 176.6167
369.623699 87.221 176.6746
372.302145 87.217 176.7323
375.000000 87.214 176.7898
377.717405 87.211 176.8467
380.454501 87.207 176.9026
383.211431 87.204 176.9576
385.988339 87.200 177.0123
388.785369 87.197 177.0676
391.602668 87.193 177.1242
394.440383 87.189 177.1818
397.298660 87.186 177.2394
400.177650 87.182 177.2959
403.077502 87.178 177.3510
405.998368 87.174 177.4048
408.940400 87.170 177.4584
411.903750 87.166 177.5125
414.888575 87.161 177.5671
417.895028 87.156 177.6218
420.923268 87.151 177.6761
423.973452 87.145 177.7295
427.045738 87.140 177.7822
430.140287 87.133 177.8347
433.257261 87.127 177.8882
436.396822 87.120 177.9436
439.559133 87.113 178.0010
442.744360 87.106 178.0593
445.952668 87.100 178.1176
449.184225 87.093 178.1754
452.439199 87.087 178.2336
455.717760 87.081 178.2935
459.020079 87.074 178.3560
462.346327 87.067 178.4207
465.696680 87.060 178.4862
469.071310 87.053 178.5519
472.470394 87.046 178.6177
475.894109 87.039 178.6836
479.342634 87.031 178.7500
482.816148 87.023 178.8174
486.314833 87.015 178.8862
489.838871 87.007 178.9561
493.388445 86.999 179.0270
496.963741 86.990 179.0994
500.564945 86.981 179.1730
504.192245 86.972 179.2476
507.845830 86.963 179.3231
511.525890 86.954 179.3994
515.232618 86.945 179.4763
518.966206 86.935 179.5540
522.726849 86.926 179.6325
526.514743 86.916 179.7123
530.330086 86.905 179.7940
534.173076 86.895 179.8785
538.043915 86.884 179.9661
541.942803 86.873 -179.9432
545.869944 86.862 -179.8496
549.825542 86.850 -179.7534
553.809805 86.839 -179.6544
557.822939 86.827 -179.5529
561.865154 86.814 -179.4490
565.936660 86.802 -179.3434
570.037671 86.790 -179.2372
574.168399 86.777 -179.1312
578.329060 86.764 -179.0254
582.519870 86.752 -178.9190
586.741049 86.739 -178.8106
590.992817 86.727 -178.6990
595.275394 86.715 -178.5834
599.589005 86.702 -178.4637
603.933874 86.689 -178.3402
608.310228 86.676 -178.2130
612.718295 86.662 -178.0823
617.158304 86.648 -177.9481
621.630488 86.634 -177.8104
626.135079 86.620 -177.6691
630.672311 86.606 -177.5239
635.242423 86.592 -177.3746
639.845651 86.577 -177.2209
644.482237 86.563 -177.0625
649.152421 86.548 -176.8990
653.856447 86.533 -176.7304
658.594560 86.517 -176.5561
663.367008 86.502 -176.3757
668.174039 86.486 -176.1888
673.015903 86.471 -175.9951
677.892854 86.456 -175.7943
682.805145 86.441 -175.5859
687.753032 86.426 -175.3701
692.736774 86.412 -175.1464
697.756631 86.398 -174.9150
702.812863 86.385 -174.6760
707.905735 86.372 -174.4296
713.035511 86.361 -174.1758
718.202461 86.350 -173.9155
723.406852 86.340 -173.6491
728.648956 86.332 -173.3774
733.929047 86.324 -173.1015
739.247399 86.318 -172.8223
744.604290 86.313 -172.5407
750.000000 86.309 -172.2578
755.434809 86.307 -171.9744
760.909001 86.305 -171.6907
766.422861 86.304 -171.4074
771.976677 86.304 -171.1244
777.570739 86.304 -170.8414
783.205337 86.305 -170.5580
788.880766 86.306 -170.2736
794.597321 86.307 -169.9873
800.355301 86.309 -169.6987
806.155005 86.311 -169.4069
811.996736 86.313 -169.1111
817.880799 86.315 -168.8102
823.807501 86.318 -168.5034
829.777150 86.322 -168.1901
835.790057 86.326 -167.8702
841.846536 86.331 -167.5437
847.946903 86.337 -167.2106
854.091476 86.344 -166.8711
860.280575 86.353 -166.5254
866.514523 86.362 -166.1739
872.793644 86.374 -165.8171
879.118267 86.387 -165.4559
885.488720 86.401 -165.0909
891.905336 86.418 -164.7229
898.368450 86.436 -164.3525
904.878398 86.456 -163.9803
911.435520 86.477 -163.6071
918.040157 86.501 -163.2336
924.692655 86.526 -162.8607
931.393359 86.553 -162.4888
938.142619 86.583 -162.1187
944.940787 86.614 -161.7505
951.788218 86.647 -161.3850
958.685268 86.682 -161.0228
965.632296 86.719 -160.6647
972.629666 86.758 -160.3113
979.677741 86.799 -159.9636
986.776890 86.841 -159.6222
993.927482 86.885 -159.2879
1001.129891 86.931 -158.9613
1008.384491 86.978 -158.6431
1015.691660 87.027 -158.3339
1023.051781 87.078 -158.0343
1030.465236 87.129 -157.7448
1037.932411 87.182 -157.4657
1045.453698 87.237 -157.1972
1053.029486 87.292 -156.9397
1060.660172 87.348 -156.6935
1068.346153 87.406 -156.4589
1076.087829 87.464 -156.2360
1083.885605 87.523 -156.0250
1091.739887 87.582 -155.8260
1099.651084 87.642 -155.6395
1107.619609 87.702 -155.4653
1115.645878 87.763 -155.3035
1123.730308 87.823 -155.1537
1131.873321 87.884 -155.0156
1140.075341 87.945 -154.8889
1148.336797 88.005 -154.7731
1156.658119 88.065 -154.6678
1165.039741 88.125 -154.5731
1173.482099 88.185 -154.4887
1181.985634 88.244 -154.4146
1190.550789 88.303 -154.3500
1199.178011 88.361 -154.2944
1207.867749 88.419 -154.2473
1216.620457 88.476 -154.2083
1225.436590 88.532 -154.1770
1234.316609 88.587 -154.1529
1243.260976 88.642 -154.1354
1252.270157 88.696 -154.1238
1261.344623 88.749 -154.1173
1270.484846 88.801 -154.1155
1279.691303 88.852 -154.1178
1288.964474 88.903 -154.1238
1298.304842 88.953 -154.1333
1307.712894 89.002 -154.1459
1317.189120 89.051 -154.1614
1326.734016 89.099 -154.1794
1336.348077 89.146 -154.1992
1346.031806 89.192 -154.2200
1355.785708 89.238 -154.2414
1365.610290 89.282 -154.2632
1375.506065 89.327 -154.2855
1385.473549 89.371 -154.3080
1395.513261 89.414 -154.3306
1405.625726 89.457 -154.3530
1415.811469 89.500 -154.3751
1426.071023 89.542 -154.3969
1436.404921 89.585 -154.4183
1446.813703 89.627 -154.4391
1457.297912 89.669 -154.4594
1467.858093 89.710 -154.4789
1478.494798 89.752 -154.4977
1489.208581 89.794 -154.5156
1500.000000 89.835 -154.5327
1510.869618 89.877 -154.5491
1521.818002 89.918 -154.5646
1532.845723 89.960 -154.5795
1543.953355 90.002 -154.5938
1555.141477 90.044 -154.6074
1566.410674 90.087 -154.6207
1577.761531 90.130 -154.6339
1589.194642 90.173 -154.6471
1600.710601 90.216 -154.6605
1612.310010 90.260 -154.6744
1623.993473 90.303 -154.6888
1635.761599 90.348 -154.7036
1647.615002 90.392 -154.7191
1659.554299 90.437 -154.7354
1671.580114 90.483 -154.7526
1683.693072 90.529 -154.7706
1695.893807 90.575 -154.7896
1708.182952 90.622 -154.8094
1720.561150 90.669 -154.8303
1733.029045 90.717 -154.8524
1745.587288 90.765 -154.8758
1758.236533 90.813 -154.9008
1770.977440 90.863 -154.9272
1783.810673 90.913 -154.9554
1796.736900 90.963 -154.9852
1809.756796 91.014 -155.0168
1822.871040 91.066 -155.0505
1836.080315 91.119 -155.0864
1849.385310 91.172 -155.1246
1862.786718 91.226 -155.1653
1876.285239 91.281 -155.2090
1889.881575 91.336 -155.2560
1903.576436 91.393 -155.3066
1917.370535 91.451 -155.3611
1931.264593 91.509 -155.4199
1945.259332 91.568 -155.4830
1959.355483 91.628 -155.5510
1973.553781 91.690 -155.6243
1987.854965 91.752 -155.7034
2002.259781 91.815 -155.7888
2016.768981 91.879 -155.8810
2031.383320 91.944 -155.9806
2046.103561 92.010 -156.0881
2060.930471 92.077 -156.2039
2075.864823 92.145 -156.3284
2090.907395 92.214 -156.4620
2106.058972 92.284 -156.6052
2121.320344 92.355 -156.7584
2136.692305 92.426 -156.9222
2152.175658 92.499 -157.0974
2167.771210 92.572 -157.2843
2183.479774 92.647 -157.4836
2199.302169 92.722 -157.6959
2215.239219 92.797 -157.9215
2231.291755 92.874 -158.1610
2247.460615 92.950 -158.4149
2263.746641 93.028 -158.6840
2280.150683 93.106 -158.9688
2296.673595 93.184 -159.2700
2313.316238 93.263 -159.5883
2330.079481 93.341 -159.9243
2346.964198 93.420 -160.2785
2363.971268 93.499 -160.6513
2381.101578 93.577 -161.0432
2398.356022 93.656 -161.4545
2415.735498 93.734 -161.8857
2433.240913 93.811 -162.3373
2450.873180 93.888 -162.8095
2468.633217 93.963 -163.3029
2486.521951 94.038 -163.8179
2504.540314 94.112 -164.3549
2522.689246 94.184 -164.9141
2540.969692 94.255 -165.4958
2559.382606 94.323 -166.1002
2577.928947 94.390 -166.7272
2596.609683 94.455 -167.3768
2615.425787 94.517 -168.0486
2634.378241 94.577 -168.7424
2653.468031 94.633 -169.4574
2672.696154 94.686 -170.1931
2692.063613 94.736 -170.9489
2711.571415 94.782 -171.7239
2731.220579 94.824 -172.5171
2751.012130 94.862 -173.3270
2770.947098 94.895 -174.1522
2791.026522 94.924 -174.9908
2811.251451 94.948 -175.8411
2831.622938 94.967 -176.7010
2852.142045 94.980 -177.5687
2872.809842 94.989 -178.4421
2893.627406 94.992 -179.3190
2914.595823 94.990 179.8028
2935.716186 94.983 178.9254
2956.989596 94.971 178.0508
2978.417161 94.953 177.1812
3000.000000 94.931 176.3188
3021.739237 94.903 175.4653
3043.636005 94.871 174.6227
3065.691446 94.834 173.7924
3087.906710 94.793 172.9763
3110.282955 94.748 172.1755
3132.821347 94.699 171.3917
3155.523062 94.647 170.6255
3178.389283 94.591 169.8778
3201.421202 94.532 169.1489
3224.620020 94.471 168.4391
3247.986946 94.407 167.7484
3271.523198 94.340 167.0765
3295.230004 94.272 166.4236
3319.108599 94.202 165.7894
3343.160228 94.129 165.1740
3367.386145 94.056 164.5779
3391.787613 93.980 164.0013
3416.365904 93.904 163.4445
3441.122300 93.826 162.9075
3466.058091 93.747 162.3903
3491.174576 93.668 161.8925
3516.473066 93.588 161.4140
3541.954880 93.508 160.9542
3567.621345 93.427 160.5124
3593.473800 93.347 160.0879
3619.513592 93.267 159.6797
3645.742080 93.187 159.2870
3672.160630 93.107 158.9088
3698.770620 93.028 158.5437
3725.573436 92.950 158.1908
3752.570477 92.872 157.8489
3779.763150 92.794 157.5169
3807.152872 92.717 157.1938
3834.741071 92.641 156.8787
3862.529185 92.565 156.5705
3890.518664 92.489 156.2682
3918.710966 92.413 155.9711
3947.107561 92.338 155.6785
3975.709929 92.262 155.3896
4004.519563 92.187 155.1039
4033.537962 92.111 154.8208
4062.766641 92.035 154.5400
4092.207123 91.959 154.2610
4121.860942 91.881 153.9840
4151.729646 91.803 153.7090
4181.814790 91.723 153.4362
4212.117944 91.642 153.1665
4242.640687 91.560 152.9005
4273.384610 91.476 152.6394
4304.351317 91.390 152.3844
4335.542421 91.303 152.1370
4366.959549 91.213 151.8986
4398.604338 91.122 151.6711
4430.478438 91.028 151.4561
4462.583511 90.933 151.2556
4494.921231 90.836 151.0714
4527.493283 90.737 150.9053
4560.301365 90.637 150.7587
4593.347189 90.536 150.6326
4626.632476 90.435 150.5276
4660.158962 90.333 150.4437
4693.928395 90.231 150.3803
4727.942535 90.130 150.3366
4762.203156 90.030 150.3112
4796.712043 89.930 150.3026
4831.470996 89.832 150.3087
4866.481826 89.735 150.3276
4901.746360 89.638 150.3577
4937.266434 89.543 150.3973
4973.043902 89.449 150.4452
5009.080628 89.356 150.5004
5045.378492 89.263 150.5619
5081.939384 89.171 150.6292
5118.765212 89.079 150.7018
5155.857894 88.987 150.7796
5193.219366 88.896 150.8624
5230.851574 88.804 150.9505
5268.756481 88.712 151.0442
5306.936062 88.619 151.1443
5345.392309 88.525 151.2518
5384.127225 88.430 151.3682
5423.142830 88.334 151.4950
5462.441159 88.236 151.6346
5502.024259 88.137 151.7897
5541.894195 88.036 151.9633
5582.053045 87.934 152.1582
5622.502902 87.830 152.3773
5663.245876 87.725 152.6229
5704.284090 87.619 152.8971
5745.619684 87.513 153.2019
5787.254813 87.405 153.5392
5829.191647 87.298 153.9109
5871.432373 87.191 154.3185
5913.979192 87.084 154.7637
5956.834323 86.979 155.2476
6000.000000 86.874 155.7714
6043.478473 86.772 156.3362
6087.272010 86.671 156.9431
6131.382892 86.574 157.5930
6175.813420 86.480 158.2867
6220.565910 86.389 159.0249
6265.642695 86.304 159.8076
6311.046124 86.224 160.6344
6356.778566 86.150 161.5039
6402.842404 86.084 162.4144
6449.240040 86.025 163.3631
6495.973891 85.975 164.3469
6543.046396 85.935 165.3623
6590.460007 85.904 166.4052
6638.217197 85.884 167.4711
6686.320456 85.876 168.5557
6734.772290 85.880 169.6540
6783.575226 85.896 170.7610
6832.731809 85.926 171.8713
6882.244600 85.970 172.9790
6932.116181 86.028 174.0775
6982.349153 86.102 175.1594
7032.946133 86.191 176.2164
7083.909760 86.298 177.2386
7135.242690 86.421 178.2148
7186.947600 86.563 179.1317
7239.027185 86.722 179.9742
7291.484160 86.900 -179.2745
7344.321260 87.096 -178.6331
7397.541239 87.309 -178.1211
7451.146872 87.539 -177.7579
7505.140954 87.783 -177.5620
7559.526299 88.041 -177.5510
7614.305743 88.311 -177.7458
7669.482141 88.591 -178.1743
7725.058371 88.878 -178.8713
7781.037328 89.166 -179.8723
7837.421932 89.447 178.7937
7894.215122 89.711 177.1106
7951.419859 89.946 175.0788
8009.039125 90.140 172.7172
8067.075924 90.283 170.0644
8125.533282 90.365 167.1786
8184.414245 90.375 164.1359
8243.721885 90.310 161.0266
8303.459292 90.167 157.9503
8363.629581 89.946 155.0091
8424.235888 89.654 152.3018
8485.281374 89.297 149.9171
8546.769221 88.888 147.9290
8608.702634 88.441 146.3906
8671.084842 87.973 145.3296
8733.919097 87.499 144.7411
8797.208675 87.039 144.5817
8860.956876 86.606 144.7682
8925.167022 86.210 145.1874
8989.842461 85.851 145.7206
9054.986566 85.521 146.2789
9120.602731 85.207 146.8306
9186.694378 84.898 147.4044
9253.264952 84.584 148.0688
9320.317925 84.266 148.8992
9387.856790 83.950 149.9520
9455.885071 83.643 151.2532
9524.406312 83.357 152.7969
9593.424086 83.100 154.5533
9662.941992 82.879 156.4770
9732.963653 82.699 158.5138
9803.492719 82.563 160.6067
9874.532869 82.472 162.6989
9946.087805 82.425 164.7354
10018.161257 82.421 166.6637
10090.756983 82.456 168.4346
10163.878768 82.526 170.0034
10237.530423 82.624 171.3312
10311.715789 82.743 172.3869
10386.438732 82.876 173.1489
10461.703149 83.013 173.6067
10537.512962 83.147 173.7613
10613.872125 83.268 173.6255
10690.784618 83.368 173.2235
10768.254450 83.440 172.5889
10846.285661 83.478 171.7628
10924.882318 83.479 170.7913
11004.048518 83.438 169.7224
11083.788390 83.354 168.6044
11164.106090 83.227 167.4839
11245.005805 83.057 166.4053
11326.491752 82.846 165.4113
11408.568180 82.593 164.5436
11491.239368 82.303 163.8438
11574.509626 81.978 163.3531
11658.383294 81.623 163.1118
11742.864745 81.242 163.1556
11827.958384 80.844 163.5124
11913.668646 80.437 164.1969
12000.000000 80.028 165.2075
12086.956947 79.625 166.5275
12174.544019 79.234 168.1317
12262.765784 78.859 169.9951
12351.626840 78.503 172.1003
12441.131819 78.167 174.4381
12531.285389 77.853 177.0050
12622.092249 77.565 179.7973
12713.557132 77.306 -177.1929
12805.684808 77.080 -173.9797
12898.480079 76.892 -170.5844
12991.947783 76.745 -167.0334
13086.092792 76.642 -163.3568
13180.920015 76.585 -159.5862
13276.434395 76.576 -155.7550
13372.640911 76.618 -151.8971
13469.544580 76.710 -148.0473
13567.150452 76.855 -144.2413
13665.463617 77.052 -140.5157
13764.489200 77.301 -136.9088
13864.232362 77.602 -133.4598
13964.698305 77.954 -130.2092
14065.892266 78.354 -127.1990
14167.819519 78.800 -124.4720
14270.485380 79.289 -122.0726
14373.895200 79.814 -120.0450
14478.054370 80.370 -118.4321
14582.968320 80.949 -117.2725
14688.642520 81.541 -116.5966
14795.082478 82.137 -116.4242
14902.293745 82.725 -116.7626
15010.281908 83.294 -117.6053
15119.052599 83.833 -118.9301
15228.611486 84.331 -120.6976
15338.964283 84.779 -122.8506
15450.116741 85.170 -125.3137
15562.074656 85.502 -128.0004
15674.843864 85.776 -130.8246
15788.430244 85.997 -133.7147
15902.839718 86.173 -136.6224
16018.078250 86.314 -139.5240
16134.151848 86.427 -142.4167
16251.066563 86.518 -145.3138
16368.828491 86.594 -148.2415
16487.443769 86.658 -151.2382
16606.918584 86.711 -154.3530
16727.259161 86.750 -157.6404
16848.471777 86.767 -161.1486
16970.562748 86.748 -164.9039
17093.538442 86.679 -168.8973
17217.405268 86.542 -173.0776
17342.169684 86.324 -177.3545
17467.838194 86.018 178.3906
17594.417350 85.621 174.2853
17721.913751 85.141 170.4438
17850.334044 84.591 166.9467
17979.684923 83.987 163.8249
18109.973131 83.346 161.0580
18241.205462 82.681 158.5860
18373.388756 81.997 156.3391
18506.529905 81.289 154.2750
18640.635849 80.546 152.4087
18775.713581 79.758 150.8157
18911.770141 78.919 149.6027
19048.812624 78.034 148.8584
19186.848172 77.116 148.6140
19325.883983 76.184 148.8278
19465.927305 75.265 149.3970
19606.985439 74.391 150.1804
19749.065738 73.617 151.0170
19892.175609 73.020 151.7321
20036.322514 72.690 152.1511
