* Measurement data measured by REW V5.31.3
* Source: Headset (2- CX31993 HIFI AUDIO), MICROPHONE (Master Volume), R, volume: 0.400
* Format: 256k Log Swept Sine, 1 sweep at -11.9 dBFS with no timing reference
* Dated: 08 4, 25 6:17:11 PM
* REW Settings:
*  C-weighting compensation: Off
*  Target level: 75.0 dB
* Note: ; 
* Measurement: CrinEar Daybreak L
* Smoothing: 1/12 octave
* Frequency Step: 96 ppo
* Start Frequency: 0.36621094 Hz
*
* Freq(Hz) SPL(dB) Phase(degrees)
0.366211 45.101 -29.8656
0.368865 45.106 -29.9191
0.371538 45.115 -29.9988
0.374230 45.126 -30.0981
0.376942 45.138 -30.2115
0.379673 45.151 -30.3347
0.382424 45.164 -30.4650
0.385196 45.178 -30.6008
0.387987 45.192 -30.7410
0.390798 45.207 -30.8852
0.393630 45.221 -31.0330
0.396483 45.236 -31.1844
0.399356 45.250 -31.3393
0.402250 45.265 -31.4975
0.405165 45.280 -31.6593
0.408101 45.295 -31.8244
0.411058 45.310 -31.9930
0.414037 45.325 -32.1651
0.417037 45.340 -32.3407
0.420059 45.356 -32.5198
0.423103 45.371 -32.7024
0.426169 45.387 -32.8885
0.429257 45.403 -33.0782
0.432368 45.419 -33.2714
0.435501 45.435 -33.4681
0.438656 45.451 -33.6685
0.441835 45.467 -33.8724
0.445037 45.483 -34.0799
0.448262 45.500 -34.2910
0.451510 45.516 -34.5056
0.454782 45.533 -34.7239
0.458077 45.550 -34.9458
0.461397 45.567 -35.1714
0.464740 45.584 -35.4005
0.468108 45.601 -35.6333
0.471500 45.619 -35.8697
0.474917 45.636 -36.1097
0.478358 45.654 -36.3534
0.481825 45.671 -36.6007
0.485316 45.689 -36.8516
0.488833 45.707 -37.1062
0.492375 45.725 -37.3644
0.495943 45.743 -37.6263
0.499537 45.762 -37.8918
0.503157 45.780 -38.1610
0.506803 45.799 -38.4338
0.510475 45.818 -38.7103
0.514175 45.836 -38.9904
0.517900 45.855 -39.2742
0.521653 45.875 -39.5617
0.525434 45.894 -39.8528
0.529241 45.913 -40.1476
0.533076 45.933 -40.4461
0.536939 45.953 -40.7483
0.540830 45.973 -41.0541
0.544749 45.993 -41.3637
0.548696 46.013 -41.6770
0.552673 46.033 -41.9940
0.556677 46.053 -42.3147
0.560711 46.074 -42.6392
0.564774 46.095 -42.9675
0.568867 46.116 -43.2996
0.572989 46.137 -43.6354
0.577141 46.158 -43.9752
0.581324 46.179 -44.3187
0.585536 46.201 -44.6662
0.589779 46.222 -45.0176
0.594053 46.244 -45.3730
0.598358 46.266 -45.7324
0.602694 46.288 -46.0958
0.607061 46.311 -46.4633
0.611460 46.333 -46.8349
0.615891 46.356 -47.2108
0.620354 46.379 -47.5909
0.624849 46.401 -47.9753
0.629377 46.425 -48.3641
0.633938 46.448 -48.7573
0.638532 46.471 -49.1551
0.643159 46.495 -49.5576
0.647819 46.519 -49.9647
0.652514 46.543 -50.3767
0.657242 46.567 -50.7936
0.662005 46.591 -51.2156
0.666802 46.616 -51.6427
0.671634 46.640 -52.0751
0.676501 46.665 -52.5129
0.681403 46.690 -52.9563
0.686341 46.715 -53.4055
0.691314 46.741 -53.8605
0.696324 46.767 -54.3217
0.701370 46.792 -54.7891
0.706452 46.818 -55.2630
0.711571 46.845 -55.7437
0.716728 46.871 -56.2313
0.721921 46.899 -56.7262
0.727153 46.926 -57.2286
0.732422 46.955 -57.7389
0.737729 46.984 -58.2572
0.743075 47.013 -58.7836
0.748460 47.043 -59.3183
0.753883 47.074 -59.8612
0.759346 47.105 -60.4122
0.764849 47.136 -60.9711
0.770391 47.168 -61.5377
0.775974 47.199 -62.1118
0.781597 47.231 -62.6933
0.787261 47.263 -63.2820
0.792966 47.296 -63.8775
0.798712 47.328 -64.4798
0.804500 47.361 -65.0887
0.810329 47.395 -65.7039
0.816201 47.428 -66.3253
0.822116 47.462 -66.9528
0.828073 47.496 -67.5861
0.834074 47.531 -68.2251
0.840118 47.565 -68.8697
0.846206 47.600 -69.5198
0.852338 47.636 -70.1753
0.858514 47.672 -70.8361
0.864735 47.708 -71.5020
0.871001 47.745 -72.1731
0.877313 47.782 -72.8494
0.883670 47.820 -73.5307
0.890074 47.858 -74.2172
0.896524 47.896 -74.9088
0.903020 47.936 -75.6057
0.909564 47.975 -76.3078
0.916155 48.015 -77.0153
0.922794 48.056 -77.7282
0.929481 48.098 -78.4469
0.936216 48.140 -79.1713
0.943000 48.182 -79.9018
0.949834 48.226 -80.6386
0.956717 48.270 -81.3819
0.963649 48.314 -82.1321
0.970632 48.360 -82.8894
0.977666 48.406 -83.6542
0.984750 48.453 -84.4270
0.991886 48.501 -85.2081
0.999074 48.550 -85.9980
1.006314 48.600 -86.7973
1.013606 48.650 -87.6064
1.020951 48.702 -88.4260
1.028349 48.755 -89.2566
1.035801 48.808 -90.0989
1.043307 48.863 -90.9537
1.050867 48.919 -91.8216
1.058482 48.976 -92.7035
1.066152 49.034 -93.6000
1.073878 49.093 -94.5119
1.081660 49.154 -95.4399
1.089498 49.216 -96.3845
1.097393 49.279 -97.3457
1.105345 49.343 -98.3237
1.113355 49.408 -99.3178
1.121423 49.474 -100.3274
1.129549 49.542 -101.3517
1.137734 49.610 -102.3900
1.145979 49.680 -103.4412
1.154283 49.751 -104.5048
1.162647 49.822 -105.5798
1.171072 49.895 -106.6654
1.179558 49.969 -107.7611
1.188106 50.045 -108.8662
1.196715 50.121 -109.9800
1.205387 50.199 -111.1021
1.214122 50.278 -112.2317
1.222920 50.358 -113.3686
1.231782 50.439 -114.5122
1.240708 50.522 -115.6623
1.249699 50.607 -116.8185
1.258754 50.692 -117.9805
1.267876 50.779 -119.1482
1.277063 50.868 -120.3215
1.286318 50.958 -121.5003
1.295639 51.050 -122.6845
1.305027 51.143 -123.8744
1.314484 51.238 -125.0698
1.324009 51.335 -126.2712
1.333604 51.433 -127.4786
1.343268 51.533 -128.6924
1.353002 51.635 -129.9129
1.362806 51.738 -131.1406
1.372681 51.844 -132.3758
1.382628 51.951 -133.6191
1.392647 52.061 -134.8709
1.402739 52.172 -136.1317
1.412904 52.285 -137.4020
1.423142 52.401 -138.6820
1.433455 52.519 -139.9719
1.443843 52.639 -141.2712
1.454305 52.762 -142.5789
1.464844 52.887 -143.8935
1.475459 53.015 -145.2124
1.486150 53.145 -146.5331
1.496920 53.279 -147.8528
1.507767 53.416 -149.1694
1.518693 53.555 -150.4811
1.529698 53.698 -151.7868
1.540783 53.843 -153.0857
1.551948 53.992 -154.3772
1.563194 54.143 -155.6611
1.574521 54.297 -156.9375
1.585931 54.453 -158.2066
1.597423 54.612 -159.4689
1.608999 54.774 -160.7248
1.620658 54.938 -161.9751
1.632402 55.104 -163.2207
1.644232 55.272 -164.4623
1.656146 55.442 -165.7011
1.668147 55.615 -166.9381
1.680235 55.789 -168.1745
1.692411 55.964 -169.4115
1.704675 56.142 -170.6503
1.717028 56.321 -171.8923
1.729470 56.501 -173.1386
1.742003 56.682 -174.3906
1.754626 56.864 -175.6495
1.767341 57.047 -176.9162
1.780147 57.231 -178.1914
1.793047 57.415 -179.4755
1.806040 57.600 179.2319
1.819128 57.787 177.9323
1.832310 57.974 176.6281
1.845587 58.163 175.3224
1.858961 58.353 174.0190
1.872432 58.545 172.7211
1.886001 58.739 171.4311
1.899667 58.935 170.1508
1.913433 59.132 168.8814
1.927299 59.332 167.6235
1.941265 59.533 166.3770
1.955332 59.737 165.1419
1.969501 59.941 163.9177
1.983773 60.147 162.7037
1.998148 60.355 161.4990
2.012627 60.563 160.3027
2.027212 60.773 159.1136
2.041902 60.983 157.9305
2.056698 61.194 156.7522
2.071602 61.406 155.5772
2.086614 61.619 154.4042
2.101734 61.831 153.2319
2.116964 62.044 152.0590
2.132304 62.257 150.8842
2.147756 62.469 149.7070
2.163320 62.682 148.5269
2.178996 62.894 147.3444
2.194786 63.106 146.1607
2.210690 63.318 144.9779
2.226710 63.530 143.7985
2.242845 63.742 142.6247
2.259098 63.955 141.4583
2.275468 64.167 140.3004
2.291957 64.380 139.1515
2.308566 64.593 138.0117
2.325295 64.807 136.8808
2.342145 65.021 135.7581
2.359117 65.234 134.6430
2.376212 65.448 133.5344
2.393431 65.662 132.4312
2.410775 65.876 131.3323
2.428244 66.090 130.2364
2.445840 66.304 129.1422
2.463564 66.517 128.0483
2.481416 66.730 126.9536
2.499397 66.943 125.8569
2.517509 67.156 124.7575
2.535752 67.368 123.6551
2.554127 67.580 122.5498
2.572635 67.792 121.4428
2.591277 68.003 120.3356
2.610055 68.213 119.2298
2.628968 68.423 118.1268
2.648019 68.633 117.0277
2.667208 68.842 115.9332
2.686535 69.050 114.8435
2.706003 69.258 113.7587
2.725612 69.466 112.6783
2.745363 69.673 111.6019
2.765257 69.879 110.5288
2.785295 70.085 109.4583
2.805478 70.291 108.3893
2.825808 70.496 107.3208
2.846285 70.700 106.2518
2.866910 70.904 105.1815
2.887685 71.107 104.1089
2.908611 71.310 103.0336
2.929688 71.512 101.9555
2.950917 71.714 100.8752
2.972301 71.915 99.7935
2.993839 72.114 98.7113
3.015534 72.313 97.6297
3.037386 72.511 96.5494
3.059396 72.709 95.4711
3.081565 72.905 94.3951
3.103896 73.101 93.3215
3.126388 73.295 92.2502
3.149043 73.489 91.1810
3.171862 73.682 90.1133
3.194847 73.875 89.0465
3.217998 74.067 87.9800
3.241317 74.258 86.9128
3.264805 74.448 85.8442
3.288463 74.637 84.7736
3.312293 74.826 83.7006
3.336295 75.013 82.6252
3.360471 75.200 81.5480
3.384822 75.385 80.4695
3.409350 75.569 79.3905
3.434056 75.752 78.3119
3.458940 75.934 77.2342
3.484005 76.116 76.1581
3.509252 76.296 75.0836
3.534681 76.475 74.0110
3.560295 76.653 72.9401
3.586094 76.830 71.8704
3.612081 77.007 70.8013
3.638255 77.182 69.7320
3.664620 77.357 68.6618
3.691175 77.530 67.5898
3.717923 77.702 66.5160
3.744864 77.873 65.4403
3.772001 78.043 64.3634
3.799335 78.211 63.2862
3.826866 78.379 62.2094
3.854597 78.545 61.1339
3.882529 78.710 60.0603
3.910664 78.874 58.9890
3.939002 79.037 57.9201
3.967546 79.199 56.8534
3.996296 79.360 55.7882
4.025255 79.520 54.7239
4.054423 79.678 53.6593
4.083804 79.836 52.5939
4.113396 79.992 51.5276
4.143204 80.147 50.4605
4.173227 80.300 49.3935
4.203468 80.453 48.3274
4.233928 80.604 47.2632
4.264609 80.754 46.2015
4.295512 80.903 45.1429
4.326639 81.051 44.0875
4.357992 81.198 43.0352
4.389572 81.344 41.9851
4.421380 81.489 40.9364
4.453419 81.632 39.8884
4.485691 81.774 38.8408
4.518196 81.916 37.7936
4.550936 82.055 36.7475
4.583914 82.194 35.7033
4.617131 82.332 34.6618
4.650589 82.468 33.6237
4.684289 82.604 32.5893
4.718233 82.739 31.5588
4.752424 82.872 30.5317
4.786862 83.005 29.5074
4.821549 83.136 28.4850
4.856488 83.267 27.4642
4.891680 83.396 26.4452
4.927127 83.524 25.4281
4.962831 83.652 24.4137
4.998794 83.778 23.4025
5.035017 83.903 22.3951
5.071503 84.028 21.3917
5.108253 84.152 20.3922
5.145270 84.275 19.3962
5.182555 84.397 18.4030
5.220110 84.518 17.4122
5.257937 84.638 16.4236
5.296038 84.758 15.4376
5.334415 84.876 14.4545
5.373071 84.994 13.4745
5.412006 85.111 12.4980
5.451224 85.227 11.5251
5.490725 85.343 10.5557
5.530514 85.458 9.5892
5.570590 85.572 8.6254
5.610957 85.686 7.6639
5.651616 85.799 6.7048
5.692570 85.911 5.7480
5.733821 86.023 4.7939
5.775370 86.133 3.8427
5.817221 86.244 2.8942
5.859375 86.353 1.9482
5.901834 86.463 1.0046
5.944602 86.571 0.0630
5.987679 86.679 -0.8768
6.031068 86.786 -1.8148
6.074771 86.893 -2.7510
6.118792 86.999 -3.6853
6.163131 87.105 -4.6176
6.207792 87.210 -5.5480
6.252776 87.314 -6.4768
6.298086 87.418 -7.4043
6.343725 87.521 -8.3306
6.389694 87.624 -9.2557
6.435996 87.725 -10.1797
6.482634 87.827 -11.1022
6.529610 87.928 -12.0234
6.576926 88.028 -12.9434
6.624585 88.127 -13.8623
6.672590 88.226 -14.7803
6.720942 88.324 -15.6976
6.769645 88.421 -16.6141
6.818700 88.518 -17.5295
6.868111 88.614 -18.4438
6.917881 88.710 -19.3569
6.968010 88.804 -20.2690
7.018504 88.898 -21.1802
7.069362 88.991 -22.0905
7.120590 89.084 -23.0000
7.172189 89.176 -23.9084
7.224161 89.266 -24.8156
7.276511 89.357 -25.7214
7.329239 89.446 -26.6257
7.382350 89.535 -27.5289
7.435845 89.622 -28.4308
7.489729 89.710 -29.3315
7.544002 89.796 -30.2308
7.598669 89.881 -31.1284
7.653732 89.966 -32.0242
7.709194 90.050 -32.9182
7.765058 90.133 -33.8104
7.821327 90.215 -34.7010
7.878004 90.297 -35.5897
7.935091 90.377 -36.4764
7.992592 90.457 -37.3610
8.050510 90.536 -38.2433
8.108847 90.615 -39.1233
8.167607 90.692 -40.0011
8.226793 90.769 -40.8766
8.286408 90.845 -41.7498
8.346454 90.920 -42.6205
8.406936 90.995 -43.4885
8.467856 91.068 -44.3538
8.529218 91.141 -45.2166
8.591024 91.214 -46.0767
8.653278 91.285 -46.9340
8.715983 91.356 -47.7886
8.779143 91.426 -48.6401
8.842760 91.496 -49.4888
8.906839 91.565 -50.3345
8.971381 91.633 -51.1774
9.036392 91.700 -52.0173
9.101873 91.767 -52.8542
9.167829 91.833 -53.6880
9.234263 91.899 -54.5189
9.301178 91.964 -55.3467
9.368578 92.029 -56.1716
9.436467 92.093 -56.9937
9.504847 92.156 -57.8127
9.573723 92.219 -58.6290
9.643099 92.281 -59.4425
9.712976 92.343 -60.2534
9.783361 92.404 -61.0616
9.854255 92.465 -61.8673
9.925663 92.525 -62.6707
9.997588 92.585 -63.4717
10.070035 92.644 -64.2706
10.143007 92.703 -65.0674
10.216507 92.762 -65.8624
10.290540 92.820 -66.6555
10.365109 92.877 -67.4469
10.440219 92.934 -68.2367
10.515873 92.990 -69.0250
10.592076 93.046 -69.8119
10.668830 93.101 -70.5973
10.746141 93.155 -71.3813
10.824012 93.209 -72.1641
10.902447 93.262 -72.9453
10.981451 93.315 -73.7251
11.061027 93.367 -74.5034
11.141180 93.418 -75.2800
11.221913 93.468 -76.0549
11.303232 93.517 -76.8278
11.385140 93.566 -77.5986
11.467641 93.614 -78.3672
11.550741 93.661 -79.1334
11.634442 93.708 -79.8969
11.718750 93.754 -80.6575
11.803669 93.798 -81.4150
11.889203 93.843 -82.1694
11.975357 93.886 -82.9205
12.062136 93.929 -83.6682
12.149543 93.971 -84.4124
12.237583 94.013 -85.1530
12.326262 94.054 -85.8900
12.415583 94.094 -86.6235
12.505552 94.134 -87.3536
12.596172 94.174 -88.0803
12.687449 94.213 -88.8038
12.779387 94.252 -89.5244
12.871992 94.290 -90.2420
12.965268 94.328 -90.9570
13.059220 94.366 -91.6697
13.153852 94.403 -92.3801
13.249170 94.440 -93.0884
13.345179 94.476 -93.7949
13.441884 94.512 -94.4996
13.539289 94.548 -95.2028
13.637401 94.583 -95.9043
13.736223 94.618 -96.6042
13.835761 94.652 -97.3027
13.936021 94.685 -97.9995
14.037007 94.718 -98.6946
14.138725 94.751 -99.3879
14.241180 94.783 -100.0793
14.344377 94.814 -100.7687
14.448323 94.845 -101.4558
14.553021 94.875 -102.1406
14.658478 94.905 -102.8229
14.764700 94.934 -103.5027
14.871691 94.963 -104.1798
14.979457 94.991 -104.8544
15.088005 95.019 -105.5263
15.197339 95.046 -106.1956
15.307465 95.073 -106.8624
15.418389 95.100 -107.5267
15.530117 95.126 -108.1886
15.642655 95.152 -108.8483
15.756008 95.178 -109.5057
15.870182 95.203 -110.1612
15.985184 95.228 -110.8146
16.101019 95.252 -111.4661
16.217694 95.276 -112.1157
16.335214 95.300 -112.7633
16.453586 95.323 -113.4091
16.572815 95.346 -114.0530
16.692909 95.368 -114.6949
16.813872 95.390 -115.3348
16.935713 95.412 -115.9727
17.058436 95.433 -116.6083
17.182048 95.454 -117.2418
17.306556 95.474 -117.8732
17.431967 95.494 -118.5022
17.558286 95.513 -119.1290
17.685521 95.532 -119.7535
17.813677 95.551 -120.3757
17.942762 95.569 -120.9956
18.072783 95.587 -121.6132
18.203746 95.604 -122.2285
18.335658 95.621 -122.8414
18.468526 95.638 -123.4518
18.602356 95.654 -124.0599
18.737156 95.669 -124.6655
18.872934 95.685 -125.2686
19.009695 95.700 -125.8693
19.147447 95.714 -126.4673
19.286197 95.729 -127.0630
19.425953 95.743 -127.6564
19.566721 95.756 -128.2476
19.708510 95.770 -128.8366
19.851326 95.783 -129.4237
19.995177 95.795 -130.0092
20.140070 95.808 -130.5931
20.286013 95.820 -131.1756
20.433014 95.832 -131.7570
20.581080 95.843 -132.3372
20.730219 95.854 -132.9162
20.880439 95.864 -133.4941
21.031747 95.874 -134.0706
21.184152 95.883 -134.6457
21.337661 95.892 -135.2190
21.492282 95.900 -135.7902
21.648024 95.907 -136.3589
21.804895 95.914 -136.9250
21.962902 95.921 -137.4881
22.122054 95.927 -138.0480
22.282360 95.932 -138.6046
22.443827 95.937 -139.1580
22.606464 95.942 -139.7081
22.770280 95.947 -140.2554
22.935283 95.952 -140.8003
23.101481 95.956 -141.3430
23.268884 95.960 -141.8843
23.437500 95.964 -142.4246
23.607338 95.968 -142.9643
23.778406 95.972 -143.5038
23.950714 95.975 -144.0432
24.124271 95.978 -144.5826
24.299086 95.980 -145.1216
24.475167 95.981 -145.6598
24.652524 95.982 -146.1964
24.831166 95.982 -146.7307
25.011103 95.981 -147.2618
25.192344 95.979 -147.7891
25.374898 95.977 -148.3121
25.558775 95.975 -148.8304
25.743984 95.972 -149.3441
25.930536 95.970 -149.8538
26.118439 95.967 -150.3599
26.307704 95.964 -150.8635
26.498341 95.962 -151.3654
26.690359 95.959 -151.8665
26.883768 95.956 -152.3675
27.078579 95.954 -152.8688
27.274801 95.950 -153.3704
27.472446 95.947 -153.8721
27.671522 95.942 -154.3736
27.872042 95.938 -154.8743
28.074014 95.932 -155.3737
28.277450 95.926 -155.8713
28.482360 95.920 -156.3668
28.688755 95.912 -156.8597
28.896645 95.905 -157.3499
29.106042 95.897 -157.8371
29.316957 95.888 -158.3211
29.529400 95.879 -158.8016
29.743382 95.870 -159.2785
29.958915 95.860 -159.7516
30.176009 95.851 -160.2211
30.394677 95.841 -160.6874
30.614929 95.832 -161.1512
30.836778 95.822 -161.6133
31.060234 95.812 -162.0746
31.285309 95.803 -162.5355
31.512015 95.793 -162.9963
31.740364 95.783 -163.4566
31.970368 95.772 -163.9158
32.202039 95.760 -164.3729
32.435388 95.749 -164.8270
32.670428 95.736 -165.2776
32.907171 95.724 -165.7246
33.145630 95.712 -166.1684
33.385817 95.699 -166.6099
33.627745 95.687 -167.0500
33.871425 95.674 -167.4896
34.116871 95.661 -167.9289
34.364096 95.648 -168.3677
34.613113 95.634 -168.8055
34.863934 95.620 -169.2415
35.116572 95.605 -169.6750
35.371041 95.590 -170.1061
35.627354 95.574 -170.5349
35.885525 95.559 -170.9620
36.145566 95.543 -171.3882
36.407492 95.527 -171.8143
36.671316 95.511 -172.2405
36.937051 95.494 -172.6668
37.204712 95.476 -173.0932
37.474313 95.459 -173.5195
37.745867 95.440 -173.9457
38.019389 95.421 -174.3721
38.294893 95.402 -174.7988
38.572394 95.382 -175.2257
38.851905 95.361 -175.6526
39.133442 95.340 -176.0786
39.417019 95.317 -176.5025
39.702651 95.293 -176.9232
39.990353 95.269 -177.3397
40.280140 95.245 -177.7515
40.572026 95.220 -178.1584
40.866028 95.194 -178.5605
41.162160 95.168 -178.9577
41.460438 95.143 -179.3499
41.760877 95.117 -179.7374
42.063494 95.092 179.8792
42.368303 95.067 179.4983
42.675322 95.042 179.1180
42.984565 95.017 178.7365
43.296048 94.993 178.3525
43.609789 94.967 177.9668
43.925804 94.941 177.5814
44.244108 94.913 177.1992
44.564719 94.885 176.8228
44.887654 94.856 176.4532
45.212928 94.827 176.0892
45.540560 94.799 175.7282
45.870565 94.770 175.3672
46.202962 94.742 175.0045
46.537768 94.712 174.6404
46.875000 94.681 174.2775
47.214676 94.650 173.9185
47.556813 94.617 173.5658
47.901429 94.584 173.2197
48.248542 94.551 172.8790
48.598171 94.518 172.5417
48.950334 94.485 172.2061
49.305048 94.452 171.8712
49.662333 94.419 171.5371
50.022206 94.385 171.2040
50.384688 94.351 170.8718
50.749796 94.317 170.5405
51.117550 94.282 170.2100
51.487969 94.246 169.8810
51.861072 94.210 169.5547
52.236879 94.173 169.2323
52.615409 94.135 168.9144
52.996681 94.097 168.6010
53.380717 94.059 168.2913
53.767536 94.021 167.9847
54.157158 93.983 167.6810
54.549603 93.944 167.3806
54.944892 93.905 167.0834
55.343045 93.866 166.7894
55.744084 93.827 166.4981
56.148028 93.787 166.2091
56.554900 93.748 165.9225
56.964720 93.707 165.6386
57.377510 93.667 165.3584
57.793291 93.626 165.0822
58.212085 93.584 164.8098
58.633914 93.543 164.5409
59.058799 93.501 164.2747
59.486764 93.459 164.0107
59.917829 93.416 163.7489
60.352019 93.373 163.4895
60.789354 93.329 163.2330
61.229859 93.285 162.9796
61.673556 93.241 162.7296
62.120468 93.195 162.4827
62.570618 93.150 162.2383
63.024031 93.104 161.9964
63.480729 93.057 161.7578
63.940736 93.010 161.5242
64.404077 92.963 161.2972
64.870776 92.915 161.0766
65.340856 92.869 160.8602
65.814343 92.823 160.6448
66.291261 92.777 160.4283
66.771635 92.732 160.2111
67.255489 92.686 159.9944
67.742850 92.639 159.7803
68.233743 92.592 159.5700
68.728193 92.545 159.3644
69.226226 92.497 159.1642
69.727867 92.449 158.9702
70.233144 92.401 158.7826
70.742083 92.353 158.6010
71.254709 92.304 158.4250
71.771050 92.255 158.2539
72.291132 92.205 158.0874
72.814984 92.155 157.9250
73.342631 92.105 157.7667
73.874102 92.055 157.6119
74.409424 92.004 157.4603
74.948626 91.953 157.3116
75.491734 91.902 157.1662
76.038779 91.850 157.0245
76.589787 91.799 156.8870
77.144788 91.747 156.7538
77.703811 91.696 156.6245
78.266885 91.645 156.4984
78.834039 91.594 156.3745
79.405303 91.543 156.2523
79.980706 91.492 156.1321
80.560280 91.440 156.0159
81.144053 91.388 155.9061
81.732056 91.335 155.8046
82.324320 91.282 155.7112
82.920876 91.229 155.6254
83.521755 91.176 155.5469
84.126988 91.124 155.4749
84.736607 91.071 155.4086
85.350643 91.019 155.3467
85.969129 90.966 155.2884
86.592097 90.914 155.2336
87.219579 90.862 155.1822
87.851608 90.810 155.1337
88.488217 90.758 155.0876
89.129439 90.707 155.0436
89.775308 90.655 155.0017
90.425856 90.603 154.9624
91.081119 90.551 154.9262
91.741131 90.499 154.8940
92.405925 90.446 154.8669
93.075536 90.394 154.8458
93.750000 90.341 154.8311
94.429351 90.289 154.8231
95.113625 90.236 154.8221
95.802858 90.184 154.8278
96.497085 90.132 154.8392
97.196342 90.081 154.8556
97.900667 90.029 154.8757
98.610096 89.978 154.8992
99.324665 89.928 154.9261
100.044413 89.877 154.9568
100.769376 89.827 154.9918
101.499592 89.777 155.0311
102.235100 89.727 155.0753
102.975938 89.678 155.1245
103.722144 89.628 155.1790
104.473757 89.578 155.2386
105.230817 89.529 155.3029
105.993363 89.480 155.3707
106.761435 89.432 155.4403
107.535072 89.384 155.5103
108.314315 89.337 155.5797
109.099206 89.290 155.6490
109.889783 89.245 155.7191
110.686090 89.199 155.7921
111.488167 89.154 155.8700
112.296056 89.108 155.9545
113.109800 89.062 156.0472
113.929440 89.014 156.1486
114.755020 88.966 156.2583
115.586582 88.917 156.3745
116.424170 88.867 156.4938
117.267827 88.817 156.6125
118.117598 88.769 156.7295
118.973527 88.722 156.8472
119.835658 88.677 156.9686
120.704037 88.636 157.0958
121.578708 88.599 157.2300
122.459718 88.564 157.3707
123.347111 88.532 157.5162
124.240935 88.500 157.6648
125.141236 88.468 157.8148
126.048061 88.433 157.9651
126.961458 88.396 158.1151
127.881473 88.356 158.2660
128.808154 88.315 158.4214
129.741551 88.273 158.5867
130.681712 88.232 158.7655
131.628686 88.194 158.9572
132.582521 88.160 159.1570
133.543269 88.128 159.3586
134.510979 88.099 159.5563
135.485701 88.071 159.7466
136.467486 88.041 159.9294
137.456386 88.011 160.1069
138.452451 87.978 160.2825
139.455735 87.944 160.4602
140.466288 87.910 160.6444
141.484165 87.877 160.8380
142.509418 87.845 161.0415
143.542100 87.815 161.2537
144.582265 87.786 161.4720
145.629968 87.759 161.6929
146.685262 87.732 161.9136
147.748204 87.706 162.1331
148.818849 87.681 162.3514
149.897251 87.654 162.5696
150.983469 87.628 162.7893
152.077557 87.601 163.0129
153.179574 87.575 163.2440
154.289576 87.549 163.4855
155.407622 87.523 163.7375
156.533770 87.500 163.9991
157.668078 87.478 164.2686
158.810606 87.458 164.5456
159.961413 87.439 164.8304
161.120559 87.423 165.1221
162.288105 87.410 165.4175
163.464112 87.400 165.7123
164.648640 87.392 166.0021
165.841752 87.388 166.2849
167.043510 87.387 166.5602
168.253976 87.388 166.8276
169.473213 87.392 167.0846
170.701286 87.399 167.3269
171.938258 87.408 167.5513
173.184194 87.417 167.7573
174.439158 87.427 167.9458
175.703216 87.436 168.1175
176.976434 87.444 168.2720
178.258878 87.450 168.4085
179.550615 87.456 168.5272
180.851713 87.460 168.6292
182.162239 87.463 168.7167
183.482262 87.464 168.7943
184.811850 87.463 168.8685
186.151073 87.460 168.9454
187.500000 87.455 169.0311
188.858702 87.448 169.1331
190.227250 87.440 169.2546
191.605715 87.435 169.3895
192.994169 87.434 169.5223
194.392685 87.436 169.6348
195.801334 87.442 169.7156
197.220191 87.447 169.7696
198.649330 87.450 169.8163
200.088825 87.451 169.8781
201.538751 87.450 169.9678
202.999184 87.447 170.0848
204.470200 87.443 170.2194
205.951875 87.437 170.3603
207.444287 87.429 170.5005
208.947514 87.420 170.6370
210.461634 87.410 170.7674
211.986726 87.401 170.8906
213.522869 87.393 171.0077
215.070144 87.386 171.1221
216.628631 87.381 171.2366
218.198411 87.377 171.3519
219.779567 87.373 171.4675
221.372180 87.370 171.5819
222.976334 87.366 171.6940
224.592112 87.363 171.8035
226.219600 87.359 171.9112
227.858880 87.356 172.0182
229.510039 87.353 172.1244
231.173164 87.350 172.2285
232.848340 87.347 172.3289
234.535655 87.344 172.4247
236.235197 87.342 172.5174
237.947054 87.339 172.6096
239.671317 87.337 172.7040
241.408074 87.335 172.8024
243.157416 87.333 172.9047
244.919435 87.332 173.0093
246.694223 87.330 173.1132
248.481871 87.328 173.2137
250.282473 87.327 173.3101
252.096123 87.325 173.4031
253.922915 87.324 173.4943
255.762945 87.323 173.5851
257.616309 87.322 173.6762
259.483103 87.321 173.7678
261.363424 87.319 173.8596
263.257372 87.318 173.9512
265.165043 87.317 174.0425
267.086538 87.315 174.1332
269.021957 87.314 174.2232
270.971401 87.312 174.3125
272.934972 87.311 174.4019
274.912771 87.309 174.4934
276.904902 87.308 174.5881
278.911469 87.307 174.6840
280.932577 87.305 174.7762
282.968330 87.303 174.8608
285.018835 87.301 174.9376
287.084199 87.298 175.0098
289.164530 87.295 175.0817
291.259935 87.293 175.1563
293.370525 87.291 175.2348
295.496408 87.289 175.3168
297.637697 87.288 175.4015
299.794503 87.288 175.4874
301.966937 87.287 175.5729
304.155114 87.286 175.6569
306.359147 87.285 175.7388
308.579152 87.284 175.8188
310.815244 87.283 175.8967
313.067539 87.283 175.9729
315.336156 87.282 176.0479
317.621211 87.281 176.1227
319.922826 87.279 176.1982
322.241118 87.277 176.2749
324.576210 87.275 176.3525
326.928223 87.273 176.4309
329.297280 87.272 176.5099
331.683504 87.271 176.5889
334.087019 87.270 176.6677
336.507952 87.269 176.7465
338.946427 87.268 176.8259
341.402572 87.267 176.9066
343.876516 87.266 176.9885
346.368387 87.265 177.0709
348.878315 87.265 177.1530
351.406431 87.265 177.2344
353.952867 87.266 177.3148
356.517756 87.267 177.3936
359.101230 87.268 177.4700
361.703426 87.269 177.5440
364.324478 87.271 177.6154
366.964523 87.274 177.6837
369.623699 87.276 177.7485
372.302145 87.278 177.8094
375.000000 87.281 177.8657
377.717405 87.283 177.9157
380.454501 87.285 177.9594
383.211431 87.286 177.9980
385.988339 87.286 178.0338
388.785369 87.286 178.0684
391.602668 87.285 178.1028
394.440383 87.283 178.1384
397.298660 87.281 178.1756
400.177650 87.277 178.2139
403.077502 87.273 178.2537
405.998368 87.269 178.2960
408.940400 87.264 178.3414
411.903750 87.260 178.3901
414.888575 87.255 178.4416
417.895028 87.251 178.4950
420.923268 87.246 178.5487
423.973452 87.242 178.6010
427.045738 87.238 178.6504
430.140287 87.234 178.6971
433.257261 87.229 178.7421
436.396822 87.224 178.7868
439.559133 87.218 178.8324
442.744360 87.213 178.8796
445.952668 87.207 178.9290
449.184225 87.201 178.9807
452.439199 87.195 179.0345
455.717760 87.189 179.0898
459.020079 87.182 179.1462
462.346327 87.174 179.2032
465.696680 87.167 179.2612
469.071310 87.159 179.3201
472.470394 87.151 179.3801
475.894109 87.143 179.4413
479.342634 87.135 179.5040
482.816148 87.126 179.5677
486.314833 87.118 179.6322
489.838871 87.110 179.6976
493.388445 87.101 179.7643
496.963741 87.092 179.8328
500.564945 87.084 179.9030
504.192245 87.075 179.9744
507.845830 87.065 -179.9531
511.525890 87.056 -179.8793
515.232618 87.046 -179.8040
518.966206 87.036 -179.7270
522.726849 87.026 -179.6482
526.514743 87.016 -179.5674
530.330086 87.005 -179.4845
534.173076 86.994 -179.3998
538.043915 86.983 -179.3136
541.942803 86.972 -179.2258
545.869944 86.961 -179.1362
549.825542 86.950 -179.0442
553.809805 86.939 -178.9497
557.822939 86.927 -178.8530
561.865154 86.915 -178.7537
565.936660 86.903 -178.6519
570.037671 86.891 -178.5474
574.168399 86.879 -178.4403
578.329060 86.866 -178.3309
582.519870 86.853 -178.2192
586.741049 86.841 -178.1049
590.992817 86.828 -177.9878
595.275394 86.815 -177.8674
599.589005 86.802 -177.7437
603.933874 86.789 -177.6163
608.310228 86.776 -177.4855
612.718295 86.763 -177.3511
617.158304 86.749 -177.2136
621.630488 86.735 -177.0730
626.135079 86.721 -176.9293
630.672311 86.707 -176.7821
635.242423 86.693 -176.6311
639.845651 86.679 -176.4762
644.482237 86.664 -176.3169
649.152421 86.650 -176.1528
653.856447 86.635 -175.9837
658.594560 86.620 -175.8094
663.367008 86.605 -175.6295
668.174039 86.590 -175.4436
673.015903 86.575 -175.2514
677.892854 86.560 -175.0527
682.805145 86.545 -174.8472
687.753032 86.530 -174.6345
692.736774 86.515 -174.4141
697.756631 86.501 -174.1857
702.812863 86.487 -173.9491
707.905735 86.474 -173.7042
713.035511 86.461 -173.4507
718.202461 86.449 -173.1887
723.406852 86.439 -172.9186
728.648956 86.429 -172.6410
733.929047 86.420 -172.3569
739.247399 86.412 -172.0676
744.604290 86.406 -171.7740
750.000000 86.401 -171.4774
755.434809 86.398 -171.1789
760.909001 86.395 -170.8795
766.422861 86.394 -170.5798
771.976677 86.394 -170.2805
777.570739 86.395 -169.9816
783.205337 86.397 -169.6833
788.880766 86.399 -169.3854
794.597321 86.401 -169.0878
800.355301 86.404 -168.7894
806.155005 86.407 -168.4893
811.996736 86.410 -168.1862
817.880799 86.414 -167.8792
823.807501 86.418 -167.5671
829.777150 86.422 -167.2494
835.790057 86.427 -166.9252
841.846536 86.433 -166.5942
847.946903 86.440 -166.2565
854.091476 86.448 -165.9122
860.280575 86.457 -165.5616
866.514523 86.467 -165.2053
872.793644 86.479 -164.8439
879.118267 86.492 -164.4783
885.488720 86.507 -164.1089
891.905336 86.523 -163.7365
898.368450 86.542 -163.3615
904.878398 86.562 -162.9844
911.435520 86.584 -162.6057
918.040157 86.608 -162.2260
924.692655 86.634 -161.8463
931.393359 86.662 -161.4673
938.142619 86.692 -161.0900
944.940787 86.723 -160.7149
951.788218 86.757 -160.3429
958.685268 86.793 -159.9745
965.632296 86.830 -159.6105
972.629666 86.870 -159.2512
979.677741 86.911 -158.8973
986.776890 86.954 -158.5496
993.927482 86.999 -158.2088
1001.129891 87.046 -157.8757
1008.384491 87.094 -157.5511
1015.691660 87.144 -157.2357
1023.051781 87.195 -156.9300
1030.465236 87.248 -156.6343
1037.932411 87.302 -156.3492
1045.453698 87.357 -156.0747
1053.029486 87.414 -155.8113
1060.660172 87.471 -155.5593
1068.346153 87.529 -155.3190
1076.087829 87.588 -155.0902
1083.885605 87.648 -154.8733
1091.739887 87.708 -154.6683
1099.651084 87.769 -154.4754
1107.619609 87.831 -154.2946
1115.645878 87.892 -154.1258
1123.730308 87.954 -153.9689
1131.873321 88.016 -153.8239
1140.075341 88.077 -153.6907
1148.336797 88.139 -153.5691
1156.658119 88.200 -153.4587
1165.039741 88.261 -153.3594
1173.482099 88.322 -153.2706
1181.985634 88.383 -153.1919
1190.550789 88.443 -153.1229
1199.178011 88.502 -153.0630
1207.867749 88.561 -153.0118
1216.620457 88.620 -152.9688
1225.436590 88.677 -152.9333
1234.316609 88.734 -152.9050
1243.260976 88.791 -152.8834
1252.270157 88.846 -152.8677
1261.344623 88.901 -152.8574
1270.484846 88.954 -152.8519
1279.691303 89.007 -152.8506
1288.964474 89.059 -152.8531
1298.304842 89.110 -152.8587
1307.712894 89.161 -152.8671
1317.189120 89.210 -152.8778
1326.734016 89.259 -152.8909
1336.348077 89.307 -152.9064
1346.031806 89.354 -152.9246
1355.785708 89.401 -152.9447
1365.610290 89.447 -152.9662
1375.506065 89.492 -152.9881
1385.473549 89.538 -153.0100
1395.513261 89.582 -153.0316
1405.625726 89.626 -153.0527
1415.811469 89.670 -153.0732
1426.071023 89.714 -153.0929
1436.404921 89.757 -153.1118
1446.813703 89.800 -153.1302
1457.297912 89.843 -153.1481
1467.858093 89.886 -153.1654
1478.494798 89.928 -153.1821
1489.208581 89.971 -153.1978
1500.000000 90.013 -153.2126
1510.869618 90.056 -153.2264
1521.818002 90.099 -153.2396
1532.845723 90.141 -153.2521
1543.953355 90.184 -153.2644
1555.141477 90.227 -153.2765
1566.410674 90.271 -153.2885
1577.761531 90.314 -153.3005
1589.194642 90.358 -153.3127
1600.710601 90.402 -153.3249
1612.310010 90.446 -153.3372
1623.993473 90.491 -153.3497
1635.761599 90.536 -153.3625
1647.615002 90.581 -153.3759
1659.554299 90.627 -153.3898
1671.580114 90.673 -153.4044
1683.693072 90.720 -153.4197
1695.893807 90.767 -153.4357
1708.182952 90.814 -153.4524
1720.561150 90.862 -153.4698
1733.029045 90.910 -153.4880
1745.587288 90.959 -153.5073
1758.236533 91.009 -153.5276
1770.977440 91.059 -153.5494
1783.810673 91.109 -153.5726
1796.736900 91.161 -153.5977
1809.756796 91.212 -153.6246
1822.871040 91.265 -153.6536
1836.080315 91.318 -153.6846
1849.385310 91.373 -153.7177
1862.786718 91.428 -153.7532
1876.285239 91.483 -153.7915
1889.881575 91.540 -153.8330
1903.576436 91.598 -153.8781
1917.370535 91.656 -153.9270
1931.264593 91.716 -153.9802
1945.259332 91.776 -154.0380
1959.355483 91.837 -154.1007
1973.553781 91.900 -154.1686
1987.854965 91.963 -154.2421
2002.259781 92.027 -154.3215
2016.768981 92.092 -154.4076
2031.383320 92.159 -154.5009
2046.103561 92.226 -154.6018
2060.930471 92.294 -154.7113
2075.864823 92.363 -154.8298
2090.907395 92.433 -154.9577
2106.058972 92.504 -155.0955
2121.320344 92.576 -155.2437
2136.692305 92.649 -155.4027
2152.175658 92.722 -155.5729
2167.771210 92.797 -155.7548
2183.479774 92.872 -155.9487
2199.302169 92.949 -156.1554
2215.239219 93.025 -156.3754
2231.291755 93.103 -156.6093
2247.460615 93.181 -156.8579
2263.746641 93.260 -157.1217
2280.150683 93.339 -157.4012
2296.673595 93.418 -157.6971
2313.316238 93.498 -158.0099
2330.079481 93.578 -158.3402
2346.964198 93.658 -158.6887
2363.971268 93.739 -159.0560
2381.101578 93.819 -159.4426
2398.356022 93.898 -159.8491
2415.735498 93.978 -160.2759
2433.240913 94.057 -160.7236
2450.873180 94.135 -161.1924
2468.633217 94.213 -161.6827
2486.521951 94.289 -162.1948
2504.540314 94.364 -162.7289
2522.689246 94.438 -163.2852
2540.969692 94.510 -163.8636
2559.382606 94.580 -164.4646
2577.928947 94.649 -165.0880
2596.609683 94.715 -165.7339
2615.425787 94.779 -166.4021
2634.378241 94.840 -167.0925
2653.468031 94.898 -167.8046
2672.696154 94.953 -168.5378
2692.063613 95.004 -169.2913
2711.571415 95.051 -170.0641
2731.220579 95.095 -170.8550
2751.012130 95.134 -171.6628
2770.947098 95.169 -172.4862
2791.026522 95.200 -173.3235
2811.251451 95.225 -174.1732
2831.622938 95.246 -175.0334
2852.142045 95.261 -175.9023
2872.809842 95.271 -176.7781
2893.627406 95.276 -177.6581
2914.595823 95.276 -178.5404
2935.716186 95.270 -179.4225
2956.989596 95.259 179.6981
2978.417161 95.243 178.8234
3000.000000 95.221 177.9559
3021.739237 95.194 177.0975
3043.636005 95.163 176.2502
3065.691446 95.126 175.4159
3087.906710 95.085 174.5964
3110.282955 95.040 173.7933
3132.821347 94.990 173.0079
3155.523062 94.937 172.2418
3178.389283 94.880 171.4962
3201.421202 94.819 170.7723
3224.620020 94.755 170.0718
3247.986946 94.689 169.3959
3271.523198 94.620 168.7460
3295.230004 94.549 168.1234
3319.108599 94.476 167.5288
3343.160228 94.402 166.9630
3367.386145 94.327 166.4261
3391.787613 94.253 165.9177
3416.365904 94.179 165.4360
3441.122300 94.107 164.9787
3466.058091 94.037 164.5419
3491.174576 93.969 164.1205
3516.473066 93.903 163.7089
3541.954880 93.840 163.3013
3567.621345 93.779 162.8926
3593.473800 93.720 162.4789
3619.513592 93.661 162.0580
3645.742080 93.602 161.6297
3672.160630 93.542 161.1951
3698.770620 93.481 160.7563
3725.573436 93.419 160.3160
3752.570477 93.355 159.8766
3779.763150 93.290 159.4403
3807.152872 93.223 159.0084
3834.741071 93.155 158.5817
3862.529185 93.086 158.1602
3890.518664 93.016 157.7435
3918.710966 92.945 157.3309
3947.107561 92.873 156.9213
3975.709929 92.800 156.5137
4004.519563 92.726 156.1067
4033.537962 92.651 155.6996
4062.766641 92.574 155.2916
4092.207123 92.496 154.8823
4121.860942 92.415 154.4713
4151.729646 92.333 154.0589
4181.814790 92.247 153.6458
4212.117944 92.158 153.2327
4242.640687 92.066 152.8217
4273.384610 91.970 152.4148
4304.351317 91.869 152.0151
4335.542421 91.764 151.6265
4366.959549 91.654 151.2532
4398.604338 91.539 150.9003
4430.478438 91.419 150.5735
4462.583511 91.294 150.2786
4494.921231 91.165 150.0218
4527.493283 91.033 149.8085
4560.301365 90.898 149.6432
4593.347189 90.761 149.5288
4626.632476 90.625 149.4662
4660.158962 90.490 149.4539
4693.928395 90.357 149.4879
4727.942535 90.227 149.5625
4762.203156 90.102 149.6709
4796.712043 89.980 149.8059
4831.470996 89.864 149.9607
4866.481826 89.751 150.1292
4901.746360 89.643 150.3064
4937.266434 89.538 150.4885
4973.043902 89.437 150.6724
5009.080628 89.338 150.8559
5045.378492 89.241 151.0377
5081.939384 89.146 151.2169
5118.765212 89.052 151.3929
5155.857894 88.958 151.5659
5193.219366 88.865 151.7363
5230.851574 88.771 151.9053
5268.756481 88.677 152.0745
5306.936062 88.583 152.2460
5345.392309 88.486 152.4221
5384.127225 88.389 152.6054
5423.142830 88.290 152.7988
5462.441159 88.189 153.0054
5502.024259 88.087 153.2277
5541.894195 87.982 153.4689
5582.053045 87.876 153.7317
5622.502902 87.769 154.0188
5663.245876 87.660 154.3328
5704.284090 87.550 154.6763
5745.619684 87.439 155.0519
5787.254813 87.327 155.4617
5829.191647 87.216 155.9080
5871.432373 87.104 156.3923
5913.979192 86.994 156.9164
5956.834323 86.884 157.4813
6000.000000 86.776 158.0882
6043.478473 86.670 158.7380
6087.272010 86.566 159.4311
6131.382892 86.465 160.1676
6175.813420 86.369 160.9474
6220.565910 86.276 161.7701
6265.642695 86.188 162.6353
6311.046124 86.106 163.5419
6356.778566 86.030 164.4890
6402.842404 85.960 165.4751
6449.240040 85.898 166.4983
6495.973891 85.843 167.5566
6543.046396 85.797 168.6479
6590.460007 85.760 169.7697
6638.217197 85.732 170.9192
6686.320456 85.715 172.0940
6734.772290 85.709 173.2912
6783.575226 85.715 174.5074
6832.731809 85.733 175.7391
6882.244600 85.765 176.9814
6932.116181 85.812 178.2289
6982.349153 85.874 179.4747
7032.946133 85.952 -179.2891
7083.909760 86.047 -178.0717
7135.242690 86.160 -176.8843
7186.947600 86.292 -175.7403
7239.027185 86.443 -174.6545
7291.484160 86.614 -173.6442
7344.321260 86.804 -172.7277
7397.541239 87.014 -171.9241
7451.146872 87.241 -171.2526
7505.140954 87.485 -170.7313
7559.526299 87.745 -170.3785
7614.305743 88.020 -170.2159
7669.482141 88.308 -170.2709
7725.058371 88.605 -170.5764
7781.037328 88.907 -171.1649
7837.421932 89.206 -172.0626
7894.215122 89.494 -173.2863
7951.419859 89.761 -174.8399
8009.039125 89.998 -176.7135
8067.075924 90.194 -178.8810
8125.533282 90.339 178.7001
8184.414245 90.425 176.0890
8243.721885 90.445 173.3590
8303.459292 90.397 170.5945
8363.629581 90.278 167.8864
8424.235888 90.092 165.3264
8485.281374 89.845 163.0013
8546.769221 89.545 160.9869
8608.702634 89.205 159.3422
8671.084842 88.839 158.1019
8733.919097 88.464 157.2698
8797.208675 88.095 156.8116
8860.956876 87.747 156.6539
8925.167022 87.427 156.6939
8989.842461 87.135 156.8249
9054.986566 86.863 156.9708
9120.602731 86.596 157.1134
9186.694378 86.324 157.2944
9253.264952 86.040 157.5923
9320.317925 85.746 158.0891
9387.856790 85.447 158.8435
9455.885071 85.156 159.8799
9524.406312 84.883 161.1892
9593.424086 84.639 162.7371
9662.941992 84.432 164.4720
9732.963653 84.267 166.3347
9803.492719 84.149 168.2629
9874.532869 84.079 170.1956
9946.087805 84.054 172.0742
10018.161257 84.075 173.8433
10090.756983 84.136 175.4520
10163.878768 84.232 176.8533
10237.530423 84.359 178.0062
10311.715789 84.507 178.8766
10386.438732 84.670 179.4402
10461.703149 84.837 179.6847
10537.512962 84.999 179.6112
10613.872125 85.146 179.2342
10690.784618 85.271 178.5800
10768.254450 85.366 177.6845
10846.285661 85.426 176.5913
10924.882318 85.445 175.3484
11004.048518 85.420 174.0059
11083.788390 85.351 172.6138
11164.106090 85.236 171.2213
11245.005805 85.075 169.8757
11326.491752 84.871 168.6229
11408.568180 84.625 167.5078
11491.239368 84.339 166.5747
11574.509626 84.018 165.8669
11658.383294 83.667 165.4255
11742.864745 83.293 165.2852
11827.958384 82.903 165.4707
11913.668646 82.507 165.9918
12000.000000 82.113 166.8410
12086.956947 81.730 167.9963
12174.544019 81.362 169.4288
12262.765784 81.013 171.1120
12351.626840 80.688 173.0267
12441.131819 80.387 175.1611
12531.285389 80.114 177.5052
12622.092249 79.873 -179.9540
12713.557132 79.668 -177.2361
12805.684808 79.503 -174.3690
12898.480079 79.381 -171.3881
12991.947783 79.306 -168.3348
13086.092792 79.279 -165.2551
13180.920015 79.301 -162.1976
13276.434395 79.372 -159.2126
13372.640911 79.491 -156.3516
13469.544580 79.656 -153.6654
13567.150452 79.862 -151.2035
13665.463617 80.104 -149.0114
13764.489200 80.375 -147.1285
13864.232362 80.668 -145.5858
13964.698305 80.974 -144.4036
14065.892266 81.282 -143.5893
14167.819519 81.584 -143.1362
14270.485380 81.870 -143.0233
14373.895200 82.131 -143.2157
14478.054370 82.361 -143.6660
14582.968320 82.554 -144.3162
14688.642520 82.708 -145.1021
14795.082478 82.823 -145.9582
14902.293745 82.901 -146.8233
15010.281908 82.948 -147.6458
15119.052599 82.969 -148.3864
15228.611486 82.973 -149.0181
15338.964283 82.966 -149.5262
15450.116741 82.958 -149.9072
15562.074656 82.958 -150.1727
15674.843864 82.973 -150.3530
15788.430244 83.010 -150.4980
15902.839718 83.072 -150.6705
16018.078250 83.159 -150.9348
16134.151848 83.267 -151.3468
16251.066563 83.391 -151.9481
16368.828491 83.525 -152.7674
16487.443769 83.666 -153.8273
16606.918584 83.808 -155.1528
16727.259161 83.946 -156.7742
16848.471777 84.072 -158.7208
16970.562748 84.171 -161.0079
17093.538442 84.231 -163.6235
17217.405268 84.235 -166.5187
17342.169684 84.170 -169.6078
17467.838194 84.028 -172.7761
17594.417350 83.809 -175.8970
17721.913751 83.518 -178.8550
17850.334044 83.171 178.4309
17979.684923 82.784 175.9877
18109.973131 82.377 173.7820
18241.205462 81.963 171.7292
18373.388756 81.545 169.7234
18506.529905 81.116 167.6785
18640.635849 80.661 165.5627
18775.713581 80.163 163.4099
18911.770141 79.610 161.2955
19048.812624 78.999 159.2940
19186.848172 78.335 157.4446
19325.883983 77.629 155.7449
19465.927305 76.897 154.1726
19606.985439 76.168 152.7226
19749.065738 75.491 151.4415
19892.175609 74.949 150.4431
20036.322514 74.642 149.8837
