* Measurement data measured by REW V5.31.3
* Source: Headset (2- CX31993 HIFI AUDIO), MICROPHONE (Master Volume), R, volume: 0.250
* Format: 256k Log Swept Sine, 1 sweep at -12.0 dBFS with no timing reference
* Dated: 11 9, 24 11:45:05 AM
* REW Settings:
*  C-weighting compensation: Off
*  Target level: 75.0 dB
* Note: ; 
* Measurement: DUNU Kima 2 L
* Smoothing: 1/12 octave
* Frequency Step: 96 ppo
* Start Frequency: 0.36621094 Hz
*
* Freq(Hz) SPL(dB) Phase(degrees)
0.366211 41.808 -25.9272
0.368865 41.810 -25.8790
0.371538 41.813 -25.8076
0.374230 41.816 -25.7199
0.376942 41.821 -25.6213
0.379673 41.825 -25.5160
0.382424 41.829 -25.4067
0.385196 41.834 -25.2952
0.387987 41.839 -25.1822
0.390798 41.844 -25.0684
0.393630 41.849 -24.9539
0.396483 41.854 -24.8387
0.399356 41.858 -24.7230
0.402250 41.863 -24.6066
0.405165 41.868 -24.4895
0.408101 41.874 -24.3716
0.411058 41.879 -24.2527
0.414037 41.884 -24.1329
0.417037 41.889 -24.0119
0.420059 41.894 -23.8896
0.423103 41.899 -23.7661
0.426169 41.905 -23.6410
0.429257 41.910 -23.5143
0.432368 41.915 -23.3859
0.435501 41.921 -23.2556
0.438656 41.926 -23.1234
0.441835 41.932 -22.9889
0.445037 41.937 -22.8521
0.448262 41.943 -22.7129
0.451510 41.948 -22.5711
0.454782 41.954 -22.4264
0.458077 41.960 -22.2788
0.461397 41.965 -22.1280
0.464740 41.971 -21.9739
0.468108 41.977 -21.8163
0.471500 41.983 -21.6549
0.474917 41.989 -21.4897
0.478358 41.995 -21.3202
0.481825 42.001 -21.1465
0.485316 42.007 -20.9681
0.488833 42.013 -20.7850
0.492375 42.019 -20.5968
0.495943 42.025 -20.4034
0.499537 42.031 -20.2044
0.503157 42.037 -19.9997
0.506803 42.044 -19.7890
0.510475 42.050 -19.5719
0.514175 42.056 -19.3483
0.517900 42.063 -19.1178
0.521653 42.069 -18.8803
0.525434 42.076 -18.6353
0.529241 42.082 -18.3827
0.533076 42.089 -18.1221
0.536939 42.096 -17.8533
0.540830 42.102 -17.5759
0.544749 42.109 -17.2896
0.548696 42.116 -16.9943
0.552673 42.123 -16.6895
0.556677 42.130 -16.3750
0.560711 42.137 -16.0505
0.564774 42.144 -15.7158
0.568867 42.151 -15.3705
0.572989 42.158 -15.0144
0.577141 42.165 -14.6473
0.581324 42.172 -14.2688
0.585536 42.179 -13.8789
0.589779 42.187 -13.4772
0.594053 42.194 -13.0636
0.598358 42.202 -12.6379
0.602694 42.209 -12.1999
0.607061 42.217 -11.7496
0.611460 42.224 -11.2868
0.615891 42.232 -10.8115
0.620354 42.239 -10.3237
0.624849 42.247 -9.8233
0.629377 42.255 -9.3104
0.633938 42.263 -8.7852
0.638532 42.271 -8.2476
0.643159 42.279 -7.6980
0.647819 42.287 -7.1365
0.652514 42.295 -6.5634
0.657242 42.303 -5.9790
0.662005 42.311 -5.3837
0.666802 42.320 -4.7780
0.671634 42.328 -4.1624
0.676501 42.336 -3.5373
0.681403 42.345 -2.9033
0.686341 42.354 -2.2612
0.691314 42.362 -1.6115
0.696324 42.372 -0.9551
0.701370 42.382 -0.2926
0.706452 42.393 0.3751
0.711571 42.407 1.0473
0.716728 42.423 1.7234
0.721921 42.446 2.4027
0.727153 42.476 3.0848
0.732422 42.516 3.7695
0.737729 42.569 4.4567
0.743075 42.632 5.1465
0.748460 42.706 5.8386
0.753883 42.788 6.5329
0.759346 42.877 7.2288
0.764849 42.971 7.9257
0.770391 43.071 8.6229
0.775974 43.176 9.3195
0.781597 43.285 10.0147
0.787261 43.399 10.7075
0.792966 43.517 11.3972
0.798712 43.639 12.0827
0.804500 43.765 12.7632
0.810329 43.896 13.4377
0.816201 44.030 14.1054
0.822116 44.169 14.7654
0.828073 44.312 15.4168
0.834074 44.458 16.0588
0.840118 44.609 16.6906
0.846206 44.763 17.3113
0.852338 44.921 17.9203
0.858514 45.082 18.5167
0.864735 45.247 19.1000
0.871001 45.416 19.6693
0.877313 45.587 20.2241
0.883670 45.762 20.7639
0.890074 45.940 21.2879
0.896524 46.121 21.7957
0.903020 46.305 22.2868
0.909564 46.492 22.7608
0.916155 46.681 23.2173
0.922794 46.873 23.6558
0.929481 47.066 24.0760
0.936216 47.262 24.4776
0.943000 47.460 24.8604
0.949834 47.660 25.2240
0.956717 47.861 25.5684
0.963649 48.064 25.8933
0.970632 48.268 26.1985
0.977666 48.472 26.4839
0.984750 48.678 26.7495
0.991886 48.884 26.9952
0.999074 49.090 27.2210
1.006314 49.296 27.4267
1.013606 49.502 27.6126
1.020951 49.708 27.7784
1.028349 49.912 27.9245
1.035801 50.116 28.0508
1.043307 50.318 28.1575
1.050867 50.519 28.2448
1.058482 50.718 28.3132
1.066152 50.914 28.3633
1.073878 51.109 28.3958
1.081660 51.301 28.4123
1.089498 51.492 28.4145
1.097393 51.681 28.4049
1.105345 51.868 28.3865
1.113355 52.055 28.3619
1.121423 52.243 28.3333
1.129549 52.430 28.3022
1.137734 52.618 28.2691
1.145979 52.806 28.2343
1.154283 52.995 28.1977
1.162647 53.185 28.1589
1.171072 53.376 28.1175
1.179558 53.567 28.0730
1.188106 53.759 28.0250
1.196715 53.951 27.9729
1.205387 54.144 27.9163
1.214122 54.338 27.8548
1.222920 54.532 27.7879
1.231782 54.726 27.7152
1.240708 54.921 27.6364
1.249699 55.117 27.5510
1.258754 55.313 27.4588
1.267876 55.509 27.3593
1.277063 55.705 27.2522
1.286318 55.901 27.1373
1.295639 56.098 27.0142
1.305027 56.295 26.8827
1.314484 56.491 26.7424
1.324009 56.688 26.5930
1.333604 56.885 26.4344
1.343268 57.081 26.2662
1.353002 57.277 26.0883
1.362806 57.473 25.9002
1.372681 57.669 25.7019
1.382628 57.864 25.4931
1.392647 58.059 25.2737
1.402739 58.253 25.0434
1.412904 58.446 24.8023
1.423142 58.639 24.5505
1.433455 58.831 24.2883
1.443843 59.022 24.0164
1.454305 59.213 23.7359
1.464844 59.402 23.4483
1.475459 59.590 23.1556
1.486150 59.777 22.8593
1.496920 59.963 22.5610
1.507767 60.148 22.2615
1.518693 60.331 21.9611
1.529698 60.514 21.6601
1.540783 60.695 21.3582
1.551948 60.876 21.0551
1.563194 61.055 20.7507
1.574521 61.234 20.4443
1.585931 61.411 20.1357
1.597423 61.588 19.8245
1.608999 61.763 19.5101
1.620658 61.938 19.1923
1.632402 62.112 18.8706
1.644232 62.286 18.5446
1.656146 62.458 18.2140
1.668147 62.630 17.8782
1.680235 62.802 17.5369
1.692411 62.973 17.1898
1.704675 63.143 16.8364
1.717028 63.313 16.4764
1.729470 63.483 16.1094
1.742003 63.652 15.7350
1.754626 63.822 15.3530
1.767341 63.991 14.9630
1.780147 64.160 14.5649
1.793047 64.329 14.1587
1.806040 64.498 13.7445
1.819128 64.667 13.3227
1.832310 64.835 12.8942
1.845587 65.003 12.4598
1.858961 65.170 12.0206
1.872432 65.336 11.5776
1.886001 65.502 11.1313
1.899667 65.666 10.6824
1.913433 65.829 10.2311
1.927299 65.991 9.7775
1.941265 66.153 9.3220
1.955332 66.313 8.8644
1.969501 66.472 8.4049
1.983773 66.631 7.9433
1.998148 66.789 7.4796
2.012627 66.946 7.0137
2.027212 67.102 6.5455
2.041902 67.257 6.0748
2.056698 67.412 5.6015
2.071602 67.566 5.1253
2.086614 67.720 4.6460
2.101734 67.874 4.1634
2.116964 68.027 3.6773
2.132304 68.179 3.1873
2.147756 68.332 2.6933
2.163320 68.484 2.1950
2.178996 68.635 1.6922
2.194786 68.786 1.1849
2.210690 68.937 0.6732
2.226710 69.086 0.1572
2.242845 69.235 -0.3627
2.259098 69.383 -0.8861
2.275468 69.530 -1.4128
2.291957 69.676 -1.9422
2.308566 69.820 -2.4741
2.325295 69.964 -3.0082
2.342145 70.107 -3.5441
2.359117 70.249 -4.0817
2.376212 70.390 -4.6207
2.393431 70.531 -5.1611
2.410775 70.670 -5.7026
2.428244 70.809 -6.2452
2.445840 70.948 -6.7890
2.463564 71.085 -7.3338
2.481416 71.222 -7.8798
2.499397 71.359 -8.4271
2.517509 71.495 -8.9760
2.535752 71.631 -9.5268
2.554127 71.766 -10.0800
2.572635 71.900 -10.6359
2.591277 72.033 -11.1949
2.610055 72.166 -11.7573
2.628968 72.297 -12.3229
2.648019 72.428 -12.8916
2.667208 72.557 -13.4630
2.686535 72.686 -14.0367
2.706003 72.813 -14.6121
2.725612 72.940 -15.1888
2.745363 73.066 -15.7663
2.765257 73.190 -16.3443
2.785295 73.315 -16.9224
2.805478 73.438 -17.5001
2.825808 73.560 -18.0773
2.846285 73.682 -18.6539
2.866910 73.804 -19.2297
2.887685 73.925 -19.8050
2.908611 74.045 -20.3801
2.929688 74.164 -20.9556
2.950917 74.283 -21.5321
2.972301 74.400 -22.1102
2.993839 74.517 -22.6901
3.015534 74.633 -23.2719
3.037386 74.748 -23.8554
3.059396 74.861 -24.4401
3.081565 74.974 -25.0257
3.103896 75.086 -25.6115
3.126388 75.197 -26.1969
3.149043 75.307 -26.7815
3.171862 75.417 -27.3649
3.194847 75.526 -27.9465
3.217998 75.634 -28.5261
3.241317 75.742 -29.1036
3.264805 75.849 -29.6792
3.288463 75.955 -30.2533
3.312293 76.061 -30.8263
3.336295 76.166 -31.3990
3.360471 76.269 -31.9718
3.384822 76.372 -32.5449
3.409350 76.475 -33.1182
3.434056 76.576 -33.6913
3.458940 76.676 -34.2640
3.484005 76.776 -34.8357
3.509252 76.875 -35.4059
3.534681 76.973 -35.9741
3.560295 77.071 -36.5399
3.586094 77.168 -37.1030
3.612081 77.265 -37.6632
3.638255 77.361 -38.2206
3.664620 77.457 -38.7754
3.691175 77.552 -39.3282
3.717923 77.646 -39.8794
3.744864 77.740 -40.4292
3.772001 77.833 -40.9778
3.799335 77.925 -41.5252
3.826866 78.017 -42.0712
3.854597 78.108 -42.6154
3.882529 78.199 -43.1576
3.910664 78.289 -43.6974
3.939002 78.378 -44.2347
3.967546 78.468 -44.7691
3.996296 78.557 -45.3007
4.025255 78.646 -45.8296
4.054423 78.734 -46.3558
4.083804 78.822 -46.8799
4.113396 78.909 -47.4019
4.143204 78.996 -47.9222
4.173227 79.083 -48.4406
4.203468 79.169 -48.9574
4.233928 79.255 -49.4723
4.264609 79.340 -49.9854
4.295512 79.425 -50.4965
4.326639 79.510 -51.0056
4.357992 79.595 -51.5127
4.389572 79.680 -52.0178
4.421380 79.764 -52.5210
4.453419 79.849 -53.0225
4.485691 79.933 -53.5225
4.518196 80.017 -54.0211
4.550936 80.100 -54.5184
4.583914 80.183 -55.0146
4.617131 80.266 -55.5097
4.650589 80.349 -56.0040
4.684289 80.432 -56.4974
4.718233 80.515 -56.9900
4.752424 80.597 -57.4820
4.786862 80.680 -57.9734
4.821549 80.762 -58.4643
4.856488 80.844 -58.9548
4.891680 80.926 -59.4450
4.927127 81.008 -59.9351
4.962831 81.089 -60.4250
4.998794 81.170 -60.9151
5.035017 81.251 -61.4054
5.071503 81.332 -61.8961
5.108253 81.413 -62.3872
5.145270 81.493 -62.8790
5.182555 81.574 -63.3715
5.220110 81.654 -63.8647
5.257937 81.733 -64.3587
5.296038 81.813 -64.8534
5.334415 81.892 -65.3489
5.373071 81.971 -65.8453
5.412006 82.049 -66.3424
5.451224 82.127 -66.8405
5.490725 82.205 -67.3396
5.530514 82.282 -67.8399
5.570590 82.359 -68.3413
5.610957 82.436 -68.8440
5.651616 82.512 -69.3478
5.692570 82.587 -69.8525
5.733821 82.662 -70.3580
5.775370 82.737 -70.8642
5.817221 82.811 -71.3710
5.859375 82.885 -71.8784
5.901834 82.958 -72.3867
5.944602 83.030 -72.8957
5.987679 83.102 -73.4055
6.031068 83.173 -73.9159
6.074771 83.243 -74.4266
6.118792 83.313 -74.9373
6.163131 83.383 -75.4479
6.207792 83.451 -75.9584
6.252776 83.519 -76.4686
6.298086 83.587 -76.9786
6.343725 83.654 -77.4885
6.389694 83.720 -77.9981
6.435996 83.785 -78.5073
6.482634 83.850 -79.0157
6.529610 83.915 -79.5233
6.576926 83.979 -80.0299
6.624585 84.042 -80.5355
6.672590 84.104 -81.0401
6.720942 84.167 -81.5439
6.769645 84.228 -82.0467
6.818700 84.289 -82.5485
6.868111 84.349 -83.0492
6.917881 84.409 -83.5488
6.968010 84.469 -84.0473
7.018504 84.528 -84.5447
7.069362 84.586 -85.0412
7.120590 84.644 -85.5367
7.172189 84.702 -86.0314
7.224161 84.759 -86.5254
7.276511 84.815 -87.0186
7.329239 84.872 -87.5113
7.382350 84.927 -88.0034
7.435845 84.982 -88.4950
7.489729 85.037 -88.9863
7.544002 85.091 -89.4772
7.598669 85.145 -89.9678
7.653732 85.198 -90.4583
7.709194 85.251 -90.9485
7.765058 85.303 -91.4386
7.821327 85.354 -91.9285
7.878004 85.405 -92.4181
7.935091 85.455 -92.9073
7.992592 85.504 -93.3958
8.050510 85.552 -93.8836
8.108847 85.600 -94.3705
8.167607 85.647 -94.8564
8.226793 85.693 -95.3410
8.286408 85.738 -95.8239
8.346454 85.783 -96.3047
8.406936 85.827 -96.7829
8.467856 85.869 -97.2584
8.529218 85.911 -97.7308
8.591024 85.952 -98.1998
8.653278 85.993 -98.6650
8.715983 86.032 -99.1259
8.779143 86.071 -99.5821
8.842760 86.110 -100.0334
8.906839 86.148 -100.4795
8.971381 86.185 -100.9205
9.036392 86.222 -101.3562
9.101873 86.259 -101.7865
9.167829 86.296 -102.2114
9.234263 86.332 -102.6312
9.301178 86.369 -103.0459
9.368578 86.406 -103.4562
9.436467 86.443 -103.8626
9.504847 86.480 -104.2656
9.573723 86.518 -104.6657
9.643099 86.556 -105.0638
9.712976 86.594 -105.4604
9.783361 86.633 -105.8565
9.854255 86.672 -106.2531
9.925663 86.712 -106.6509
9.997588 86.752 -107.0506
10.070035 86.792 -107.4528
10.143007 86.832 -107.8581
10.216507 86.872 -108.2670
10.290540 86.911 -108.6799
10.365109 86.951 -109.0968
10.440219 86.990 -109.5177
10.515873 87.028 -109.9421
10.592076 87.065 -110.3697
10.668830 87.101 -110.7997
10.746141 87.136 -111.2315
10.824012 87.170 -111.6639
10.902447 87.202 -112.0956
10.981451 87.233 -112.5252
11.061027 87.263 -112.9516
11.141180 87.291 -113.3734
11.221913 87.318 -113.7892
11.303232 87.345 -114.1978
11.385140 87.370 -114.5980
11.467641 87.394 -114.9890
11.550741 87.419 -115.3703
11.634442 87.443 -115.7417
11.718750 87.467 -116.1031
11.803669 87.492 -116.4550
11.889203 87.518 -116.7982
11.975357 87.545 -117.1341
12.062136 87.573 -117.4642
12.149543 87.602 -117.7905
12.237583 87.633 -118.1149
12.326262 87.665 -118.4395
12.415583 87.699 -118.7669
12.505552 87.735 -119.0992
12.596172 87.771 -119.4382
12.687449 87.808 -119.7857
12.779387 87.846 -120.1429
12.871992 87.884 -120.5107
12.965268 87.922 -120.8895
13.059220 87.959 -121.2789
13.153852 87.995 -121.6780
13.249170 88.030 -122.0857
13.345179 88.063 -122.5003
13.441884 88.094 -122.9195
13.539289 88.123 -123.3409
13.637401 88.150 -123.7621
13.736223 88.175 -124.1806
13.835761 88.198 -124.5942
13.936021 88.220 -125.0007
14.037007 88.240 -125.3986
14.138725 88.260 -125.7869
14.241180 88.279 -126.1652
14.344377 88.298 -126.5338
14.448323 88.317 -126.8934
14.553021 88.337 -127.2457
14.658478 88.357 -127.5924
14.764700 88.378 -127.9358
14.871691 88.400 -128.2782
14.979457 88.423 -128.6218
15.088005 88.446 -128.9686
15.197339 88.469 -129.3199
15.307465 88.492 -129.6763
15.418389 88.515 -130.0379
15.530117 88.536 -130.4036
15.642655 88.555 -130.7717
15.756008 88.573 -131.1396
15.870182 88.588 -131.5042
15.985184 88.602 -131.8622
16.101019 88.613 -132.2098
16.217694 88.623 -132.5437
16.335214 88.632 -132.8610
16.453586 88.640 -133.1598
16.572815 88.648 -133.4389
16.692909 88.658 -133.6986
16.813872 88.669 -133.9405
16.935713 88.683 -134.1676
17.058436 88.700 -134.3839
17.182048 88.720 -134.5945
17.306556 88.744 -134.8054
17.431967 88.771 -135.0225
17.558286 88.801 -135.2511
17.685521 88.834 -135.4958
17.813677 88.869 -135.7599
17.942762 88.904 -136.0457
18.072783 88.940 -136.3543
18.203746 88.975 -136.6855
18.335658 89.008 -137.0374
18.468526 89.038 -137.4071
18.602356 89.066 -137.7907
18.737156 89.091 -138.1837
18.872934 89.112 -138.5815
19.009695 89.130 -138.9797
19.147447 89.145 -139.3742
19.286197 89.157 -139.7616
19.425953 89.167 -140.1393
19.566721 89.174 -140.5054
19.708510 89.181 -140.8588
19.851326 89.186 -141.1991
19.995177 89.191 -141.5264
20.140070 89.195 -141.8410
20.286013 89.200 -142.1435
20.433014 89.204 -142.4347
20.581080 89.209 -142.7152
20.730219 89.214 -142.9857
20.880439 89.219 -143.2469
21.031747 89.226 -143.4999
21.184152 89.234 -143.7457
21.337661 89.242 -143.9856
21.492282 89.252 -144.2216
21.648024 89.264 -144.4556
21.804895 89.277 -144.6898
21.962902 89.291 -144.9266
22.122054 89.307 -145.1682
22.282360 89.323 -145.4162
22.443827 89.340 -145.6721
22.606464 89.357 -145.9364
22.770280 89.374 -146.2089
22.935283 89.390 -146.4886
23.101481 89.405 -146.7737
23.268884 89.418 -147.0621
23.437500 89.430 -147.3512
23.607338 89.441 -147.6383
23.778406 89.450 -147.9209
23.950714 89.459 -148.1971
24.124271 89.466 -148.4654
24.299086 89.473 -148.7254
24.475167 89.481 -148.9773
24.652524 89.488 -149.2223
24.831166 89.496 -149.4621
25.011103 89.505 -149.6988
25.192344 89.514 -149.9346
25.374898 89.524 -150.1713
25.558775 89.533 -150.4101
25.743984 89.543 -150.6513
25.930536 89.552 -150.8940
26.118439 89.559 -151.1366
26.307704 89.566 -151.3766
26.498341 89.572 -151.6113
26.690359 89.576 -151.8382
26.883768 89.581 -152.0556
27.078579 89.586 -152.2634
27.274801 89.591 -152.4629
27.472446 89.598 -152.6569
27.671522 89.607 -152.8494
27.872042 89.617 -153.0453
28.074014 89.628 -153.2488
28.277450 89.640 -153.4632
28.482360 89.652 -153.6900
28.688755 89.663 -153.9285
28.896645 89.672 -154.1759
29.106042 89.679 -154.4277
29.316957 89.683 -154.6788
29.529400 89.686 -154.9240
29.743382 89.687 -155.1590
29.958915 89.687 -155.3813
30.176009 89.687 -155.5904
30.394677 89.688 -155.7877
30.614929 89.690 -155.9758
30.836778 89.694 -156.1583
31.060234 89.699 -156.3387
31.285309 89.706 -156.5200
31.512015 89.714 -156.7045
31.740364 89.723 -156.8934
31.970368 89.733 -157.0876
32.202039 89.743 -157.2872
32.435388 89.754 -157.4925
32.670428 89.764 -157.7035
32.907171 89.775 -157.9202
33.145630 89.785 -158.1426
33.385817 89.795 -158.3701
33.627745 89.804 -158.6015
33.871425 89.811 -158.8353
34.116871 89.818 -159.0695
34.364096 89.823 -159.3017
34.613113 89.828 -159.5297
34.863934 89.831 -159.7518
35.116572 89.834 -159.9670
35.371041 89.836 -160.1749
35.627354 89.839 -160.3762
35.885525 89.842 -160.5728
36.145566 89.845 -160.7666
36.407492 89.849 -160.9604
36.671316 89.853 -161.1560
36.937051 89.857 -161.3549
37.204712 89.861 -161.5573
37.474313 89.864 -161.7625
37.745867 89.866 -161.9688
38.019389 89.867 -162.1746
38.294893 89.868 -162.3784
38.572394 89.868 -162.5796
38.851905 89.868 -162.7780
39.133442 89.867 -162.9742
39.417019 89.866 -163.1682
39.702651 89.865 -163.3597
39.990353 89.864 -163.5479
40.280140 89.863 -163.7315
40.572026 89.862 -163.9094
40.866028 89.862 -164.0813
41.162160 89.862 -164.2476
41.460438 89.863 -164.4096
41.760877 89.865 -164.5693
42.063494 89.869 -164.7289
42.368303 89.874 -164.8904
42.675322 89.880 -165.0556
42.984565 89.886 -165.2256
43.296048 89.891 -165.4006
43.609789 89.897 -165.5799
43.925804 89.902 -165.7614
44.244108 89.905 -165.9427
44.564719 89.908 -166.1213
44.887654 89.909 -166.2957
45.212928 89.910 -166.4651
45.540560 89.911 -166.6295
45.870565 89.910 -166.7883
46.202962 89.909 -166.9406
46.537768 89.908 -167.0849
46.875000 89.907 -167.2214
47.214676 89.908 -167.3528
47.556813 89.910 -167.4853
47.901429 89.914 -167.6268
48.248542 89.919 -167.7844
48.598171 89.923 -167.9611
48.950334 89.926 -168.1542
49.305048 89.926 -168.3567
49.662333 89.924 -168.5599
50.022206 89.920 -168.7572
50.384688 89.915 -168.9457
50.749796 89.911 -169.1264
51.117550 89.907 -169.3023
51.487969 89.904 -169.4761
51.861072 89.902 -169.6494
52.236879 89.900 -169.8220
52.615409 89.899 -169.9936
52.996681 89.898 -170.1637
53.380717 89.898 -170.3324
53.767536 89.898 -170.4996
54.157158 89.899 -170.6650
54.549603 89.899 -170.8281
54.944892 89.900 -170.9884
55.343045 89.901 -171.1457
55.744084 89.902 -171.3005
56.148028 89.903 -171.4534
56.554900 89.903 -171.6042
56.964720 89.903 -171.7520
57.377510 89.902 -171.8953
57.793291 89.901 -172.0336
58.212085 89.900 -172.1687
58.633914 89.899 -172.3040
59.058799 89.897 -172.4436
59.486764 89.895 -172.5891
59.917829 89.891 -172.7399
60.352019 89.886 -172.8929
60.789354 89.879 -173.0452
61.229859 89.870 -173.1947
61.673556 89.860 -173.3399
62.120468 89.849 -173.4793
62.570618 89.837 -173.6119
63.024031 89.826 -173.7382
63.480729 89.816 -173.8605
63.940736 89.807 -173.9816
64.404077 89.800 -174.1029
64.870776 89.794 -174.2241
65.340856 89.789 -174.3458
65.814343 89.787 -174.4710
66.291261 89.787 -174.6045
66.771635 89.789 -174.7487
67.255489 89.790 -174.9018
67.742850 89.792 -175.0591
68.233743 89.793 -175.2167
68.728193 89.794 -175.3742
69.226226 89.795 -175.5327
69.727867 89.794 -175.6918
70.233144 89.793 -175.8489
70.742083 89.790 -176.0015
71.254709 89.786 -176.1497
71.771050 89.781 -176.2969
72.291132 89.775 -176.4456
72.814984 89.768 -176.5954
73.342631 89.759 -176.7427
73.874102 89.750 -176.8851
74.409424 89.742 -177.0249
74.948626 89.736 -177.1691
75.491734 89.731 -177.3255
76.038779 89.726 -177.4964
76.589787 89.719 -177.6749
77.144788 89.711 -177.8479
77.703811 89.702 -178.0036
78.266885 89.694 -178.1373
78.834039 89.688 -178.2521
79.405303 89.684 -178.3539
79.980706 89.683 -178.4478
80.560280 89.682 -178.5375
81.144053 89.683 -178.6264
81.732056 89.685 -178.7186
82.324320 89.686 -178.8175
82.920876 89.687 -178.9264
83.521755 89.687 -179.0480
84.126988 89.685 -179.1836
84.736607 89.682 -179.3318
85.350643 89.677 -179.4888
85.969129 89.670 -179.6506
86.592097 89.662 -179.8143
87.219579 89.653 -179.9789
87.851608 89.645 179.8562
88.488217 89.636 179.6910
89.129439 89.626 179.5270
89.775308 89.616 179.3669
90.425856 89.605 179.2133
91.081119 89.594 179.0672
91.741131 89.583 178.9277
92.405925 89.572 178.7933
93.075536 89.561 178.6616
93.750000 89.551 178.5289
94.429351 89.541 178.3907
95.113625 89.531 178.2437
95.802858 89.520 178.0871
96.497085 89.508 177.9248
97.196342 89.494 177.7639
97.900667 89.479 177.6109
98.610096 89.463 177.4688
99.324665 89.446 177.3357
100.044413 89.429 177.2072
100.769376 89.412 177.0794
101.499592 89.393 176.9512
102.235100 89.372 176.8232
102.975938 89.349 176.6975
103.722144 89.324 176.5771
104.473757 89.296 176.4655
105.230817 89.267 176.3665
105.993363 89.236 176.2859
106.761435 89.203 176.2308
107.535072 89.170 176.2087
108.314315 89.138 176.2260
109.099206 89.107 176.2858
109.889783 89.080 176.3865
110.686090 89.058 176.5216
111.488167 89.043 176.6792
112.296056 89.035 176.8439
113.109800 89.036 176.9994
113.929440 89.043 177.1312
114.755020 89.058 177.2280
115.586582 89.077 177.2825
116.424170 89.100 177.2913
117.267827 89.124 177.2551
118.117598 89.147 177.1795
118.973527 89.167 177.0736
119.835658 89.184 176.9474
120.704037 89.198 176.8094
121.578708 89.208 176.6641
122.459718 89.215 176.5116
123.347111 89.219 176.3524
124.240935 89.220 176.1906
125.141236 89.219 176.0329
126.048061 89.217 175.8849
126.961458 89.214 175.7461
127.881473 89.213 175.6069
128.808154 89.212 175.4524
129.741551 89.209 175.2735
130.681712 89.203 175.0746
131.628686 89.190 174.8712
132.582521 89.173 174.6795
133.543269 89.154 174.5070
134.510979 89.133 174.3522
135.485701 89.114 174.2104
136.467486 89.094 174.0765
137.456386 89.076 173.9474
138.452451 89.058 173.8230
139.455735 89.041 173.7027
140.466288 89.024 173.5847
141.484165 89.008 173.4670
142.509418 88.991 173.3498
143.542100 88.973 173.2359
144.582265 88.954 173.1299
145.629968 88.935 173.0355
146.685262 88.916 172.9517
147.748204 88.896 172.8737
148.818849 88.877 172.7971
149.897251 88.858 172.7198
150.983469 88.838 172.6425
152.077557 88.819 172.5690
153.179574 88.800 172.5042
154.289576 88.783 172.4509
155.407622 88.767 172.4090
156.533770 88.753 172.3756
157.668078 88.741 172.3466
158.810606 88.729 172.3171
159.961413 88.718 172.2826
161.120559 88.707 172.2401
162.288105 88.696 172.1877
163.464112 88.685 172.1239
164.648640 88.674 172.0483
165.841752 88.663 171.9637
167.043510 88.652 171.8747
168.253976 88.640 171.7861
169.473213 88.627 171.7015
170.701286 88.613 171.6210
171.938258 88.598 171.5414
173.184194 88.582 171.4576
174.439158 88.566 171.3665
175.703216 88.548 171.2694
176.976434 88.530 171.1716
178.258878 88.511 171.0800
179.550615 88.491 171.0009
180.851713 88.471 170.9386
182.162239 88.452 170.8941
183.482262 88.434 170.8638
184.811850 88.418 170.8419
186.151073 88.403 170.8224
187.500000 88.391 170.8004
188.858702 88.380 170.7716
190.227250 88.371 170.7336
191.605715 88.361 170.6865
192.994169 88.352 170.6328
194.392685 88.342 170.5750
195.801334 88.330 170.5122
197.220191 88.316 170.4418
198.649330 88.298 170.3624
200.088825 88.278 170.2739
201.538751 88.257 170.1752
202.999184 88.235 170.0668
204.470200 88.213 169.9562
205.951875 88.191 169.8563
207.444287 88.169 169.7762
208.947514 88.148 169.7154
210.461634 88.128 169.6657
211.986726 88.108 169.6175
213.522869 88.087 169.5648
215.070144 88.067 169.5078
216.628631 88.045 169.4506
218.198411 88.023 169.3970
219.779567 88.001 169.3483
221.372180 87.977 169.3037
222.976334 87.954 169.2617
224.592112 87.930 169.2209
226.219600 87.907 169.1815
227.858880 87.884 169.1440
229.510039 87.860 169.1088
231.173164 87.837 169.0764
232.848340 87.814 169.0468
234.535655 87.792 169.0194
236.235197 87.769 168.9942
237.947054 87.747 168.9715
239.671317 87.725 168.9504
241.408074 87.703 168.9293
243.157416 87.680 168.9066
244.919435 87.657 168.8834
246.694223 87.635 168.8625
248.481871 87.612 168.8456
250.282473 87.590 168.8322
252.096123 87.567 168.8214
253.922915 87.542 168.8121
255.762945 87.518 168.8028
257.616309 87.493 168.7924
259.483103 87.468 168.7807
261.363424 87.443 168.7685
263.257372 87.419 168.7573
265.165043 87.395 168.7488
267.086538 87.371 168.7454
269.021957 87.347 168.7480
270.971401 87.322 168.7558
272.934972 87.297 168.7666
274.912771 87.271 168.7783
276.904902 87.246 168.7887
278.911469 87.221 168.7972
280.932577 87.197 168.8052
282.968330 87.172 168.8152
285.018835 87.148 168.8301
287.084199 87.123 168.8512
289.164530 87.098 168.8779
291.259935 87.073 168.9084
293.370525 87.049 168.9411
295.496408 87.024 168.9752
297.637697 86.999 169.0107
299.794503 86.975 169.0473
301.966937 86.950 169.0847
304.155114 86.925 169.1223
306.359147 86.900 169.1593
308.579152 86.874 169.1953
310.815244 86.849 169.2296
313.067539 86.823 169.2621
315.336156 86.797 169.2930
317.621211 86.771 169.3234
319.922826 86.746 169.3557
322.241118 86.720 169.3932
324.576210 86.693 169.4387
326.928223 86.668 169.4936
329.297280 86.642 169.5571
331.683504 86.618 169.6265
334.087019 86.593 169.6980
336.507952 86.569 169.7691
338.946427 86.545 169.8389
341.402572 86.521 169.9076
343.876516 86.496 169.9767
346.368387 86.471 170.0473
348.878315 86.447 170.1200
351.406431 86.422 170.1951
353.952867 86.397 170.2731
356.517756 86.372 170.3538
359.101230 86.346 170.4366
361.703426 86.320 170.5208
364.324478 86.295 170.6060
366.964523 86.269 170.6920
369.623699 86.244 170.7795
372.302145 86.218 170.8688
375.000000 86.193 170.9605
377.717405 86.168 171.0547
380.454501 86.142 171.1515
383.211431 86.117 171.2507
385.988339 86.093 171.3524
388.785369 86.068 171.4566
391.602668 86.044 171.5634
394.440383 86.020 171.6726
397.298660 85.996 171.7839
400.177650 85.972 171.8971
403.077502 85.948 172.0117
405.998368 85.924 172.1275
408.940400 85.900 172.2451
411.903750 85.876 172.3652
414.888575 85.852 172.4879
417.895028 85.827 172.6129
420.923268 85.803 172.7397
423.973452 85.779 172.8681
427.045738 85.755 172.9982
430.140287 85.731 173.1311
433.257261 85.707 173.2680
436.396822 85.683 173.4095
439.559133 85.660 173.5552
442.744360 85.636 173.7035
445.952668 85.613 173.8534
449.184225 85.590 174.0044
452.439199 85.567 174.1569
455.717760 85.543 174.3110
459.020079 85.520 174.4672
462.346327 85.497 174.6259
465.696680 85.475 174.7875
469.071310 85.452 174.9523
472.470394 85.430 175.1204
475.894109 85.408 175.2917
479.342634 85.386 175.4660
482.816148 85.364 175.6436
486.314833 85.342 175.8250
489.838871 85.320 176.0108
493.388445 85.298 176.2006
496.963741 85.276 176.3932
500.564945 85.254 176.5880
504.192245 85.233 176.7844
507.845830 85.211 176.9825
511.525890 85.190 177.1824
515.232618 85.170 177.3852
518.966206 85.150 177.5923
522.726849 85.131 177.8049
526.514743 85.114 178.0216
530.330086 85.098 178.2394
534.173076 85.083 178.4547
538.043915 85.068 178.6645
541.942803 85.053 178.8671
545.869944 85.037 179.0630
549.825542 85.020 179.2543
553.809805 85.002 179.4450
557.822939 84.982 179.6395
561.865154 84.962 179.8412
565.936660 84.941 -179.9477
570.037671 84.920 -179.7272
574.168399 84.899 -179.4981
578.329060 84.878 -179.2616
582.519870 84.858 -179.0187
586.741049 84.838 -178.7695
590.992817 84.819 -178.5141
595.275394 84.800 -178.2523
599.589005 84.782 -177.9843
603.933874 84.765 -177.7110
608.310228 84.748 -177.4335
612.718295 84.732 -177.1528
617.158304 84.717 -176.8698
621.630488 84.702 -176.5849
626.135079 84.688 -176.2983
630.672311 84.675 -176.0100
635.242423 84.661 -175.7201
639.845651 84.649 -175.4286
644.482237 84.636 -175.1351
649.152421 84.624 -174.8389
653.856447 84.612 -174.5396
658.594560 84.601 -174.2364
663.367008 84.590 -173.9290
668.174039 84.579 -173.6174
673.015903 84.569 -173.3015
677.892854 84.560 -172.9817
682.805145 84.550 -172.6579
687.753032 84.542 -172.3300
692.736774 84.534 -171.9982
697.756631 84.527 -171.6627
702.812863 84.519 -171.3236
707.905735 84.513 -170.9809
713.035511 84.507 -170.6341
718.202461 84.501 -170.2831
723.406852 84.496 -169.9277
728.648956 84.492 -169.5684
733.929047 84.489 -169.2057
739.247399 84.486 -168.8397
744.604290 84.485 -168.4705
750.000000 84.484 -168.0981
755.434809 84.484 -167.7225
760.909001 84.485 -167.3437
766.422861 84.487 -166.9619
771.976677 84.490 -166.5771
777.570739 84.494 -166.1885
783.205337 84.498 -165.7949
788.880766 84.504 -165.3954
794.597321 84.510 -164.9902
800.355301 84.517 -164.5807
806.155005 84.526 -164.1681
811.996736 84.535 -163.7531
817.880799 84.546 -163.3359
823.807501 84.558 -162.9164
829.777150 84.571 -162.4946
835.790057 84.586 -162.0704
841.846536 84.601 -161.6441
847.946903 84.619 -161.2159
854.091476 84.637 -160.7861
860.280575 84.657 -160.3550
866.514523 84.678 -159.9229
872.793644 84.701 -159.4903
879.118267 84.725 -159.0574
885.488720 84.751 -158.6246
891.905336 84.778 -158.1923
898.368450 84.807 -157.7604
904.878398 84.837 -157.3293
911.435520 84.869 -156.8994
918.040157 84.903 -156.4713
924.692655 84.938 -156.0455
931.393359 84.974 -155.6221
938.142619 85.012 -155.2014
944.940787 85.052 -154.7839
951.788218 85.093 -154.3700
958.685268 85.136 -153.9599
965.632296 85.181 -153.5541
972.629666 85.227 -153.1531
979.677741 85.274 -152.7576
986.776890 85.323 -152.3685
993.927482 85.373 -151.9861
1001.129891 85.425 -151.6108
1008.384491 85.478 -151.2428
1015.691660 85.531 -150.8821
1023.051781 85.586 -150.5291
1030.465236 85.643 -150.1842
1037.932411 85.700 -149.8477
1045.453698 85.758 -149.5202
1053.029486 85.818 -149.2018
1060.660172 85.878 -148.8923
1068.346153 85.940 -148.5917
1076.087829 86.002 -148.2999
1083.885605 86.065 -148.0171
1091.739887 86.128 -147.7433
1099.651084 86.192 -147.4787
1107.619609 86.256 -147.2231
1115.645878 86.321 -146.9767
1123.730308 86.386 -146.7395
1131.873321 86.451 -146.5114
1140.075341 86.516 -146.2925
1148.336797 86.582 -146.0827
1156.658119 86.647 -145.8818
1165.039741 86.713 -145.6895
1173.482099 86.779 -145.5056
1181.985634 86.845 -145.3295
1190.550789 86.911 -145.1608
1199.178011 86.977 -144.9993
1207.867749 87.043 -144.8446
1216.620457 87.109 -144.6965
1225.436590 87.174 -144.5547
1234.316609 87.240 -144.4189
1243.260976 87.305 -144.2889
1252.270157 87.370 -144.1642
1261.344623 87.434 -144.0444
1270.484846 87.498 -143.9292
1279.691303 87.562 -143.8186
1288.964474 87.626 -143.7124
1298.304842 87.690 -143.6104
1307.712894 87.753 -143.5123
1317.189120 87.816 -143.4179
1326.734016 87.879 -143.3271
1336.348077 87.941 -143.2396
1346.031806 88.004 -143.1553
1355.785708 88.067 -143.0739
1365.610290 88.129 -142.9951
1375.506065 88.192 -142.9185
1385.473549 88.254 -142.8438
1395.513261 88.316 -142.7709
1405.625726 88.378 -142.6998
1415.811469 88.441 -142.6308
1426.071023 88.503 -142.5641
1436.404921 88.566 -142.4996
1446.813703 88.629 -142.4374
1457.297912 88.692 -142.3772
1467.858093 88.755 -142.3191
1478.494798 88.818 -142.2628
1489.208581 88.882 -142.2083
1500.000000 88.946 -142.1557
1510.869618 89.011 -142.1050
1521.818002 89.076 -142.0565
1532.845723 89.141 -142.0103
1543.953355 89.207 -141.9665
1555.141477 89.274 -141.9251
1566.410674 89.341 -141.8865
1577.761531 89.409 -141.8510
1589.194642 89.478 -141.8193
1600.710601 89.547 -141.7922
1612.310010 89.618 -141.7707
1623.993473 89.689 -141.7556
1635.761599 89.760 -141.7474
1647.615002 89.832 -141.7463
1659.554299 89.905 -141.7524
1671.580114 89.978 -141.7657
1683.693072 90.051 -141.7859
1695.893807 90.125 -141.8128
1708.182952 90.199 -141.8460
1720.561150 90.273 -141.8853
1733.029045 90.347 -141.9307
1745.587288 90.422 -141.9824
1758.236533 90.497 -142.0406
1770.977440 90.573 -142.1057
1783.810673 90.648 -142.1784
1796.736900 90.725 -142.2589
1809.756796 90.801 -142.3478
1822.871040 90.879 -142.4452
1836.080315 90.956 -142.5513
1849.385310 91.034 -142.6664
1862.786718 91.112 -142.7907
1876.285239 91.191 -142.9247
1889.881575 91.270 -143.0687
1903.576436 91.349 -143.2231
1917.370535 91.428 -143.3882
1931.264593 91.508 -143.5643
1945.259332 91.587 -143.7518
1959.355483 91.667 -143.9511
1973.553781 91.747 -144.1626
1987.854965 91.826 -144.3866
2002.259781 91.906 -144.6234
2016.768981 91.985 -144.8734
2031.383320 92.064 -145.1370
2046.103561 92.142 -145.4145
2060.930471 92.220 -145.7061
2075.864823 92.298 -146.0119
2090.907395 92.375 -146.3321
2106.058972 92.450 -146.6668
2121.320344 92.525 -147.0162
2136.692305 92.599 -147.3808
2152.175658 92.671 -147.7605
2167.771210 92.743 -148.1554
2183.479774 92.812 -148.5652
2199.302169 92.880 -148.9897
2215.239219 92.946 -149.4286
2231.291755 93.010 -149.8814
2247.460615 93.072 -150.3476
2263.746641 93.131 -150.8264
2280.150683 93.187 -151.3171
2296.673595 93.241 -151.8186
2313.316238 93.292 -152.3302
2330.079481 93.340 -152.8504
2346.964198 93.384 -153.3779
2363.971268 93.425 -153.9106
2381.101578 93.463 -154.4464
2398.356022 93.497 -154.9830
2415.735498 93.527 -155.5175
2433.240913 93.554 -156.0470
2450.873180 93.576 -156.5682
2468.633217 93.596 -157.0772
2486.521951 93.613 -157.5704
2504.540314 93.627 -158.0445
2522.689246 93.640 -158.4968
2540.969692 93.653 -158.9260
2559.382606 93.666 -159.3325
2577.928947 93.681 -159.7194
2596.609683 93.700 -160.0927
2615.425787 93.723 -160.4616
2634.378241 93.750 -160.8379
2653.468031 93.781 -161.2343
2672.696154 93.816 -161.6629
2692.063613 93.853 -162.1330
2711.571415 93.888 -162.6497
2731.220579 93.922 -163.2128
2751.012130 93.950 -163.8173
2770.947098 93.971 -164.4542
2791.026522 93.985 -165.1126
2811.251451 93.992 -165.7808
2831.622938 93.990 -166.4480
2852.142045 93.981 -167.1052
2872.809842 93.966 -167.7451
2893.627406 93.945 -168.3624
2914.595823 93.919 -168.9537
2935.716186 93.889 -169.5168
2956.989596 93.856 -170.0506
2978.417161 93.820 -170.5550
3000.000000 93.783 -171.0302
3021.739237 93.744 -171.4770
3043.636005 93.704 -171.8965
3065.691446 93.664 -172.2901
3087.906710 93.624 -172.6599
3110.282955 93.585 -173.0078
3132.821347 93.546 -173.3362
3155.523062 93.508 -173.6473
3178.389283 93.470 -173.9432
3201.421202 93.434 -174.2257
3224.620020 93.399 -174.4962
3247.986946 93.364 -174.7560
3271.523198 93.331 -175.0059
3295.230004 93.298 -175.2466
3319.108599 93.266 -175.4787
3343.160228 93.235 -175.7029
3367.386145 93.204 -175.9200
3391.787613 93.175 -176.1309
3416.365904 93.147 -176.3368
3441.122300 93.120 -176.5393
3466.058091 93.093 -176.7402
3491.174576 93.068 -176.9416
3516.473066 93.042 -177.1458
3541.954880 93.017 -177.3548
3567.621345 92.991 -177.5703
3593.473800 92.963 -177.7917
3619.513592 92.932 -178.0155
3645.742080 92.897 -178.2321
3672.160630 92.857 -178.4249
3698.770620 92.813 -178.5715
3725.573436 92.767 -178.6510
3752.570477 92.726 -178.6575
3779.763150 92.694 -178.6095
3807.152872 92.673 -178.5427
3834.741071 92.662 -178.4902
3862.529185 92.658 -178.4691
3890.518664 92.659 -178.4815
3918.710966 92.662 -178.5220
3947.107561 92.667 -178.5840
3975.709929 92.674 -178.6633
4004.519563 92.682 -178.7586
4033.537962 92.692 -178.8710
4062.766641 92.705 -179.0027
4092.207123 92.718 -179.1565
4121.860942 92.734 -179.3353
4151.729646 92.750 -179.5412
4181.814790 92.767 -179.7758
4212.117944 92.784 179.9601
4242.640687 92.800 179.6663
4273.384610 92.815 179.3431
4304.351317 92.829 178.9910
4335.542421 92.840 178.6107
4366.959549 92.849 178.2032
4398.604338 92.856 177.7699
4430.478438 92.859 177.3124
4462.583511 92.858 176.8324
4494.921231 92.853 176.3320
4527.493283 92.844 175.8131
4560.301365 92.830 175.2780
4593.347189 92.811 174.7290
4626.632476 92.787 174.1687
4660.158962 92.757 173.5999
4693.928395 92.723 173.0254
4727.942535 92.682 172.4486
4762.203156 92.636 171.8727
4796.712043 92.584 171.3011
4831.470996 92.527 170.7372
4866.481826 92.464 170.1845
4901.746360 92.396 169.6461
4937.266434 92.322 169.1252
4973.043902 92.244 168.6242
5009.080628 92.162 168.1455
5045.378492 92.075 167.6908
5081.939384 91.985 167.2614
5118.765212 91.891 166.8583
5155.857894 91.793 166.4824
5193.219366 91.693 166.1350
5230.851574 91.589 165.8176
5268.756481 91.482 165.5326
5306.936062 91.373 165.2825
5345.392309 91.261 165.0703
5384.127225 91.147 164.8989
5423.142830 91.032 164.7709
5462.441159 90.915 164.6886
5502.024259 90.798 164.6535
5541.894195 90.681 164.6665
5582.053045 90.565 164.7278
5622.502902 90.451 164.8369
5663.245876 90.340 164.9925
5704.284090 90.232 165.1929
5745.619684 90.127 165.4359
5787.254813 90.027 165.7186
5829.191647 89.932 166.0383
5871.432373 89.842 166.3922
5913.979192 89.757 166.7773
5956.834323 89.678 167.1909
6000.000000 89.606 167.6304
6043.478473 89.539 168.0931
6087.272010 89.479 168.5766
6131.382892 89.426 169.0779
6175.813420 89.380 169.5939
6220.565910 89.342 170.1210
6265.642695 89.311 170.6551
6311.046124 89.288 171.1915
6356.778566 89.273 171.7257
6402.842404 89.266 172.2532
6449.240040 89.267 172.7698
6495.973891 89.275 173.2720
6543.046396 89.291 173.7565
6590.460007 89.313 174.2212
6638.217197 89.342 174.6650
6686.320456 89.377 175.0887
6734.772290 89.418 175.4943
6783.575226 89.465 175.8856
6832.731809 89.519 176.2665
6882.244600 89.580 176.6408
6932.116181 89.651 177.0104
6982.349153 89.734 177.3741
7032.946133 89.831 177.7262
7083.909760 89.944 178.0560
7135.242690 90.076 178.3466
7186.947600 90.229 178.5755
7239.027185 90.405 178.7138
7291.484160 90.604 178.7274
7344.321260 90.827 178.5771
7397.541239 91.071 178.2208
7451.146872 91.334 177.6152
7505.140954 91.609 176.7181
7559.526299 91.891 175.4921
7614.305743 92.169 173.9077
7669.482141 92.434 171.9463
7725.058371 92.675 169.6046
7781.037328 92.877 166.8970
7837.421932 93.030 163.8575
7894.215122 93.122 160.5395
7951.419859 93.145 157.0137
8009.039125 93.090 153.3649
8067.075924 92.956 149.6863
8125.533282 92.741 146.0732
8184.414245 92.451 142.6159
8243.721885 92.090 139.3933
8303.459292 91.668 136.4691
8363.629581 91.195 133.8889
8424.235888 90.682 131.6807
8485.281374 90.138 129.8560
8546.769221 89.575 128.4131
8608.702634 89.000 127.3401
8671.084842 88.421 126.6185
8733.919097 87.844 126.2259
8797.208675 87.273 126.1386
8860.956876 86.713 126.3328
8925.167022 86.167 126.7844
8989.842461 85.636 127.4701
9054.986566 85.122 128.3678
9120.602731 84.626 129.4569
9186.694378 84.149 130.7195
9253.264952 83.692 132.1400
9320.317925 83.253 133.7056
9387.856790 82.834 135.4048
9455.885071 82.434 137.2274
9524.406312 82.054 139.1636
9593.424086 81.694 141.2035
9662.941992 81.355 143.3364
9732.963653 81.038 145.5502
9803.492719 80.743 147.8306
9874.532869 80.469 150.1597
9946.087805 80.217 152.5172
10018.161257 79.986 154.8821
10090.756983 79.772 157.2385
10163.878768 79.573 159.5824
10237.530423 79.386 161.9248
10311.715789 79.209 164.2874
10386.438732 79.043 166.6933
10461.703149 78.889 169.1573
10537.512962 78.750 171.6816
10613.872125 78.630 174.2570
10690.784618 78.529 176.8674
10768.254450 78.450 179.4946
10846.285661 78.393 -177.8780
10924.882318 78.356 -175.2643
11004.048518 78.341 -172.6759
11083.788390 78.345 -170.1232
11164.106090 78.369 -167.6155
11245.005805 78.413 -165.1616
11326.491752 78.476 -162.7704
11408.568180 78.558 -160.4513
11491.239368 78.658 -158.2137
11574.509626 78.775 -156.0667
11658.383294 78.908 -154.0182
11742.864745 79.055 -152.0737
11827.958384 79.213 -150.2356
11913.668646 79.381 -148.5021
12000.000000 79.556 -146.8660
12086.956947 79.737 -145.3137
12174.544019 79.925 -143.8245
12262.765784 80.119 -142.3718
12351.626840 80.323 -140.9263
12441.131819 80.542 -139.4600
12531.285389 80.784 -137.9535
12622.092249 81.060 -136.4040
12713.557132 81.382 -134.8348
12805.684808 81.760 -133.3025
12898.480079 82.205 -131.8992
12991.947783 82.719 -130.7492
13086.092792 83.301 -129.9977
13180.920015 83.939 -129.7955
13276.434395 84.613 -130.2796
13372.640911 85.299 -131.5555
13469.544580 85.965 -133.6828
13567.150452 86.577 -136.6640
13665.463617 87.103 -140.4389
13764.489200 87.513 -144.8814
13864.232362 87.782 -149.8053
13964.698305 87.897 -154.9775
14065.892266 87.853 -160.1426
14167.819519 87.660 -165.0531
14270.485380 87.336 -169.4982
14373.895200 86.910 -173.3226
14478.054370 86.411 -176.4352
14582.968320 85.872 -178.8073
14688.642520 85.324 179.5329
14795.082478 84.793 178.5104
14902.293745 84.301 178.0145
15010.281908 83.863 177.9091
15119.052599 83.489 178.0447
15228.611486 83.179 178.2676
15338.964283 82.930 178.4290
15450.116741 82.728 178.3950
15562.074656 82.556 178.0605
15674.843864 82.385 177.3696
15788.430244 82.184 176.3467
15902.839718 81.916 175.1346
16018.078250 81.552 174.0357
16134.151848 81.078 173.5286
16251.066563 80.521 174.1961
16368.828491 79.957 176.4610
16487.443769 79.503 -179.8494
16606.918584 79.252 -175.6885
16727.259161 79.217 -172.2586
16848.471777 79.322 -170.2525
16970.562748 79.468 -169.6949
17093.538442 79.576 -170.2531
17217.405268 79.604 -171.5250
17342.169684 79.535 -173.1649
17467.838194 79.369 -174.9111
17594.417350 79.117 -176.5788
17721.913751 78.794 -178.0466
17850.334044 78.416 -179.2444
17979.684923 78.000 179.8558
18109.973131 77.562 179.2475
18241.205462 77.115 178.8976
18373.388756 76.670 178.7538
18506.529905 76.236 178.7535
18640.635849 75.814 178.8332
18775.713581 75.406 178.9379
18911.770141 75.007 179.0280
19048.812624 74.613 179.0837
19186.848172 74.218 179.1057
19325.883983 73.821 179.1104
19465.927305 73.425 179.1202
19606.985439 73.046 179.1516
19749.065738 72.710 179.2043
19892.175609 72.454 179.2607
20036.322514 72.315 179.2968
