* Measurement data measured by REW V5.30.4
* Source: Headset (2- CX31993 HIFI AUDIO), MICROPHONE (Master Volume), L, volume: 0.500
* Format: 256k Log Swept Sine, 1 sweep at -12.0 dBFS with no timing reference
* Dated: 06 23, 24 2:09:38 PM
* REW Settings:
*  C-weighting compensation: Off
*  Target level: 75.0 dB
* Note: ; 
* Measurement: Fengru MY88 Red R
* Smoothing: 1/12 octave
* Frequency Step: 96 ppo
* Start Frequency: 20.141602 Hz
*
* Freq(Hz) SPL(dB) Phase(degrees)
20.141602 91.883 -1.4064
20.287556 91.880 -1.4350
20.434568 91.874 -1.5270
20.582645 91.868 -1.6643
20.731796 91.863 -1.8324
20.882027 91.859 -2.0221
21.033346 91.857 -2.2309
21.185762 91.858 -2.4627
21.339283 91.861 -2.7103
21.493916 91.865 -2.9739
21.649670 91.871 -3.2530
21.806553 91.877 -3.5459
21.964573 91.883 -3.8487
22.123737 91.886 -4.1628
22.284056 91.886 -4.4765
22.445536 91.883 -4.7799
22.608185 91.876 -5.0649
22.772013 91.866 -5.3239
22.937029 91.852 -5.5509
23.103241 91.835 -5.7469
23.270657 91.818 -5.9091
23.439285 91.800 -6.0370
23.609137 91.784 -6.1361
23.780218 91.770 -6.2149
23.952539 91.760 -6.2839
24.126110 91.753 -6.3598
24.300938 91.749 -6.4498
24.477032 91.748 -6.5602
24.654402 91.748 -6.6966
24.833057 91.748 -6.8606
25.013008 91.748 -7.0504
25.194263 91.746 -7.2664
25.376831 91.740 -7.4935
25.560722 91.732 -7.7218
25.745945 91.721 -7.9416
25.932510 91.707 -8.1447
26.120428 91.692 -8.3305
26.309708 91.676 -8.4953
26.500359 91.661 -8.6389
26.692390 91.648 -8.7672
26.885815 91.637 -8.8892
27.080641 91.628 -9.0176
27.276878 91.620 -9.1634
27.474539 91.613 -9.3306
27.673630 91.606 -9.5242
27.874165 91.598 -9.7454
28.076153 91.588 -9.9936
28.279604 91.576 -10.2647
28.484529 91.561 -10.5475
28.690941 91.546 -10.8336
28.898848 91.530 -11.1151
29.108261 91.514 -11.3884
29.319191 91.499 -11.6490
29.531651 91.486 -11.8929
29.745649 91.475 -12.1203
29.961199 91.466 -12.3327
30.178310 91.458 -12.5367
30.396996 91.450 -12.7314
30.617264 91.443 -12.9179
30.839128 91.434 -13.0979
31.062601 91.424 -13.2741
31.287693 91.413 -13.4503
31.514416 91.400 -13.6253
31.742783 91.386 -13.8015
31.972803 91.372 -13.9818
32.204491 91.358 -14.1716
32.437859 91.344 -14.3695
32.672916 91.331 -14.5748
32.909679 91.318 -14.7857
33.148155 91.305 -15.0018
33.388359 91.292 -15.2180
33.630306 91.279 -15.4285
33.874004 91.267 -15.6304
34.119469 91.254 -15.8243
34.366711 91.240 -16.0109
34.615746 91.225 -16.1906
34.866585 91.210 -16.3667
35.119244 91.192 -16.5448
35.373734 91.173 -16.7288
35.630066 91.153 -16.9195
35.888256 91.130 -17.1187
36.148315 91.107 -17.3293
36.410259 91.083 -17.5499
36.674103 91.058 -17.7762
36.939857 91.035 -18.0050
37.207539 91.013 -18.2339
37.477161 90.993 -18.4578
37.748737 90.976 -18.6729
38.022282 90.961 -18.8780
38.297806 90.949 -19.0769
38.575329 90.939 -19.2678
38.854862 90.930 -19.4530
39.136421 90.920 -19.6353
39.420021 90.908 -19.8151
39.705673 90.893 -19.9907
39.993397 90.876 -20.1608
40.283207 90.855 -20.3279
40.575115 90.833 -20.4916
40.869141 90.810 -20.6565
41.165295 90.786 -20.8303
41.463596 90.762 -21.0170
41.764057 90.738 -21.2166
42.066696 90.715 -21.4268
42.371529 90.692 -21.6426
42.678570 90.669 -21.8554
42.987835 90.648 -22.0592
43.299343 90.628 -22.2531
43.613110 90.609 -22.4337
43.929150 90.590 -22.6014
44.247478 90.570 -22.7598
44.568115 90.548 -22.9077
44.891075 90.524 -23.0456
45.216373 90.498 -23.1775
45.544029 90.470 -23.3085
45.874062 90.442 -23.4458
46.206486 90.413 -23.5980
46.541317 90.386 -23.7688
46.878574 90.360 -23.9568
47.218277 90.336 -24.1585
47.560440 90.314 -24.3659
47.905083 90.293 -24.5711
48.252224 90.274 -24.7711
48.601879 90.255 -24.9644
48.954067 90.235 -25.1532
49.308807 90.212 -25.3429
49.666119 90.185 -25.5381
50.026020 90.153 -25.7425
50.388531 90.116 -25.9586
50.753666 90.076 -26.1805
51.121449 90.035 -26.4015
51.491894 89.996 -26.6141
51.865025 89.961 -26.8107
52.240860 89.933 -26.9908
52.619419 89.911 -27.1568
53.000721 89.894 -27.3135
53.384785 89.880 -27.4676
53.771633 89.866 -27.6194
54.161285 89.849 -27.7694
54.553761 89.828 -27.9170
54.949081 89.803 -28.0615
55.347263 89.776 -28.2054
55.748333 89.747 -28.3495
56.152309 89.717 -28.4962
56.559212 89.689 -28.6480
56.969063 89.660 -28.8064
57.381886 89.633 -28.9746
57.797699 89.605 -29.1476
58.216526 89.577 -29.3195
58.638386 89.549 -29.4830
59.063305 89.522 -29.6337
59.491302 89.495 -29.7737
59.922401 89.470 -29.9084
60.356625 89.444 -30.0488
60.793995 89.416 -30.2016
61.234531 89.385 -30.3700
61.678261 89.352 -30.5512
62.125206 89.317 -30.7385
62.575390 89.281 -30.9243
63.028835 89.246 -31.1017
63.485569 89.213 -31.2675
63.945610 89.180 -31.4180
64.408989 89.146 -31.5554
64.875725 89.112 -31.6814
65.345840 89.079 -31.7996
65.819366 89.048 -31.9118
66.296318 89.019 -32.0171
66.776726 88.994 -32.1072
67.260620 88.972 -32.1705
67.748016 88.952 -32.2044
68.238945 88.934 -32.2260
68.733429 88.919 -32.2694
69.231499 88.905 -32.3724
69.733177 88.891 -32.5595
70.238495 88.876 -32.8292
70.747475 88.857 -33.1548
71.260139 88.832 -33.4956
71.776520 88.797 -33.8072
72.296638 88.750 -34.0538
72.820526 88.692 -34.2233
73.348213 88.627 -34.3329
73.879723 88.562 -34.4186
74.415085 88.501 -34.5162
74.954330 88.446 -34.6384
75.497482 88.398 -34.7779
76.044571 88.356 -34.9211
76.595619 88.320 -35.0592
77.150665 88.287 -35.1911
77.709732 88.252 -35.3189
78.272850 88.216 -35.4430
78.840050 88.177 -35.5601
79.411354 88.137 -35.6641
79.986801 88.098 -35.7529
80.566422 88.062 -35.8299
81.150238 88.027 -35.8997
81.738289 87.994 -35.9649
82.330597 87.961 -36.0287
82.927200 87.926 -36.0933
83.528122 87.890 -36.1619
84.133400 87.851 -36.2421
84.743065 87.810 -36.3377
85.357147 87.767 -36.4474
85.975677 87.723 -36.5690
86.598694 87.679 -36.6974
87.226227 87.637 -36.8317
87.858307 87.597 -36.9684
88.494965 87.559 -37.1010
89.136238 87.522 -37.2275
89.782158 87.484 -37.3493
90.432755 87.446 -37.4721
91.088066 87.406 -37.5983
91.748131 87.364 -37.7238
92.412979 87.321 -37.8415
93.082642 87.278 -37.9428
93.757156 87.236 -38.0270
94.436562 87.196 -38.0992
95.120888 87.159 -38.1681
95.810173 87.123 -38.2352
96.504456 87.085 -38.2904
97.203766 87.046 -38.3256
97.908142 87.004 -38.3420
98.617622 86.961 -38.3459
99.332245 86.917 -38.3555
100.052048 86.874 -38.3868
100.777069 86.832 -38.4492
101.507339 86.791 -38.5382
102.242905 86.750 -38.6450
102.983795 86.709 -38.7604
103.730057 86.666 -38.8799
104.481728 86.623 -38.9932
105.238846 86.578 -39.0948
106.001450 86.533 -39.1843
106.769577 86.487 -39.2710
107.543274 86.442 -39.3603
108.322578 86.399 -39.4534
109.107529 86.356 -39.5424
109.898170 86.314 -39.6185
110.694534 86.273 -39.6720
111.496674 86.231 -39.7000
112.304626 86.188 -39.7097
113.118431 86.144 -39.7140
113.938133 86.100 -39.7230
114.763779 86.055 -39.7402
115.595406 86.008 -39.7550
116.433060 85.957 -39.7515
117.276779 85.901 -39.7095
118.126617 85.840 -39.6235
118.982613 85.775 -39.5268
119.844810 85.711 -39.4648
120.713257 85.654 -39.4777
121.587997 85.607 -39.5694
122.469070 85.572 -39.7073
123.356529 85.549 -39.8510
124.250420 85.531 -39.9785
125.150787 85.514 -40.0875
126.057678 85.490 -40.1781
126.971146 85.456 -40.2505
127.891228 85.411 -40.3113
128.817978 85.360 -40.3648
129.751450 85.308 -40.4207
130.691681 85.256 -40.4791
131.638733 85.207 -40.5316
132.592636 85.162 -40.5716
133.553452 85.123 -40.5974
134.521240 85.093 -40.5981
135.496033 85.074 -40.5547
136.477890 85.062 -40.4678
137.466858 85.054 -40.3749
138.462997 85.040 -40.3352
139.466354 85.015 -40.3812
140.476990 84.973 -40.4954
141.494949 84.914 -40.6347
142.520279 84.840 -40.7461
143.553040 84.754 -40.7979
144.593277 84.665 -40.7990
145.641052 84.579 -40.7768
146.696426 84.498 -40.7523
147.759445 84.424 -40.7293
148.830170 84.357 -40.7054
149.908661 84.294 -40.6708
150.994965 84.235 -40.6168
152.089142 84.176 -40.5472
153.191238 84.116 -40.4631
154.301331 84.054 -40.3698
155.419464 83.988 -40.2753
156.545700 83.919 -40.1853
157.680099 83.848 -40.1068
158.822708 83.774 -40.0406
159.973602 83.701 -39.9816
161.132843 83.630 -39.9405
162.300476 83.563 -39.9171
163.476578 83.500 -39.8859
164.661194 83.439 -39.8081
165.854401 83.380 -39.6532
167.056244 83.324 -39.4013
168.266800 83.272 -39.0550
169.486130 83.226 -38.6400
170.714294 83.189 -38.2000
171.951355 83.167 -37.7673
173.197388 83.162 -37.3561
174.452454 83.174 -36.9956
175.716614 83.200 -36.7401
176.989929 83.228 -36.6304
178.272476 83.251 -36.6475
179.564316 83.265 -36.6955
180.865509 83.270 -36.6828
182.176132 83.272 -36.5965
183.496262 83.273 -36.4630
184.825958 83.274 -36.3177
186.165283 83.275 -36.1823
187.514313 83.277 -36.1008
188.873123 83.282 -36.1373
190.241776 83.290 -36.3052
191.620346 83.300 -36.5800
193.008911 83.312 -36.8845
194.407532 83.320 -37.1618
195.816284 83.320 -37.3424
197.235245 83.301 -37.4152
198.664490 83.260 -37.4056
200.104095 83.197 -37.3715
201.554138 83.121 -37.3612
203.014679 83.042 -37.3854
204.485809 82.963 -37.4284
205.967590 82.886 -37.4645
207.460114 82.809 -37.4733
208.963455 82.729 -37.4419
210.477692 82.649 -37.3879
212.002899 82.569 -37.3325
213.539154 82.494 -37.2846
215.086548 82.426 -37.2432
216.645157 82.368 -37.1971
218.215057 82.320 -37.1449
219.796341 82.278 -37.0765
221.389069 82.238 -36.9874
222.993347 82.198 -36.8881
224.609253 82.156 -36.7893
226.236862 82.113 -36.6998
227.876266 82.068 -36.6193
229.527557 82.023 -36.5396
231.190811 81.976 -36.4539
232.866119 81.929 -36.3607
234.553558 81.881 -36.2701
236.253235 81.834 -36.1789
237.965225 81.786 -36.0865
239.689621 81.739 -35.9910
241.426514 81.690 -35.8796
243.175995 81.641 -35.7517
244.938141 81.591 -35.6125
246.713058 81.542 -35.4709
248.500839 81.495 -35.3311
250.301575 81.449 -35.2048
252.115356 81.404 -35.0867
253.942291 81.359 -34.9661
255.782455 81.312 -34.8368
257.635956 81.266 -34.6894
259.502899 81.219 -34.5325
261.383362 81.173 -34.3695
263.277466 81.127 -34.1977
265.185272 81.081 -34.0295
267.106903 81.037 -33.8645
269.042480 80.993 -33.7050
270.992065 80.950 -33.5435
272.955780 80.906 -33.3829
274.933716 80.862 -33.2225
276.925995 80.818 -33.0591
278.932709 80.776 -32.9004
280.953979 80.735 -32.7348
282.989899 80.697 -32.5552
285.040558 80.663 -32.3690
287.106079 80.630 -32.1732
289.186554 80.597 -31.9755
291.282104 80.564 -31.7854
293.392853 80.529 -31.6092
295.518890 80.493 -31.4408
297.660339 80.456 -31.2765
299.817322 80.418 -31.1121
301.989929 80.378 -30.9443
304.178284 80.337 -30.7804
306.382477 80.296 -30.6189
308.602661 80.256 -30.4493
310.838928 80.218 -30.2637
313.091400 80.181 -30.0591
315.360199 80.144 -29.8382
317.645416 80.106 -29.6173
319.947205 80.067 -29.4077
322.265686 80.027 -29.2231
324.600952 79.986 -29.0597
326.953156 79.946 -28.9047
329.322388 79.907 -28.7527
331.708801 79.870 -28.5988
334.112488 79.834 -28.4361
336.533600 79.799 -28.2560
338.972260 79.766 -28.0574
341.428589 79.731 -27.8403
343.902710 79.695 -27.6068
346.394775 79.658 -27.3547
348.904907 79.620 -27.0905
351.433228 79.583 -26.8200
353.979858 79.549 -26.5559
356.544952 79.516 -26.2969
359.128632 79.485 -26.0406
361.731018 79.455 -25.7865
364.352264 79.425 -25.5324
366.992523 79.397 -25.2827
369.651917 79.371 -25.0346
372.330566 79.346 -24.8035
375.028625 79.321 -24.5763
377.746246 79.295 -24.3641
380.483551 79.268 -24.1601
383.240692 79.240 -23.9663
386.017822 79.211 -23.7755
388.815063 79.180 -23.5814
391.632568 79.147 -23.3884
394.470490 79.113 -23.1854
397.328979 79.079 -22.9722
400.208191 79.044 -22.7521
403.108276 79.010 -22.5199
406.029358 78.975 -22.2874
408.971619 78.942 -22.0550
411.935181 78.908 -21.8208
414.920227 78.876 -21.5779
417.926910 78.845 -21.3326
420.955383 78.814 -21.0764
424.005798 78.783 -20.8195
427.078308 78.753 -20.5589
430.173096 78.724 -20.2980
433.290314 78.697 -20.0381
436.430115 78.670 -19.7724
439.592682 78.643 -19.5062
442.778137 78.615 -19.2409
445.986694 78.587 -18.9795
449.218506 78.559 -18.7189
452.473724 78.532 -18.4630
455.752533 78.505 -18.2099
459.055115 78.479 -17.9580
462.381622 78.451 -17.6938
465.732239 78.423 -17.4203
469.107117 78.396 -17.1304
472.506470 78.371 -16.8188
475.930450 78.347 -16.5030
479.379242 78.325 -16.1856
482.853027 78.304 -15.8753
486.351990 78.282 -15.5838
489.876282 78.259 -15.3093
493.426117 78.235 -15.0577
497.001678 78.210 -14.8307
500.603149 78.186 -14.6055
504.230713 78.163 -14.3821
507.884583 78.140 -14.1510
511.564911 78.117 -13.9127
515.271912 78.093 -13.6644
519.005798 78.068 -13.4099
522.766724 78.043 -13.1589
526.554932 78.017 -12.8991
530.370544 77.991 -12.6441
534.213806 77.964 -12.3803
538.084961 77.936 -12.1223
541.984131 77.908 -11.8667
545.911560 77.878 -11.6057
549.867432 77.847 -11.3470
553.851990 77.815 -11.0841
557.865417 77.781 -10.8107
561.907959 77.746 -10.5219
565.979797 77.711 -10.2241
570.081116 77.674 -9.9161
574.212158 77.638 -9.5982
578.373108 77.601 -9.2689
582.564209 77.563 -8.9246
586.785706 77.526 -8.5618
591.037781 77.489 -8.1847
595.320679 77.452 -7.7903
599.634644 77.417 -7.3773
603.979858 77.382 -6.9497
608.356567 77.349 -6.5057
612.764954 77.318 -6.0447
617.205322 77.290 -5.5747
621.677856 77.263 -5.0918
626.182800 77.238 -4.6018
630.720398 77.214 -4.1018
635.290833 77.191 -3.5959
639.894409 77.170 -3.0853
644.531372 77.151 -2.5719
649.201904 77.134 -2.0598
653.906311 77.120 -1.5510
658.644775 77.107 -1.0404
663.417603 77.097 -0.5319
668.224976 77.089 -0.0216
673.067200 77.082 0.4901
677.944519 77.077 1.0020
682.857178 77.073 1.5119
687.805420 77.071 2.0195
692.789551 77.070 2.5285
697.809814 77.070 3.0262
702.866455 77.071 3.5216
707.959717 77.074 4.0136
713.089905 77.077 4.5035
718.257263 77.081 4.9943
723.462036 77.086 5.4976
728.704529 77.092 5.9994
733.985046 77.097 6.5012
739.303833 77.104 7.0082
744.661133 77.111 7.5147
750.057251 77.119 8.0199
755.492493 77.129 8.5284
760.967102 77.139 9.0374
766.481384 77.151 9.5498
772.035645 77.164 10.0630
777.630127 77.178 10.5795
783.265137 77.193 11.0902
788.940979 77.210 11.6032
794.657959 77.228 12.1078
800.416382 77.247 12.6104
806.216553 77.267 13.1182
812.058716 77.288 13.6252
817.943237 77.310 14.1387
823.870361 77.333 14.6539
829.840454 77.358 15.1656
835.853821 77.384 15.6792
841.910767 77.411 16.1907
848.011597 77.438 16.7056
854.156616 77.467 17.2148
860.346191 77.496 17.7244
866.580627 77.527 18.2324
872.860229 77.560 18.7383
879.185364 77.594 19.2367
885.556274 77.630 19.7366
891.973389 77.667 20.2287
898.437012 77.706 20.7269
904.947449 77.746 21.2216
911.505066 77.786 21.7093
918.110229 77.828 22.2005
924.763245 77.871 22.6847
931.464478 77.915 23.1714
938.214233 77.962 23.6480
945.012939 78.011 24.1189
951.860901 78.061 24.5811
958.758484 78.112 25.0444
965.706055 78.165 25.4967
972.703979 78.218 25.9474
979.752563 78.272 26.3942
986.852234 78.327 26.8297
994.003357 78.383 27.2641
1001.206299 78.441 27.6929
1008.461426 78.500 28.1179
1015.769165 78.560 28.5275
1023.129822 78.621 28.9333
1030.543823 78.684 29.3312
1038.011597 78.747 29.7192
1045.533447 78.812 30.1013
1053.109863 78.877 30.4801
1060.741089 78.943 30.8444
1068.427612 79.010 31.2016
1076.169922 79.078 31.5542
1083.968262 79.147 31.8925
1091.823120 79.216 32.2199
1099.734863 79.286 32.5420
1107.703979 79.356 32.8572
1115.730835 79.426 33.1622
1123.815918 79.496 33.4646
1131.959595 79.567 33.7619
1140.162231 79.637 34.0436
1148.424316 79.708 34.3290
1156.746216 79.779 34.6002
1165.128418 79.850 34.8663
1173.571411 79.921 35.1251
1182.075562 79.993 35.3762
1190.641357 80.064 35.6296
1199.269287 80.135 35.8720
1207.959717 80.206 36.1108
1216.713135 80.277 36.3477
1225.529907 80.349 36.5747
1234.410645 80.421 36.8018
1243.355713 80.493 37.0215
1252.365601 80.566 37.2422
1261.440796 80.640 37.4550
1270.581665 80.713 37.6745
1279.788818 80.787 37.8865
1289.062744 80.861 38.0934
1298.403809 80.935 38.3003
1307.812622 81.009 38.5058
1317.289551 81.083 38.7021
1326.835205 81.158 38.9051
1336.449951 81.232 39.1035
1346.134399 81.307 39.3001
1355.889038 81.383 39.4892
1365.714355 81.460 39.6794
1375.610840 81.537 39.8690
1385.579102 81.615 40.0605
1395.619629 81.694 40.2460
1405.732910 81.773 40.4338
1415.919434 81.853 40.6179
1426.179810 81.934 40.8039
1436.514526 82.016 40.9830
1446.924072 82.099 41.1703
1457.409058 82.183 41.3463
1467.970093 82.268 41.5245
1478.607666 82.354 41.6984
1489.322266 82.441 41.8791
1500.114502 82.529 42.0541
1510.984985 82.618 42.2241
1521.934204 82.709 42.3825
1532.962769 82.801 42.5481
1544.071289 82.895 42.7062
1555.260254 82.990 42.8642
1566.530273 83.087 43.0194
1577.881958 83.186 43.1810
1589.315918 83.287 43.3242
1600.832764 83.390 43.4696
1612.433105 83.495 43.6178
1624.117432 83.602 43.7552
1635.886475 83.712 43.8913
1647.740723 83.823 44.0193
1659.680908 83.937 44.1465
1671.707642 84.053 44.2615
1683.821533 84.172 44.3665
1696.023193 84.294 44.4616
1708.313232 84.419 44.5580
1720.692383 84.547 44.6379
1733.161255 84.679 44.7062
1745.720459 84.813 44.7503
1758.370728 84.952 44.7827
1771.112549 85.094 44.7908
1783.946777 85.241 44.7893
1796.874023 85.391 44.7659
1809.894897 85.546 44.6955
1823.010132 85.704 44.6055
1836.220459 85.867 44.4823
1849.526489 86.033 44.3153
1862.928955 86.202 44.1122
1876.428467 86.375 43.8548
1890.025879 86.551 43.5556
1903.721802 86.729 43.1985
1917.516968 86.909 42.7903
1931.412109 87.090 42.3177
1945.407959 87.270 41.7881
1959.505127 87.450 41.1922
1973.704468 87.627 40.5341
1988.006714 87.800 39.8196
2002.412598 87.968 39.0406
2016.922852 88.131 38.2083
2031.538330 88.288 37.3188
2046.259644 88.437 36.3811
2061.087646 88.578 35.3988
2076.023193 88.711 34.3835
2091.066895 88.836 33.3226
2106.219727 88.953 32.2414
2121.482178 89.061 31.1276
2136.855225 89.160 30.0120
2152.339844 89.252 28.8838
2167.936523 89.335 27.7573
2183.646240 89.410 26.6051
2199.469727 89.478 25.4672
2215.407959 89.539 24.3287
2231.461670 89.593 23.1979
2247.631836 89.641 22.0803
2263.919189 89.683 20.9758
2280.324463 89.719 19.8892
2296.848633 89.750 18.8082
2313.492432 89.777 17.7386
2330.256836 89.798 16.6853
2347.142822 89.815 15.6516
2364.151123 89.828 14.6407
2381.282715 89.837 13.6524
2398.538574 89.843 12.6742
2415.919434 89.846 11.7209
2433.426270 89.846 10.7931
2451.059814 89.843 9.8851
2468.821289 89.838 8.9905
2486.711426 89.831 8.1255
2504.731201 89.822 7.2598
2522.881592 89.812 6.4216
2541.163330 89.800 5.6119
2559.577637 89.788 4.8279
2578.125488 89.775 4.0801
2596.807617 89.761 3.3033
2615.625244 89.748 2.5695
2634.579102 89.734 1.8505
2653.670410 89.721 1.1636
2672.899902 89.709 0.4964
2692.268799 89.698 -0.1611
2711.778076 89.688 -0.8207
2731.428711 89.679 -1.4588
2751.221680 89.673 -2.0778
2771.158203 89.668 -2.6877
2791.239258 89.666 -3.2994
2811.465820 89.666 -3.8942
2831.838867 89.668 -4.4813
2852.359619 89.674 -5.0792
2873.029053 89.682 -5.6659
2893.848145 89.693 -6.2589
2914.818115 89.707 -6.8722
2935.940186 89.725 -7.4563
2957.215332 89.746 -8.0835
2978.644531 89.770 -8.7165
3000.229004 89.798 -9.3711
3021.969971 89.829 -10.0286
3043.868408 89.864 -10.7238
3065.925537 89.902 -11.4619
3088.142578 89.942 -12.2155
3110.520508 89.986 -12.9986
3133.060547 90.032 -13.8418
3155.763916 90.080 -14.7315
3178.631836 90.129 -15.6538
3201.665527 90.180 -16.6371
3224.866211 90.230 -17.6844
3248.234863 90.279 -18.7986
3271.772949 90.327 -19.9772
3295.481445 90.370 -21.2244
3319.361816 90.409 -22.5408
3343.415283 90.442 -23.9287
3367.643066 90.467 -25.3810
3392.046387 90.482 -26.8776
3416.626465 90.489 -28.4339
3441.384766 90.486 -30.0420
3466.322510 90.473 -31.6718
3491.440918 90.452 -33.3627
3516.741455 90.420 -35.1033
3542.225098 90.377 -36.8853
3567.893555 90.320 -38.7187
3593.748047 90.246 -40.6192
3619.789795 90.155 -42.5190
3646.020264 90.043 -44.4419
3672.440918 89.912 -46.3849
3699.052979 89.759 -48.2958
3725.857910 89.587 -50.1619
3752.856934 89.395 -51.9910
3780.051758 89.185 -53.7402
3807.443604 88.958 -55.4291
3835.033936 88.716 -57.0363
3862.824219 88.460 -58.5497
3890.815918 88.190 -59.9843
3919.010254 87.909 -61.3225
3947.408936 87.618 -62.5462
3976.013428 87.318 -63.6936
4004.825195 87.009 -64.7110
4033.845703 86.694 -65.6299
4063.076660 86.373 -66.4516
4092.519287 86.048 -67.1446
4122.175293 85.720 -67.7323
4152.046387 85.389 -68.2110
4182.133789 85.059 -68.6028
4212.439453 84.729 -68.8925
4242.964355 84.401 -69.0850
4273.710449 84.076 -69.1764
4304.679688 83.754 -69.1832
4335.873047 83.435 -69.1198
4367.292480 83.121 -68.9545
4398.939453 82.811 -68.7254
4430.815918 82.505 -68.4207
4462.923340 82.204 -68.0409
4495.263672 81.908 -67.6080
4527.838379 81.616 -67.0991
4560.648926 81.328 -66.5315
4593.697266 81.045 -65.8997
4626.984863 80.766 -65.2055
4660.513672 80.493 -64.4323
4694.285645 80.225 -63.6254
4728.302246 79.963 -62.7183
4762.565430 79.707 -61.7723
4797.077148 79.459 -60.7614
4831.838867 79.219 -59.7021
4866.852539 78.986 -58.5800
4902.119629 78.762 -57.4282
4937.642578 78.546 -56.2201
4973.422852 78.338 -54.9883
5009.462402 78.138 -53.7140
5045.763184 77.946 -52.4200
5082.326660 77.761 -51.0903
5119.155273 77.584 -49.7285
5156.250977 77.414 -48.3467
5193.615234 77.251 -46.9373
5231.250488 77.096 -45.4904
5269.158203 76.947 -44.0148
5307.340820 76.806 -42.5310
5345.799805 76.672 -41.0016
5384.537598 76.544 -39.4586
5423.556152 76.425 -37.8927
5462.857422 76.312 -36.2961
5502.443359 76.207 -34.6857
5542.316406 76.110 -33.0551
5582.478516 76.020 -31.3867
5622.931641 75.938 -29.7256
5663.677734 75.864 -28.0330
5704.719238 75.799 -26.3196
5746.058105 75.741 -24.5836
5787.696289 75.691 -22.8193
5829.636230 75.650 -21.0608
5871.880371 75.618 -19.2702
5914.430664 75.594 -17.4662
5957.289062 75.579 -15.6509
6000.458008 75.574 -13.8170
6043.939941 75.578 -11.9407
6087.736816 75.592 -10.0904
6131.851074 75.616 -8.1904
6176.285156 75.651 -6.3013
6221.041016 75.697 -4.3859
6266.121094 75.754 -2.4659
6311.527832 75.824 -0.5335
6357.263672 75.906 1.4088
6403.331055 76.001 3.3513
6449.732422 76.110 5.3018
6496.469727 76.232 7.2585
6543.545898 76.369 9.2424
6590.962891 76.522 11.1932
6638.723633 76.691 13.1585
6686.830566 76.878 15.1279
6735.286133 77.083 17.0691
6784.092773 77.308 19.0033
6833.252930 77.553 20.9482
6882.769531 77.820 22.8681
6932.645020 78.111 24.7621
6982.881836 78.428 26.6086
7033.482910 78.772 28.4309
7084.450195 79.145 30.1940
7135.787109 79.550 31.8909
7187.496094 79.990 33.5209
7239.579590 80.466 35.0439
7292.040527 80.982 36.4422
7344.881836 81.540 37.6796
7398.105957 82.144 38.7467
7451.715820 82.795 39.5790
7505.713867 83.493 40.1136
7560.103516 84.239 40.3184
7614.887207 85.028 40.0851
7670.067871 85.852 39.3369
7725.648438 86.702 38.0240
7781.631836 87.561 36.0679
7838.020508 88.411 33.4008
7894.817871 89.228 30.0025
7952.026855 89.989 25.8493
8009.650391 90.667 21.0042
8067.691406 91.241 15.5119
8126.153320 91.689 9.5519
8185.038574 91.997 3.2784
8244.350586 92.159 -3.1287
8304.092773 92.179 -9.4200
8364.267578 92.069 -15.4313
8424.878906 91.851 -20.9903
8485.928711 91.551 -25.9705
8547.420898 91.199 -30.3376
8609.359375 90.826 -34.0709
8671.746094 90.460 -37.2319
8734.584961 90.125 -39.8917
8797.878906 89.840 -42.1729
8861.631836 89.617 -44.2094
8925.846680 89.461 -46.1569
8990.527344 89.372 -48.1403
9055.676758 89.341 -50.3119
9121.297852 89.354 -52.7679
9187.394531 89.394 -55.5907
9253.969727 89.439 -58.8625
9321.027344 89.465 -62.5714
9388.571289 89.447 -66.7090
9456.604492 89.364 -71.2089
9525.130859 89.195 -75.9566
9594.154297 88.927 -80.8418
9663.677734 88.552 -85.6740
9733.705078 88.070 -90.3030
9804.239258 87.487 -94.6077
9875.285156 86.814 -98.4311
9946.845703 86.066 -101.7093
10018.924805 85.263 -104.3835
10091.526367 84.421 -106.4126
10164.653320 83.561 -107.8030
10238.310547 82.698 -108.5778
10312.501953 81.849 -108.7896
10387.230469 81.025 -108.4748
10462.500977 80.237 -107.6951
10538.316406 79.491 -106.5258
10614.681641 78.793 -105.0205
10691.599609 78.146 -103.2212
10769.075195 77.552 -101.1958
10847.112305 77.012 -99.0087
10925.714844 76.525 -96.6638
11004.886719 76.091 -94.2142
11084.632812 75.711 -91.6847
11164.957031 75.384 -89.1010
11245.863281 75.111 -86.5320
11327.355469 74.891 -83.9766
11409.438477 74.726 -81.4473
11492.116211 74.618 -79.0353
11575.392578 74.566 -76.7367
11659.272461 74.573 -74.6216
11743.760742 74.639 -72.7401
11828.861328 74.762 -71.1698
11914.578125 74.941 -69.9879
12000.916016 75.170 -69.2676
12087.879883 75.441 -69.0963
12175.473633 75.739 -69.5469
12263.702148 76.049 -70.6726
12352.570312 76.349 -72.5169
12442.082031 76.615 -75.0707
12532.242188 76.823 -78.2663
12623.055664 76.947 -82.0597
12714.527344 76.969 -86.2533
12806.662109 76.872 -90.7294
12899.464844 76.650 -95.2498
12992.939453 76.304 -99.6199
13087.091797 75.844 -103.6671
13181.925781 75.285 -107.2066
13277.447266 74.649 -110.1381
13373.661133 73.962 -112.3808
13470.572266 73.247 -113.8964
13568.185547 72.532 -114.6968
13666.505859 71.840 -114.8131
13765.539062 71.193 -114.3060
13865.290039 70.608 -113.2702
13965.763672 70.101 -111.7776
14066.965820 69.685 -109.9486
14168.900391 69.369 -107.9074
14271.574219 69.161 -105.7572
14374.992188 69.066 -103.6598
14479.159180 69.086 -101.7402
14584.081055 69.217 -100.2416
14689.763672 69.447 -99.3293
14796.211914 69.754 -99.1949
14903.431641 70.107 -99.9912
15011.427734 70.464 -101.8556
15120.207031 70.778 -104.8083
15229.774414 70.997 -108.7822
15340.135742 71.072 -113.6250
15451.296875 70.963 -119.0310
15563.263672 70.642 -124.7124
15676.041016 70.100 -130.2528
15789.635742 69.346 -135.3266
15904.053711 68.400 -139.5902
16019.300781 67.293 -142.8912
16135.382812 66.058 -145.0800
16252.306641 64.731 -146.1258
16370.077148 63.345 -146.0596
16488.701172 61.930 -144.9578
16608.185547 60.514 -143.0286
16728.535156 59.119 -140.4536
16849.757812 57.762 -137.4698
16971.857422 56.458 -134.3667
17094.841797 55.214 -131.4236
17218.718750 54.036 -129.0016
17343.492188 52.931 -127.3987
17469.169922 51.906 -126.9923
17595.757812 50.975 -128.1186
17723.263672 50.159 -131.1205
17851.693359 49.480 -136.1745
17981.054688 48.960 -143.2863
18111.353516 48.605 -152.0315
18242.595703 48.399 -161.5866
18374.789062 48.309 -170.9326
18507.939453 48.287 -179.1720
18642.054688 48.292 174.2472
18777.142578 48.293 169.4848
18913.208984 48.272 166.5848
19050.261719 48.227 165.3884
19188.308594 48.159 165.7528
19327.355469 48.078 167.3950
19467.410156 47.994 170.0562
19608.478516 47.918 173.2819
19750.570312 47.855 176.5012
19893.691406 47.812 179.0156
20037.849609 0.000 180.0993
