* Measurement data measured by REW V5.30.4
* Source: Headset (2- CX31993 HIFI AUDIO), MICROPHONE (Master Volume), L, volume: 0.500
* Format: 256k Log Swept Sine, 1 sweep at -12.0 dBFS with no timing reference
* Dated: 06 23, 24 2:07:35 PM
* REW Settings:
*  C-weighting compensation: Off
*  Target level: 75.0 dB
* Note: ; 
* Measurement: Fengru MY88 Black R
* Smoothing: 1/12 octave
* Frequency Step: 96 ppo
* Start Frequency: 20.141602 Hz
*
* Freq(Hz) SPL(dB) Phase(degrees)
20.141602 92.212 -0.1989
20.287556 92.161 -0.2449
20.434568 92.085 -0.3623
20.582645 91.994 -0.5292
20.731796 91.896 -0.7274
20.882027 91.800 -0.9447
21.033346 91.713 -1.1769
21.185762 91.640 -1.4277
21.339283 91.587 -1.6903
21.493916 91.553 -1.9657
21.649670 91.538 -2.2535
21.806553 91.540 -2.5513
21.964573 91.556 -2.8535
22.123737 91.581 -3.1598
22.284056 91.611 -3.4567
22.445536 91.643 -3.7338
22.608185 91.673 -3.9843
22.772013 91.699 -4.2043
22.937029 91.719 -4.3936
23.103241 91.734 -4.5608
23.270657 91.742 -4.7116
23.439285 91.744 -4.8536
23.609137 91.742 -4.9988
23.780218 91.735 -5.1588
23.952539 91.725 -5.3434
24.126110 91.713 -5.5643
24.300938 91.699 -5.8196
24.477032 91.685 -6.1037
24.654402 91.670 -6.4091
24.833057 91.656 -6.7248
25.013008 91.644 -7.0388
25.194263 91.634 -7.3450
25.376831 91.626 -7.6267
25.560722 91.621 -7.8770
25.745945 91.619 -8.0932
25.932510 91.618 -8.2763
26.120428 91.617 -8.4357
26.309708 91.616 -8.5764
26.500359 91.613 -8.7040
26.692390 91.608 -8.8270
26.885815 91.599 -8.9534
27.080641 91.587 -9.0927
27.276878 91.571 -9.2517
27.474539 91.554 -9.4304
27.673630 91.536 -9.6311
27.874165 91.519 -9.8540
28.076153 91.503 -10.0991
28.279604 91.489 -10.3636
28.484529 91.478 -10.6374
28.690941 91.468 -10.9123
28.898848 91.460 -11.1787
29.108261 91.452 -11.4301
29.319191 91.444 -11.6590
29.531651 91.435 -11.8585
29.745649 91.424 -12.0280
29.961199 91.413 -12.1716
30.178310 91.400 -12.3014
30.396996 91.387 -12.4250
30.617264 91.372 -12.5537
30.839128 91.358 -12.6989
31.062601 91.343 -12.8703
31.287693 91.329 -13.0746
31.514416 91.314 -13.3085
31.742783 91.300 -13.5673
31.972803 91.287 -13.8429
32.204491 91.274 -14.1283
32.437859 91.262 -14.4101
32.672916 91.250 -14.6789
32.909679 91.240 -14.9283
33.148155 91.230 -15.1584
33.388359 91.221 -15.3689
33.630306 91.211 -15.5615
33.874004 91.202 -15.7417
34.119469 91.192 -15.9170
34.366711 91.181 -16.0921
34.615746 91.169 -16.2673
34.866585 91.155 -16.4426
35.119244 91.140 -16.6173
35.373734 91.124 -16.7885
35.630066 91.107 -16.9515
35.888256 91.090 -17.1058
36.148315 91.073 -17.2559
36.410259 91.056 -17.4057
36.674103 91.040 -17.5594
36.939857 91.023 -17.7229
37.207539 91.005 -17.9019
37.477161 90.986 -18.0960
37.748737 90.965 -18.3023
38.022282 90.945 -18.5164
38.297806 90.924 -18.7357
38.575329 90.904 -18.9515
38.854862 90.885 -19.1604
39.136421 90.868 -19.3616
39.420021 90.852 -19.5557
39.705673 90.836 -19.7432
39.993397 90.819 -19.9267
40.283207 90.800 -20.1118
40.575115 90.779 -20.2998
40.869141 90.755 -20.4944
41.165295 90.730 -20.7007
41.463596 90.704 -20.9193
41.764057 90.678 -21.1464
42.066696 90.654 -21.3773
42.371529 90.632 -21.6057
42.678570 90.613 -21.8227
42.987835 90.596 -22.0225
43.299343 90.581 -22.2048
43.613110 90.566 -22.3667
43.929150 90.549 -22.5093
44.247478 90.528 -22.6366
44.568115 90.503 -22.7482
44.891075 90.473 -22.8455
45.216373 90.441 -22.9347
45.544029 90.409 -23.0245
45.874062 90.380 -23.1277
46.206486 90.356 -23.2600
46.541317 90.336 -23.4312
46.878574 90.320 -23.6419
47.218277 90.302 -23.8839
47.560440 90.280 -24.1371
47.905083 90.252 -24.3769
48.252224 90.218 -24.5839
48.601879 90.180 -24.7467
48.954067 90.140 -24.8677
49.308807 90.103 -24.9632
49.666119 90.070 -25.0551
50.026020 90.044 -25.1648
50.388531 90.023 -25.3083
50.753666 90.007 -25.4863
51.121449 89.993 -25.6939
51.491894 89.979 -25.9224
51.865025 89.963 -26.1613
52.240860 89.944 -26.4061
52.619419 89.922 -26.6532
53.000721 89.895 -26.8988
53.384785 89.865 -27.1405
53.771633 89.834 -27.3705
54.161285 89.804 -27.5845
54.553761 89.776 -27.7807
54.949081 89.751 -27.9609
55.347263 89.729 -28.1313
55.748333 89.707 -28.2958
56.152309 89.682 -28.4563
56.559212 89.653 -28.6114
56.969063 89.617 -28.7572
57.381886 89.578 -28.8946
57.797699 89.539 -29.0242
58.216526 89.502 -29.1534
58.638386 89.470 -29.2897
59.063305 89.444 -29.4356
59.491302 89.423 -29.5867
59.922401 89.406 -29.7309
60.356625 89.390 -29.8609
60.793995 89.373 -29.9755
61.234531 89.353 -30.0846
61.678261 89.328 -30.2035
62.125206 89.296 -30.3464
62.575390 89.257 -30.5220
63.028835 89.214 -30.7308
63.485569 89.171 -30.9661
63.945610 89.129 -31.2100
64.408989 89.092 -31.4436
64.875725 89.058 -31.6471
65.345840 89.027 -31.8112
65.819366 88.998 -31.9386
66.296318 88.971 -32.0452
66.776726 88.946 -32.1489
67.260620 88.923 -32.2627
67.748016 88.902 -32.3914
68.238945 88.880 -32.5326
68.733429 88.851 -32.6748
69.231499 88.809 -32.8012
69.733177 88.749 -32.8967
70.238495 88.674 -32.9558
70.747475 88.594 -32.9926
71.260139 88.522 -33.0442
71.776520 88.468 -33.1535
72.296638 88.435 -33.3407
72.820526 88.418 -33.5886
73.348213 88.408 -33.8536
73.879723 88.396 -34.0955
74.415085 88.380 -34.3024
74.954330 88.358 -34.4819
75.497482 88.330 -34.6448
76.044571 88.298 -34.7886
76.595619 88.265 -34.9009
77.150665 88.233 -34.9729
77.709732 88.201 -35.0109
78.272850 88.169 -35.0348
78.840050 88.135 -35.0685
79.411354 88.096 -35.1261
79.986801 88.052 -35.2084
80.566422 88.002 -35.3061
81.150238 87.949 -35.4082
81.738289 87.894 -35.5123
82.330597 87.839 -35.6266
82.927200 87.787 -35.7590
83.528122 87.738 -35.9112
84.133400 87.695 -36.0825
84.743065 87.658 -36.2667
85.357147 87.627 -36.4510
85.975677 87.602 -36.6180
86.598694 87.579 -36.7456
87.226227 87.556 -36.8204
87.858307 87.530 -36.8399
88.494965 87.498 -36.8163
89.136238 87.458 -36.7796
89.782158 87.412 -36.7648
90.432755 87.365 -36.8007
91.088066 87.321 -36.8950
91.748131 87.281 -37.0323
92.412979 87.246 -37.1843
93.082642 87.212 -37.3214
93.757156 87.176 -37.4289
94.436562 87.134 -37.5093
95.120888 87.086 -37.5804
95.810173 87.035 -37.6637
96.504456 86.985 -37.7683
97.203766 86.939 -37.8897
97.908142 86.899 -38.0091
98.617622 86.863 -38.1018
99.332245 86.827 -38.1644
100.052048 86.786 -38.2104
100.777069 86.741 -38.2604
101.507339 86.692 -38.3199
102.242905 86.643 -38.3830
102.983795 86.594 -38.4411
103.730057 86.546 -38.4992
104.481728 86.499 -38.5626
105.238846 86.453 -38.6345
106.001450 86.410 -38.7044
106.769577 86.369 -38.7601
107.543274 86.327 -38.7977
108.322578 86.284 -38.8329
109.107529 86.238 -38.8817
109.898170 86.192 -38.9450
110.694534 86.148 -39.0047
111.496674 86.105 -39.0470
112.304626 86.059 -39.0798
113.118431 86.009 -39.1267
113.938133 85.954 -39.2068
114.763779 85.893 -39.3218
115.595406 85.828 -39.4488
116.433060 85.757 -39.5577
117.276779 85.681 -39.6228
118.126617 85.605 -39.6422
118.982613 85.538 -39.6445
119.844810 85.486 -39.6470
120.713257 85.453 -39.6543
121.587997 85.432 -39.6584
122.469070 85.412 -39.6513
123.356529 85.385 -39.6422
124.250420 85.351 -39.6469
125.150787 85.311 -39.6627
126.057678 85.268 -39.6649
126.971146 85.224 -39.6401
127.891228 85.180 -39.6060
128.817978 85.135 -39.5874
129.751450 85.093 -39.6120
130.691681 85.052 -39.7024
131.638733 85.014 -39.8724
132.592636 84.976 -40.1174
133.553452 84.937 -40.4104
134.521240 84.892 -40.7044
135.496033 84.839 -40.9415
136.477890 84.778 -41.0735
137.466858 84.712 -41.0763
138.462997 84.644 -40.9502
139.466354 84.577 -40.7126
140.476990 84.515 -40.4031
141.494949 84.453 -40.0786
142.520279 84.389 -39.7817
143.553040 84.316 -39.5388
144.593277 84.236 -39.3609
145.641052 84.149 -39.2273
146.696426 84.060 -39.0926
147.759445 83.971 -38.9061
148.830170 83.885 -38.6393
149.908661 83.806 -38.2948
150.994965 83.737 -37.9054
152.089142 83.683 -37.5105
153.191238 83.644 -37.1156
154.301331 83.618 -36.6951
155.419464 83.599 -36.2080
156.545700 83.587 -35.6395
157.680099 83.586 -35.0556
158.822708 83.599 -34.5794
159.973602 83.629 -34.2885
161.132843 83.672 -34.1668
162.300476 83.716 -34.1376
163.476578 83.753 -34.1483
164.661194 83.783 -34.1814
165.854401 83.808 -34.2137
167.056244 83.831 -34.2081
168.266800 83.847 -34.1704
169.486130 83.849 -34.1661
170.714294 83.839 -34.2821
171.951355 83.819 -34.5753
173.197388 83.799 -35.0454
174.452454 83.786 -35.6285
175.716614 83.786 -36.2015
176.989929 83.793 -36.6348
178.272476 83.795 -36.8720
179.564316 83.775 -36.9271
180.865509 83.728 -36.8560
182.176132 83.658 -36.7390
183.496262 83.575 -36.6224
184.825958 83.487 -36.5182
186.165283 83.401 -36.3993
187.514313 83.319 -36.2336
188.873123 83.239 -36.0011
190.241776 83.155 -35.6950
191.620346 83.064 -35.3759
193.008911 82.972 -35.1265
194.407532 82.889 -35.0543
195.816284 82.827 -35.1783
197.235245 82.794 -35.4591
198.664490 82.784 -35.7937
200.104095 82.785 -36.0712
201.554138 82.781 -36.2241
203.014679 82.763 -36.2577
204.485809 82.728 -36.2257
205.967590 82.679 -36.1767
207.460114 82.620 -36.1354
208.963455 82.558 -36.1011
210.477692 82.497 -36.0802
212.002899 82.438 -36.0714
213.539154 82.383 -36.0609
215.086548 82.330 -36.0295
216.645157 82.279 -35.9582
218.215057 82.229 -35.8525
219.796341 82.181 -35.7203
221.389069 82.135 -35.5774
222.993347 82.091 -35.4456
224.609253 82.049 -35.3341
226.236862 82.007 -35.2422
227.876266 81.965 -35.1622
229.527557 81.922 -35.0853
231.190811 81.877 -35.0043
232.866119 81.830 -34.9101
234.553558 81.783 -34.8036
236.253235 81.736 -34.6763
237.965225 81.689 -34.5292
239.689621 81.642 -34.3708
241.426514 81.594 -34.1997
243.175995 81.545 -34.0214
244.938141 81.496 -33.8437
246.713058 81.447 -33.6758
248.500839 81.399 -33.5186
250.301575 81.352 -33.3778
252.115356 81.307 -33.2444
253.942291 81.262 -33.1099
255.782455 81.219 -32.9709
257.635956 81.176 -32.8156
259.502899 81.134 -32.6462
261.383362 81.093 -32.4616
263.277466 81.053 -32.2594
265.185272 81.013 -32.0569
267.106903 80.973 -31.8587
269.042480 80.932 -31.6683
270.992065 80.891 -31.4778
272.955780 80.850 -31.2893
274.933716 80.809 -31.1020
276.925995 80.770 -30.9130
278.932709 80.732 -30.7335
280.953979 80.695 -30.5603
282.989899 80.660 -30.3940
285.040558 80.625 -30.2444
287.106079 80.590 -30.1044
289.186554 80.554 -29.9658
291.282104 80.516 -29.8140
293.392853 80.477 -29.6345
295.518890 80.438 -29.4162
297.660339 80.398 -29.1658
299.817322 80.357 -28.8980
301.989929 80.316 -28.6279
304.178284 80.277 -28.3771
306.382477 80.240 -28.1577
308.602661 80.207 -27.9747
310.838928 80.173 -27.8260
313.091400 80.138 -27.6949
315.360199 80.099 -27.5571
317.645416 80.057 -27.4023
319.947205 80.013 -27.2226
322.265686 79.969 -27.0205
324.600952 79.925 -26.7914
326.953156 79.883 -26.5326
329.322388 79.845 -26.2551
331.708801 79.812 -25.9723
334.112488 79.782 -25.6965
336.533600 79.754 -25.4339
338.972260 79.726 -25.1859
341.428589 79.697 -24.9429
343.902710 79.668 -24.6980
346.394775 79.640 -24.4475
348.904907 79.616 -24.1952
351.433228 79.594 -23.9401
353.979858 79.573 -23.6895
356.544952 79.550 -23.4407
359.128632 79.525 -23.1945
361.731018 79.497 -22.9575
364.352264 79.466 -22.7382
366.992523 79.430 -22.5475
369.651917 79.390 -22.3773
372.330566 79.349 -22.2268
375.028625 79.307 -22.0659
377.746246 79.269 -21.8940
380.483551 79.234 -21.6991
383.240692 79.201 -21.4863
386.017822 79.169 -21.2581
388.815063 79.137 -21.0176
391.632568 79.105 -20.7752
394.470490 79.074 -20.5250
397.328979 79.043 -20.2698
400.208191 79.011 -20.0129
403.108276 78.979 -19.7470
406.029358 78.948 -19.4821
408.971619 78.918 -19.2177
411.935181 78.888 -18.9499
414.920227 78.859 -18.6718
417.926910 78.829 -18.3912
420.955383 78.800 -18.1005
424.005798 78.771 -17.8102
427.078308 78.742 -17.5174
430.173096 78.714 -17.2260
433.290314 78.687 -16.9375
436.430115 78.660 -16.6469
439.592682 78.633 -16.3609
442.778137 78.605 -16.0790
445.986694 78.577 -15.8003
449.218506 78.550 -15.5179
452.473724 78.523 -15.2349
455.752533 78.498 -14.9505
459.055115 78.473 -14.6661
462.381622 78.450 -14.3725
465.732239 78.428 -14.0769
469.107117 78.406 -13.7753
472.506470 78.385 -13.4617
475.930450 78.365 -13.1474
479.379242 78.345 -12.8279
482.853027 78.325 -12.5053
486.351990 78.303 -12.1842
489.876282 78.279 -11.8606
493.426117 78.255 -11.5438
497.001678 78.230 -11.2444
500.603149 78.205 -10.9492
504.230713 78.180 -10.6650
507.884583 78.156 -10.3842
511.564911 78.133 -10.1051
515.271912 78.111 -9.8190
519.005798 78.089 -9.5240
522.766724 78.068 -9.2290
526.554932 78.047 -8.9251
530.370544 78.025 -8.6302
534.213806 78.003 -8.3326
538.084961 77.980 -8.0441
541.984131 77.955 -7.7562
545.911560 77.930 -7.4591
549.867432 77.904 -7.1623
553.851990 77.877 -6.8637
557.865417 77.850 -6.5613
561.907959 77.823 -6.2523
565.979797 77.795 -5.9409
570.081116 77.766 -5.6228
574.212158 77.736 -5.2968
578.373108 77.704 -4.9619
582.564209 77.672 -4.6153
586.785706 77.638 -4.2532
591.037781 77.604 -3.8781
595.320679 77.569 -3.4849
599.634644 77.535 -3.0725
603.979858 77.500 -2.6466
608.356567 77.466 -2.2077
612.764954 77.433 -1.7556
617.205322 77.401 -1.2945
621.677856 77.370 -0.8151
626.182800 77.342 -0.3190
630.720398 77.317 0.1981
635.290833 77.295 0.7306
639.894409 77.275 1.2741
644.531372 77.257 1.8255
649.201904 77.242 2.3803
653.906311 77.229 2.9360
658.644775 77.218 3.4966
663.417603 77.209 4.0560
668.224976 77.202 4.6160
673.067200 77.196 5.1752
677.944519 77.193 5.7324
682.857178 77.190 6.2853
687.805420 77.188 6.8339
692.789551 77.188 7.3854
697.809814 77.189 7.9319
702.866455 77.191 8.4857
707.959717 77.196 9.0444
713.089905 77.202 9.6030
718.257263 77.209 10.1566
723.462036 77.218 10.7117
728.704529 77.228 11.2542
733.985046 77.239 11.7897
739.303833 77.251 12.3287
744.661133 77.264 12.8694
750.057251 77.278 13.4138
755.492493 77.292 13.9662
760.967102 77.307 14.5205
766.481384 77.322 15.0763
772.035645 77.339 15.6289
777.630127 77.356 16.1805
783.265137 77.374 16.7243
788.940979 77.393 17.2714
794.657959 77.414 17.8122
800.416382 77.435 18.3521
806.216553 77.458 18.8977
812.058716 77.482 19.4430
817.943237 77.508 19.9957
823.870361 77.535 20.5501
829.840454 77.563 21.1002
835.853821 77.593 21.6512
841.910767 77.623 22.2002
848.011597 77.655 22.7540
854.156616 77.687 23.3043
860.346191 77.721 23.8575
866.580627 77.756 24.4112
872.860229 77.793 24.9641
879.185364 77.831 25.5095
885.556274 77.872 26.0556
891.973389 77.915 26.5926
898.437012 77.959 27.1342
904.947449 78.004 27.6712
911.505066 78.051 28.2002
918.110229 78.099 28.7325
924.763245 78.148 29.2585
931.464478 78.199 29.7883
938.214233 78.250 30.3093
945.012939 78.303 30.8260
951.860901 78.357 31.3358
958.758484 78.413 31.8496
965.706055 78.471 32.3559
972.703979 78.531 32.8631
979.752563 78.592 33.3672
986.852234 78.654 33.8590
994.003357 78.717 34.3474
1001.206299 78.781 34.8275
1008.461426 78.846 35.3018
1015.769165 78.911 35.7603
1023.129822 78.978 36.2168
1030.543823 79.045 36.6674
1038.011597 79.114 37.1089
1045.533447 79.183 37.5444
1053.109863 79.254 37.9761
1060.741089 79.325 38.3931
1068.427612 79.397 38.8041
1076.169922 79.470 39.2137
1083.968262 79.544 39.6136
1091.823120 79.618 40.0068
1099.734863 79.693 40.3982
1107.703979 79.768 40.7855
1115.730835 79.844 41.1643
1123.815918 79.920 41.5414
1131.959595 79.997 41.9126
1140.162231 80.073 42.2673
1148.424316 80.150 42.6248
1156.746216 80.227 42.9684
1165.128418 80.305 43.3081
1173.571411 80.383 43.6428
1182.075562 80.461 43.9731
1190.641357 80.540 44.3091
1199.269287 80.619 44.6382
1207.959717 80.699 44.9685
1216.713135 80.779 45.3017
1225.529907 80.859 45.6286
1234.410645 80.940 45.9569
1243.355713 81.021 46.2775
1252.365601 81.103 46.5985
1261.440796 81.185 46.9118
1270.581665 81.268 47.2329
1279.788818 81.351 47.5484
1289.062744 81.434 47.8605
1298.403809 81.519 48.1751
1307.812622 81.603 48.4920
1317.289551 81.689 48.8037
1326.835205 81.776 49.1254
1336.449951 81.863 49.4457
1346.134399 81.951 49.7675
1355.889038 82.039 50.0857
1365.714355 82.129 50.4090
1375.610840 82.221 50.7348
1385.579102 82.313 51.0643
1395.619629 82.407 51.3887
1405.732910 82.503 51.7164
1415.919434 82.600 52.0424
1426.179810 82.699 52.3739
1436.514526 82.799 52.7027
1446.924072 82.901 53.0432
1457.409058 83.005 53.3746
1467.970093 83.111 53.7096
1478.607666 83.218 54.0416
1489.322266 83.328 54.3831
1500.114502 83.440 54.7231
1510.984985 83.554 55.0630
1521.934204 83.671 55.3954
1532.962769 83.790 55.7371
1544.071289 83.911 56.0722
1555.260254 84.036 56.4081
1566.530273 84.163 56.7429
1577.881958 84.293 57.0867
1589.315918 84.427 57.4153
1600.832764 84.564 57.7495
1612.433105 84.705 58.0898
1624.117432 84.851 58.4214
1635.886475 85.000 58.7523
1647.740723 85.155 59.0758
1659.680908 85.314 59.3998
1671.707642 85.478 59.7138
1683.821533 85.648 60.0201
1696.023193 85.823 60.3179
1708.313232 86.005 60.6174
1720.692383 86.192 60.9000
1733.161255 86.387 61.1695
1745.720459 86.588 61.4114
1758.370728 86.797 61.6364
1771.112549 87.013 61.8305
1783.946777 87.236 62.0081
1796.874023 87.468 62.1574
1809.894897 87.707 62.2522
1823.010132 87.954 62.3177
1836.220459 88.210 62.3367
1849.526489 88.473 62.2946
1862.928955 88.745 62.1950
1876.428467 89.024 62.0148
1890.025879 89.311 61.7609
1903.721802 89.605 61.4120
1917.516968 89.904 60.9702
1931.412109 90.208 60.4180
1945.407959 90.516 59.7583
1959.505127 90.826 58.9766
1973.704468 91.136 58.0713
1988.006714 91.444 57.0432
2002.412598 91.749 55.8798
2016.922852 92.049 54.5898
2031.538330 92.340 53.1683
2046.259644 92.622 51.6238
2061.087646 92.893 49.9598
2076.023193 93.149 48.1894
2091.066895 93.391 46.3026
2106.219727 93.615 44.3279
2121.482178 93.822 42.2584
2136.855225 94.010 40.1306
2152.339844 94.177 37.9411
2167.936523 94.324 35.7125
2183.646240 94.451 33.4259
2199.469727 94.556 31.1303
2215.407959 94.640 28.8207
2231.461670 94.704 26.5154
2247.631836 94.748 24.2294
2263.919189 94.772 21.9714
2280.324463 94.777 19.7549
2296.848633 94.765 17.5757
2313.492432 94.736 15.4474
2330.256836 94.691 13.3818
2347.142822 94.633 11.3885
2364.151123 94.561 9.4757
2381.282715 94.477 7.6472
2398.538574 94.384 5.8935
2415.919434 94.281 4.2316
2433.426270 94.171 2.6636
2451.059814 94.055 1.1839
2468.821289 93.934 -0.2138
2486.711426 93.810 -1.5141
2504.731201 93.683 -2.7488
2522.881592 93.555 -3.8916
2541.163330 93.427 -4.9441
2559.577637 93.299 -5.9116
2578.125488 93.173 -6.7861
2596.807617 93.049 -7.6354
2615.625244 92.927 -8.3905
2634.579102 92.810 -9.0831
2653.670410 92.696 -9.6988
2672.899902 92.588 -10.2528
2692.268799 92.485 -10.7571
2711.778076 92.387 -11.2263
2731.428711 92.296 -11.6392
2751.221680 92.212 -12.0006
2771.158203 92.135 -12.3225
2791.239258 92.064 -12.6173
2811.465820 92.002 -12.8684
2831.838867 91.947 -13.0866
2852.359619 91.900 -13.2921
2873.029053 91.862 -13.4646
2893.848145 91.833 -13.6228
2914.818115 91.813 -13.7819
2935.940186 91.802 -13.8934
2957.215332 91.801 -14.0307
2978.644531 91.810 -14.1574
3000.229004 91.829 -14.2906
3021.969971 91.858 -14.4131
3043.868408 91.898 -14.5610
3065.925537 91.949 -14.7412
3088.142578 92.012 -14.9281
3110.520508 92.086 -15.1386
3133.060547 92.172 -15.4063
3155.763916 92.271 -15.7215
3178.631836 92.382 -16.0749
3201.665527 92.505 -16.5004
3224.866211 92.640 -17.0080
3248.234863 92.787 -17.6092
3271.772949 92.945 -18.3118
3295.481445 93.114 -19.1318
3319.361816 93.291 -20.0831
3343.415283 93.475 -21.1825
3367.643066 93.664 -22.4383
3392.046387 93.856 -23.8449
3416.626465 94.048 -25.4314
3441.384766 94.239 -27.2017
3466.322510 94.427 -29.1355
3491.440918 94.610 -31.2821
3516.741455 94.785 -33.6415
3542.225098 94.945 -36.2168
3567.893555 95.086 -39.0272
3593.748047 95.199 -42.0919
3619.789795 95.276 -45.3376
3646.020264 95.310 -48.7724
3672.440918 95.296 -52.3683
3699.052979 95.228 -56.0398
3725.857910 95.105 -59.7350
3752.856934 94.926 -63.4186
3780.051758 94.692 -67.0042
3807.443604 94.405 -70.4695
3835.033936 94.070 -73.7555
3862.824219 93.692 -76.8192
3890.815918 93.277 -79.6529
3919.010254 92.832 -82.2244
3947.408936 92.364 -84.5098
3976.013428 91.878 -86.5490
4004.825195 91.381 -88.2962
4033.845703 90.879 -89.7958
4063.076660 90.374 -91.0648
4092.519287 89.872 -92.0884
4122.175293 89.374 -92.9059
4152.046387 88.883 -93.5277
4182.133789 88.400 -93.9876
4212.439453 87.926 -94.2816
4242.964355 87.462 -94.4241
4273.710449 87.008 -94.4199
4304.679688 86.565 -94.2925
4335.873047 86.132 -94.0622
4367.292480 85.710 -93.7018
4398.939453 85.299 -93.2535
4430.815918 84.900 -92.7090
4462.923340 84.512 -92.0721
4495.263672 84.135 -91.3676
4527.838379 83.771 -90.5755
4560.648926 83.418 -89.7168
4593.697266 83.077 -88.7909
4626.984863 82.748 -87.8045
4660.513672 82.430 -86.7464
4694.285645 82.123 -85.6661
4728.302246 81.828 -84.5008
4762.565430 81.543 -83.3138
4797.077148 81.270 -82.0795
4831.838867 81.006 -80.8141
4866.852539 80.754 -79.5013
4902.119629 80.511 -78.1715
4937.642578 80.277 -76.7955
4973.422852 80.053 -75.4034
5009.462402 79.838 -73.9741
5045.763184 79.633 -72.5292
5082.326660 79.436 -71.0521
5119.155273 79.248 -69.5467
5156.250977 79.069 -68.0254
5193.615234 78.899 -66.4810
5231.250488 78.738 -64.9041
5269.158203 78.585 -63.3038
5307.340820 78.441 -61.7012
5345.799805 78.306 -60.0589
5384.537598 78.179 -58.4082
5423.556152 78.061 -56.7387
5462.857422 77.951 -55.0415
5502.443359 77.850 -53.3328
5542.316406 77.759 -51.6057
5582.478516 77.676 -49.8417
5622.931641 77.604 -48.0855
5663.677734 77.541 -46.2984
5704.719238 77.489 -44.4919
5746.058105 77.447 -42.6656
5787.696289 77.415 -40.8159
5829.636230 77.395 -38.9788
5871.880371 77.385 -37.1173
5914.430664 77.387 -35.2510
5957.289062 77.401 -33.3831
6000.458008 77.427 -31.5074
6043.939941 77.465 -29.6005
6087.736816 77.515 -27.7300
6131.851074 77.579 -25.8201
6176.285156 77.655 -23.9311
6221.041016 77.746 -22.0263
6266.121094 77.850 -20.1277
6311.527832 77.970 -18.2283
6357.263672 78.105 -16.3297
6403.331055 78.257 -14.4410
6449.732422 78.427 -12.5537
6496.469727 78.617 -10.6699
6543.545898 78.827 -8.7703
6590.962891 79.060 -6.9188
6638.723633 79.318 -5.0726
6686.830566 79.601 -3.2490
6735.286133 79.914 -1.4899
6784.092773 80.257 0.2142
6833.252930 80.633 1.8671
6882.769531 81.044 3.4165
6932.645020 81.492 4.8427
6982.881836 81.980 6.1026
7033.482910 82.510 7.1943
7084.450195 83.082 8.0522
7135.787109 83.698 8.6324
7187.496094 84.356 8.8924
7239.579590 85.052 8.7456
7292.040527 85.781 8.1265
7344.881836 86.533 6.9558
7398.105957 87.294 5.1920
7451.715820 88.047 2.7604
7505.713867 88.771 -0.3813
7560.103516 89.441 -4.2049
7614.887207 90.034 -8.7117
7670.067871 90.527 -13.8225
7725.648438 90.898 -19.3829
7781.631836 91.133 -25.2312
7838.020508 91.223 -31.1787
7894.817871 91.172 -37.0020
7952.026855 90.990 -42.5231
8009.650391 90.694 -47.5474
8067.691406 90.310 -51.9867
8126.153320 89.865 -55.7143
8185.038574 89.388 -58.7188
8244.350586 88.905 -61.0360
8304.092773 88.443 -62.6764
8364.267578 88.023 -63.7493
8424.878906 87.661 -64.3393
8485.928711 87.373 -64.5390
8547.420898 87.165 -64.4845
8609.359375 87.046 -64.2751
8671.746094 87.019 -64.0464
8734.584961 87.085 -63.9080
8797.878906 87.242 -63.9955
8861.631836 87.486 -64.4425
8925.846680 87.806 -65.3973
8990.527344 88.185 -66.9727
9055.676758 88.600 -69.3015
9121.297852 89.021 -72.4467
9187.394531 89.413 -76.4377
9253.969727 89.737 -81.2769
9321.027344 89.956 -86.8426
9388.571289 90.038 -92.9872
9456.604492 89.955 -99.4848
9525.130859 89.694 -106.0586
9594.154297 89.254 -112.4555
9663.677734 88.646 -118.3816
9733.705078 87.893 -123.6336
9804.239258 87.021 -128.0858
9875.285156 86.062 -131.6165
9946.845703 85.048 -134.2237
10018.924805 84.008 -135.9265
10091.526367 82.968 -136.7677
10164.653320 81.951 -136.8370
10238.310547 80.974 -136.2333
10312.501953 80.051 -135.0718
10387.230469 79.189 -133.4346
10462.500977 78.394 -131.4128
10538.316406 77.666 -129.0963
10614.681641 77.007 -126.5419
10691.599609 76.414 -123.7870
10769.075195 75.885 -120.8909
10847.112305 75.417 -117.9065
10925.714844 75.008 -114.8248
11004.886719 74.656 -111.6859
11084.632812 74.359 -108.5021
11164.957031 74.118 -105.2876
11245.863281 73.933 -102.1007
11327.355469 73.806 -98.9312
11409.438477 73.738 -95.7833
11492.116211 73.734 -92.7409
11575.392578 73.796 -89.7943
11659.272461 73.930 -87.0112
11743.760742 74.138 -84.4445
11828.861328 74.424 -82.1816
11914.578125 74.788 -80.3192
12000.916016 75.228 -78.9613
12087.879883 75.736 -78.2369
12175.473633 76.299 -78.2697
12263.702148 76.895 -79.1675
12352.570312 77.497 -81.0262
12442.082031 78.071 -83.8796
12532.242188 78.581 -87.6860
12623.055664 78.988 -92.4026
12714.527344 79.260 -97.8024
12806.662109 79.369 -103.7045
12899.464844 79.300 -109.7774
12992.939453 79.052 -115.7183
13087.091797 78.636 -121.2481
13181.925781 78.078 -126.0942
13277.447266 77.411 -130.0957
13373.661133 76.673 -133.1385
13470.572266 75.904 -135.1787
13568.185547 75.145 -136.2458
13666.505859 74.435 -136.4107
13765.539062 73.808 -135.7925
13865.290039 73.294 -134.5634
13965.763672 72.920 -132.8914
14066.965820 72.704 -131.0150
14168.900391 72.660 -129.1992
14271.574219 72.791 -127.7085
14374.992188 73.087 -126.8692
14479.159180 73.519 -126.9455
14584.081055 74.042 -128.2569
14689.763672 74.593 -130.9519
14796.211914 75.100 -135.0969
14903.431641 75.488 -140.6089
15011.427734 75.688 -147.2873
15120.207031 75.642 -154.7339
15229.774414 75.315 -162.4365
15340.135742 74.703 -169.8681
15451.296875 73.825 -176.5125
15563.263672 72.720 177.9305
15676.041016 71.433 173.7292
15789.635742 70.013 170.9714
15904.053711 68.506 169.7322
16019.300781 66.958 169.8941
16135.382812 65.414 171.3443
16252.306641 63.912 173.8621
16370.077148 62.492 177.1817
16488.701172 61.185 -178.9821
16608.185547 60.021 -175.0136
16728.535156 59.022 -171.2394
16849.757812 58.209 -168.0168
16971.857422 57.597 -165.7323
17094.841797 57.192 -164.7284
17218.718750 56.986 -165.3657
17343.492188 56.945 -167.8371
17469.169922 57.014 -172.2712
17595.757812 57.120 -178.5882
17723.263672 57.184 173.4470
17851.693359 57.136 164.3347
17981.054688 56.926 154.6783
18111.353516 56.531 145.2021
18242.595703 55.958 136.5735
18374.789062 55.238 129.3152
18507.939453 54.416 123.7946
18642.054688 53.544 120.2152
18777.142578 52.673 118.5672
18913.208984 51.846 118.8057
19050.261719 51.095 120.6927
19188.308594 50.437 123.9924
19327.355469 49.878 128.3158
19467.410156 49.416 133.3033
19608.478516 49.044 138.4212
19750.570312 48.761 143.0420
19893.691406 48.566 146.4142
20037.849609 0.000 147.7544
