* Measurement data measured by REW V5.31.3
* Source: Headset (CX31993 HIFI AUDIO), MICROPHONE (Master Volume), R, volume: 0.400
* Format: 256k Log Swept Sine, 1 sweep at -11.9 dBFS with no timing reference
* Dated: 05 26, 25 8:36:12 PM
* REW Settings:
*  C-weighting compensation: Off
*  Target level: 75.0 dB
* Note: ; 
* Measurement: Final A5000 DSP R
* Smoothing: 1/12 octave
* Frequency Step: 96 ppo
* Start Frequency: 0.36621094 Hz
*
* Freq(Hz) SPL(dB) Phase(degrees)
0.366211 44.182 -45.8078
0.368865 44.209 -45.6870
0.371538 44.250 -45.5086
0.374230 44.300 -45.2890
0.376942 44.356 -45.0422
0.379673 44.417 -44.7785
0.382424 44.480 -44.5046
0.385196 44.544 -44.2246
0.387987 44.610 -43.9410
0.390798 44.676 -43.6549
0.393630 44.743 -43.3670
0.396483 44.810 -43.0777
0.399356 44.878 -42.7871
0.402250 44.947 -42.4953
0.405165 45.016 -42.2023
0.408101 45.086 -41.9081
0.411058 45.156 -41.6125
0.414037 45.226 -41.3157
0.417037 45.298 -41.0175
0.420059 45.369 -40.7179
0.423103 45.441 -40.4168
0.426169 45.514 -40.1142
0.429257 45.587 -39.8101
0.432368 45.661 -39.5044
0.435501 45.735 -39.1971
0.438656 45.810 -38.8881
0.441835 45.885 -38.5773
0.445037 45.961 -38.2648
0.448262 46.038 -37.9505
0.451510 46.115 -37.6344
0.454782 46.192 -37.3163
0.458077 46.271 -36.9963
0.461397 46.349 -36.6744
0.464740 46.428 -36.3504
0.468108 46.508 -36.0244
0.471500 46.589 -35.6963
0.474917 46.670 -35.3661
0.478358 46.751 -35.0337
0.481825 46.834 -34.6992
0.485316 46.916 -34.3624
0.488833 47.000 -34.0234
0.492375 47.084 -33.6822
0.495943 47.168 -33.3387
0.499537 47.253 -32.9928
0.503157 47.339 -32.6447
0.506803 47.426 -32.2942
0.510475 47.513 -31.9414
0.514175 47.601 -31.5863
0.517900 47.689 -31.2288
0.521653 47.778 -30.8689
0.525434 47.868 -30.5067
0.529241 47.958 -30.1422
0.533076 48.049 -29.7753
0.536939 48.140 -29.4061
0.540830 48.233 -29.0345
0.544749 48.326 -28.6607
0.548696 48.419 -28.2846
0.552673 48.513 -27.9063
0.556677 48.608 -27.5257
0.560711 48.704 -27.1430
0.564774 48.800 -26.7581
0.568867 48.897 -26.3712
0.572989 48.995 -25.9822
0.577141 49.094 -25.5912
0.581324 49.193 -25.1982
0.585536 49.293 -24.8034
0.589779 49.393 -24.4068
0.594053 49.495 -24.0084
0.598358 49.597 -23.6083
0.602694 49.700 -23.2066
0.607061 49.803 -22.8034
0.611460 49.908 -22.3988
0.615891 50.013 -21.9928
0.620354 50.119 -21.5856
0.624849 50.225 -21.1771
0.629377 50.333 -20.7676
0.633938 50.441 -20.3572
0.638532 50.550 -19.9458
0.643159 50.659 -19.5337
0.647819 50.770 -19.1209
0.652514 50.881 -18.7076
0.657242 50.993 -18.2939
0.662005 51.106 -17.8798
0.666802 51.220 -17.4655
0.671634 51.335 -17.0512
0.676501 51.450 -16.6368
0.681403 51.567 -16.2227
0.686341 51.684 -15.8088
0.691314 51.802 -15.3953
0.696324 51.921 -14.9824
0.701370 52.040 -14.5701
0.706452 52.161 -14.1585
0.711571 52.283 -13.7479
0.716728 52.405 -13.3384
0.721921 52.529 -12.9300
0.727153 52.654 -12.5230
0.732422 52.780 -12.1174
0.737729 52.908 -11.7135
0.743075 53.036 -11.3113
0.748460 53.167 -10.9110
0.753883 53.299 -10.5129
0.759346 53.432 -10.1170
0.764849 53.567 -9.7235
0.770391 53.703 -9.3327
0.775974 53.840 -8.9448
0.781597 53.979 -8.5599
0.787261 54.119 -8.1782
0.792966 54.261 -7.8001
0.798712 54.404 -7.4256
0.804500 54.548 -7.0549
0.810329 54.693 -6.6883
0.816201 54.840 -6.3260
0.822116 54.988 -5.9681
0.828073 55.138 -5.6149
0.834074 55.289 -5.2664
0.840118 55.440 -4.9229
0.846206 55.594 -4.5846
0.852338 55.748 -4.2516
0.858514 55.903 -3.9242
0.864735 56.060 -3.6023
0.871001 56.218 -3.2863
0.877313 56.377 -2.9762
0.883670 56.536 -2.6723
0.890074 56.697 -2.3746
0.896524 56.859 -2.0833
0.903020 57.022 -1.7984
0.909564 57.186 -1.5203
0.916155 57.351 -1.2488
0.922794 57.517 -0.9843
0.929481 57.683 -0.7267
0.936216 57.850 -0.4762
0.943000 58.018 -0.2328
0.949834 58.187 0.0033
0.956717 58.356 0.2320
0.963649 58.526 0.4534
0.970632 58.697 0.6672
0.977666 58.868 0.8735
0.984750 59.039 1.0721
0.991886 59.211 1.2631
0.999074 59.383 1.4463
1.006314 59.556 1.6218
1.013606 59.728 1.7894
1.020951 59.901 1.9492
1.028349 60.074 2.1011
1.035801 60.247 2.2451
1.043307 60.419 2.3813
1.050867 60.592 2.5097
1.058482 60.764 2.6304
1.066152 60.936 2.7437
1.073878 61.108 2.8498
1.081660 61.280 2.9494
1.089498 61.451 3.0433
1.097393 61.622 3.1327
1.105345 61.792 3.2188
1.113355 61.963 3.3029
1.121423 62.133 3.3860
1.129549 62.304 3.4685
1.137734 62.474 3.5508
1.145979 62.645 3.6326
1.154283 62.815 3.7138
1.162647 62.986 3.7940
1.171072 63.157 3.8729
1.179558 63.328 3.9501
1.188106 63.499 4.0251
1.196715 63.670 4.0975
1.205387 63.841 4.1671
1.214122 64.012 4.2333
1.222920 64.183 4.2959
1.231782 64.354 4.3545
1.240708 64.526 4.4088
1.249699 64.697 4.4584
1.258754 64.868 4.5031
1.267876 65.040 4.5425
1.277063 65.211 4.5764
1.286318 65.383 4.6045
1.295639 65.555 4.6266
1.305027 65.726 4.6423
1.314484 65.898 4.6515
1.324009 66.070 4.6540
1.333604 66.241 4.6494
1.343268 66.413 4.6376
1.353002 66.585 4.6184
1.362806 66.757 4.5916
1.372681 66.928 4.5569
1.382628 67.100 4.5144
1.392647 67.272 4.4637
1.402739 67.444 4.4048
1.412904 67.616 4.3378
1.423142 67.788 4.2626
1.433455 67.960 4.1797
1.443843 68.131 4.0894
1.454305 68.303 3.9927
1.464844 68.475 3.8906
1.475459 68.646 3.7847
1.486150 68.817 3.6761
1.496920 68.987 3.5657
1.507767 69.157 3.4543
1.518693 69.326 3.3419
1.529698 69.494 3.2285
1.540783 69.663 3.1139
1.551948 69.830 2.9979
1.563194 69.997 2.8799
1.574521 70.164 2.7598
1.585931 70.330 2.6370
1.597423 70.495 2.5112
1.608999 70.660 2.3821
1.620658 70.825 2.2492
1.632402 70.989 2.1122
1.644232 71.153 1.9707
1.656146 71.317 1.8245
1.668147 71.480 1.6731
1.680235 71.643 1.5162
1.692411 71.805 1.3536
1.704675 71.968 1.1848
1.717028 72.130 1.0097
1.729470 72.292 0.8280
1.742003 72.453 0.6393
1.754626 72.615 0.4435
1.767341 72.777 0.2404
1.780147 72.938 0.0300
1.793047 73.100 -0.1877
1.806040 73.261 -0.4124
1.819128 73.423 -0.6436
1.832310 73.584 -0.8805
1.845587 73.744 -1.1221
1.858961 73.905 -1.3675
1.872432 74.064 -1.6159
1.886001 74.223 -1.8668
1.899667 74.381 -2.1201
1.913433 74.538 -2.3756
1.927299 74.695 -2.6333
1.941265 74.851 -2.8934
1.955332 75.007 -3.1560
1.969501 75.161 -3.4213
1.983773 75.315 -3.6895
1.998148 75.469 -3.9608
2.012627 75.622 -4.2355
2.027212 75.774 -4.5137
2.041902 75.926 -4.7957
2.056698 76.077 -5.0817
2.071602 76.228 -5.3720
2.086614 76.379 -5.6668
2.101734 76.529 -5.9663
2.116964 76.679 -6.2707
2.132304 76.829 -6.5803
2.147756 76.978 -6.8952
2.163320 77.128 -7.2154
2.178996 77.276 -7.5407
2.194786 77.425 -7.8710
2.210690 77.573 -8.2059
2.226710 77.720 -8.5448
2.242845 77.867 -8.8874
2.259098 78.012 -9.2333
2.275468 78.157 -9.5823
2.291957 78.301 -9.9341
2.308566 78.445 -10.2887
2.325295 78.587 -10.6460
2.342145 78.729 -11.0059
2.359117 78.870 -11.3685
2.376212 79.010 -11.7337
2.393431 79.150 -12.1017
2.410775 79.289 -12.4725
2.428244 79.428 -12.8461
2.445840 79.565 -13.2227
2.463564 79.703 -13.6024
2.481416 79.840 -13.9853
2.499397 79.976 -14.3715
2.517509 80.112 -14.7613
2.535752 80.248 -15.1547
2.554127 80.383 -15.5519
2.572635 80.517 -15.9529
2.591277 80.651 -16.3578
2.610055 80.783 -16.7663
2.628968 80.915 -17.1785
2.648019 81.046 -17.5940
2.667208 81.176 -18.0126
2.686535 81.305 -18.4341
2.706003 81.434 -18.8581
2.725612 81.561 -19.2846
2.745363 81.688 -19.7132
2.765257 81.814 -20.1438
2.785295 81.939 -20.5762
2.805478 82.064 -21.0104
2.825808 82.187 -21.4462
2.846285 82.311 -21.8837
2.866910 82.433 -22.3228
2.887685 82.555 -22.7637
2.908611 82.677 -23.2067
2.929688 82.798 -23.6520
2.950917 82.917 -24.0999
2.972301 83.037 -24.5508
2.993839 83.155 -25.0046
3.015534 83.272 -25.4614
3.037386 83.388 -25.9208
3.059396 83.503 -26.3827
3.081565 83.618 -26.8465
3.103896 83.731 -27.3121
3.126388 83.844 -27.7790
3.149043 83.956 -28.2468
3.171862 84.067 -28.7153
3.194847 84.177 -29.1843
3.217998 84.287 -29.6536
3.241317 84.396 -30.1232
3.264805 84.504 -30.5932
3.288463 84.612 -31.0639
3.312293 84.719 -31.5357
3.336295 84.825 -32.0091
3.360471 84.930 -32.4843
3.384822 85.034 -32.9614
3.409350 85.137 -33.4402
3.434056 85.240 -33.9204
3.458940 85.341 -34.4018
3.484005 85.442 -34.8838
3.509252 85.541 -35.3660
3.534681 85.640 -35.8481
3.560295 85.739 -36.3298
3.586094 85.836 -36.8107
3.612081 85.933 -37.2908
3.638255 86.030 -37.7702
3.664620 86.126 -38.2491
3.691175 86.221 -38.7281
3.717923 86.315 -39.2073
3.744864 86.408 -39.6870
3.772001 86.501 -40.1674
3.799335 86.592 -40.6481
3.826866 86.683 -41.1291
3.854597 86.773 -41.6099
3.882529 86.863 -42.0902
3.910664 86.952 -42.5697
3.939002 87.040 -43.0480
3.967546 87.128 -43.5251
3.996296 87.216 -44.0008
4.025255 87.303 -44.4753
4.054423 87.389 -44.9487
4.083804 87.475 -45.4214
4.113396 87.560 -45.8937
4.143204 87.644 -46.3655
4.173227 87.728 -46.8369
4.203468 87.811 -47.3080
4.233928 87.894 -47.7784
4.264609 87.977 -48.2481
4.295512 88.059 -48.7170
4.326639 88.140 -49.1849
4.357992 88.222 -49.6516
4.389572 88.303 -50.1174
4.421380 88.384 -50.5822
4.453419 88.464 -51.0463
4.485691 88.545 -51.5097
4.518196 88.624 -51.9728
4.550936 88.704 -52.4356
4.583914 88.783 -52.8982
4.617131 88.862 -53.3608
4.650589 88.941 -53.8235
4.684289 89.019 -54.2863
4.718233 89.098 -54.7492
4.752424 89.176 -55.2122
4.786862 89.254 -55.6755
4.821549 89.332 -56.1391
4.856488 89.411 -56.6032
4.891680 89.488 -57.0679
4.927127 89.566 -57.5334
4.962831 89.644 -58.0002
4.998794 89.721 -58.4683
5.035017 89.799 -58.9380
5.071503 89.876 -59.4097
5.108253 89.954 -59.8833
5.145270 90.031 -60.3590
5.182555 90.108 -60.8369
5.220110 90.185 -61.3170
5.257937 90.263 -61.7994
5.296038 90.340 -62.2843
5.334415 90.416 -62.7720
5.373071 90.493 -63.2627
5.412006 90.570 -63.7566
5.451224 90.646 -64.2539
5.490725 90.722 -64.7550
5.530514 90.798 -65.2598
5.570590 90.874 -65.7684
5.610957 90.950 -66.2808
5.651616 91.025 -66.7969
5.692570 91.100 -67.3169
5.733821 91.175 -67.8406
5.775370 91.249 -68.3682
5.817221 91.323 -68.8997
5.859375 91.397 -69.4354
5.901834 91.470 -69.9752
5.944602 91.542 -70.5193
5.987679 91.614 -71.0675
6.031068 91.686 -71.6195
6.074771 91.756 -72.1750
6.118792 91.827 -72.7337
6.163131 91.896 -73.2955
6.207792 91.965 -73.8602
6.252776 92.033 -74.4279
6.298086 92.100 -74.9986
6.343725 92.167 -75.5722
6.389694 92.233 -76.1483
6.435996 92.298 -76.7262
6.482634 92.362 -77.3056
6.529610 92.426 -77.8859
6.576926 92.488 -78.4668
6.624585 92.550 -79.0482
6.672590 92.611 -79.6301
6.720942 92.671 -80.2122
6.769645 92.730 -80.7942
6.818700 92.789 -81.3754
6.868111 92.847 -81.9553
6.917881 92.904 -82.5334
6.968010 92.961 -83.1093
7.018504 93.017 -83.6830
7.069362 93.072 -84.2544
7.120590 93.127 -84.8233
7.172189 93.181 -85.3894
7.224161 93.235 -85.9523
7.276511 93.288 -86.5118
7.329239 93.342 -87.0675
7.382350 93.395 -87.6194
7.435845 93.447 -88.1676
7.489729 93.500 -88.7121
7.544002 93.553 -89.2531
7.598669 93.606 -89.7906
7.653732 93.659 -90.3247
7.709194 93.712 -90.8554
7.765058 93.765 -91.3830
7.821327 93.819 -91.9076
7.878004 93.873 -92.4298
7.935091 93.928 -92.9499
7.992592 93.983 -93.4684
8.050510 94.038 -93.9857
8.108847 94.094 -94.5021
8.167607 94.150 -95.0179
8.226793 94.207 -95.5337
8.286408 94.264 -96.0498
8.346454 94.322 -96.5669
8.406936 94.380 -97.0854
8.467856 94.438 -97.6057
8.529218 94.497 -98.1280
8.591024 94.555 -98.6526
8.653278 94.615 -99.1798
8.715983 94.674 -99.7097
8.779143 94.733 -100.2427
8.842760 94.792 -100.7787
8.906839 94.850 -101.3179
8.971381 94.909 -101.8601
9.036392 94.967 -102.4050
9.101873 95.025 -102.9525
9.167829 95.082 -103.5024
9.234263 95.138 -104.0544
9.301178 95.194 -104.6082
9.368578 95.249 -105.1633
9.436467 95.304 -105.7191
9.504847 95.358 -106.2752
9.573723 95.410 -106.8310
9.643099 95.462 -107.3862
9.712976 95.513 -107.9403
9.783361 95.564 -108.4927
9.854255 95.613 -109.0429
9.925663 95.662 -109.5904
9.997588 95.710 -110.1350
10.070035 95.757 -110.6764
10.143007 95.804 -111.2142
10.216507 95.850 -111.7484
10.290540 95.895 -112.2786
10.365109 95.940 -112.8050
10.440219 95.985 -113.3276
10.515873 96.029 -113.8465
10.592076 96.073 -114.3620
10.668830 96.117 -114.8742
10.746141 96.160 -115.3835
10.824012 96.203 -115.8901
10.902447 96.246 -116.3945
10.981451 96.289 -116.8971
11.061027 96.331 -117.3983
11.141180 96.374 -117.8983
11.221913 96.416 -118.3976
11.303232 96.457 -118.8966
11.385140 96.499 -119.3953
11.467641 96.539 -119.8942
11.550741 96.580 -120.3932
11.634442 96.620 -120.8924
11.718750 96.659 -121.3919
11.803669 96.697 -121.8916
11.889203 96.735 -122.3913
11.975357 96.772 -122.8909
12.062136 96.808 -123.3901
12.149543 96.843 -123.8886
12.237583 96.878 -124.3862
12.326262 96.912 -124.8826
12.415583 96.944 -125.3774
12.505552 96.977 -125.8704
12.596172 97.008 -126.3613
12.687449 97.038 -126.8500
12.779387 97.068 -127.3363
12.871992 97.098 -127.8202
12.965268 97.126 -128.3016
13.059220 97.155 -128.7807
13.153852 97.183 -129.2576
13.249170 97.210 -129.7325
13.345179 97.237 -130.2056
13.441884 97.264 -130.6775
13.539289 97.291 -131.1484
13.637401 97.318 -131.6187
13.736223 97.345 -132.0890
13.835761 97.371 -132.5596
13.936021 97.397 -133.0311
14.037007 97.423 -133.5039
14.138725 97.449 -133.9783
14.241180 97.475 -134.4548
14.344377 97.501 -134.9336
14.448323 97.526 -135.4150
14.553021 97.551 -135.8992
14.658478 97.576 -136.3863
14.764700 97.600 -136.8763
14.871691 97.623 -137.3692
14.979457 97.647 -137.8646
15.088005 97.669 -138.3625
15.197339 97.691 -138.8625
15.307465 97.712 -139.3642
15.418389 97.732 -139.8671
15.530117 97.752 -140.3708
15.642655 97.771 -140.8748
15.756008 97.790 -141.3784
15.870182 97.807 -141.8812
15.985184 97.825 -142.3828
16.101019 97.841 -142.8827
16.217694 97.857 -143.3807
16.335214 97.873 -143.8766
16.453586 97.889 -144.3703
16.572815 97.904 -144.8619
16.692909 97.920 -145.3516
16.813872 97.935 -145.8398
16.935713 97.950 -146.3268
17.058436 97.966 -146.8131
17.182048 97.981 -147.2992
17.306556 97.996 -147.7855
17.431967 98.012 -148.2725
17.558286 98.027 -148.7604
17.685521 98.042 -149.2493
17.813677 98.056 -149.7393
17.942762 98.070 -150.2300
18.072783 98.083 -150.7211
18.203746 98.096 -151.2121
18.335658 98.108 -151.7021
18.468526 98.119 -152.1907
18.602356 98.129 -152.6769
18.737156 98.139 -153.1601
18.872934 98.148 -153.6398
19.009695 98.156 -154.1156
19.147447 98.164 -154.5873
19.286197 98.172 -155.0549
19.425953 98.179 -155.5188
19.566721 98.186 -155.9794
19.708510 98.193 -156.4373
19.851326 98.200 -156.8932
19.995177 98.206 -157.3478
20.140070 98.213 -157.8018
20.286013 98.219 -158.2556
20.433014 98.224 -158.7098
20.581080 98.230 -159.1644
20.730219 98.234 -159.6195
20.880439 98.238 -160.0750
21.031747 98.242 -160.5305
21.184152 98.244 -160.9860
21.337661 98.246 -161.4411
21.492282 98.247 -161.8957
21.648024 98.248 -162.3496
21.804895 98.248 -162.8030
21.962902 98.247 -163.2561
22.122054 98.246 -163.7091
22.282360 98.245 -164.1624
22.443827 98.242 -164.6162
22.606464 98.240 -165.0706
22.770280 98.236 -165.5258
22.935283 98.232 -165.9817
23.101481 98.227 -166.4378
23.268884 98.221 -166.8938
23.437500 98.215 -167.3492
23.607338 98.208 -167.8033
23.778406 98.200 -168.2555
23.950714 98.191 -168.7054
24.124271 98.183 -169.1526
24.299086 98.173 -169.5970
24.475167 98.164 -170.0383
24.652524 98.154 -170.4767
24.831166 98.144 -170.9124
25.011103 98.135 -171.3457
25.192344 98.125 -171.7769
25.374898 98.115 -172.2063
25.558775 98.106 -172.6345
25.743984 98.096 -173.0618
25.930536 98.087 -173.4887
26.118439 98.078 -173.9159
26.307704 98.069 -174.3436
26.498341 98.059 -174.7724
26.690359 98.050 -175.2024
26.883768 98.040 -175.6336
27.078579 98.029 -176.0656
27.274801 98.018 -176.4975
27.472446 98.005 -176.9284
27.671522 97.992 -177.3569
27.872042 97.978 -177.7816
28.074014 97.962 -178.2014
28.277450 97.947 -178.6154
28.482360 97.930 -179.0230
28.688755 97.913 -179.4247
28.896645 97.897 -179.8211
29.106042 97.880 179.7864
29.316957 97.863 179.3962
29.529400 97.847 179.0068
29.743382 97.830 178.6168
29.958915 97.813 178.2254
30.176009 97.796 177.8323
30.394677 97.778 177.4377
30.614929 97.759 177.0423
30.836778 97.739 176.6471
31.060234 97.718 176.2529
31.285309 97.697 175.8604
31.512015 97.675 175.4700
31.740364 97.652 175.0816
31.970368 97.629 174.6947
32.202039 97.606 174.3088
32.435388 97.583 173.9233
32.670428 97.559 173.5381
32.907171 97.534 173.1530
33.145630 97.509 172.7683
33.385817 97.484 172.3846
33.627745 97.458 172.0024
33.871425 97.432 171.6226
34.116871 97.405 171.2457
34.364096 97.378 170.8719
34.613113 97.350 170.5015
34.863934 97.323 170.1346
35.116572 97.295 169.7712
35.371041 97.267 169.4112
35.627354 97.239 169.0546
35.885525 97.211 168.7015
36.145566 97.182 168.3518
36.407492 97.154 168.0053
36.671316 97.125 167.6617
36.937051 97.097 167.3205
37.204712 97.068 166.9816
37.474313 97.038 166.6448
37.745867 97.009 166.3099
38.019389 96.979 165.9772
38.294893 96.948 165.6469
38.572394 96.917 165.3189
38.851905 96.886 164.9932
39.133442 96.854 164.6691
39.417019 96.822 164.3460
39.702651 96.790 164.0230
39.990353 96.757 163.6995
40.280140 96.724 163.3751
40.572026 96.690 163.0498
40.866028 96.656 162.7241
41.162160 96.621 162.3983
41.460438 96.586 162.0730
41.760877 96.550 161.7483
42.063494 96.514 161.4247
42.368303 96.477 161.1027
42.675322 96.440 160.7828
42.984565 96.404 160.4654
43.296048 96.367 160.1505
43.609789 96.330 159.8375
43.925804 96.294 159.5255
44.244108 96.257 159.2139
44.564719 96.221 158.9027
44.887654 96.184 158.5934
45.212928 96.147 158.2882
45.540560 96.110 157.9891
45.870565 96.073 157.6962
46.202962 96.037 157.4074
46.537768 96.001 157.1186
46.875000 95.965 156.8256
47.214676 95.929 156.5269
47.556813 95.890 156.2251
47.901429 95.849 155.9264
48.248542 95.806 155.6383
48.598171 95.760 155.3665
48.950334 95.714 155.1121
49.305048 95.668 154.8716
49.662333 95.622 154.6387
50.022206 95.577 154.4078
50.384688 95.532 154.1761
50.749796 95.485 153.9445
51.117550 95.437 153.7156
51.487969 95.389 153.4924
51.861072 95.339 153.2763
52.236879 95.290 153.0665
52.615409 95.241 152.8611
52.996681 95.192 152.6577
53.380717 95.144 152.4540
53.767536 95.097 152.2482
54.157158 95.050 152.0385
54.549603 95.002 151.8242
54.944892 94.955 151.6056
55.343045 94.907 151.3839
55.744084 94.859 151.1609
56.148028 94.809 150.9391
56.554900 94.759 150.7203
56.964720 94.709 150.5064
57.377510 94.658 150.2986
57.793291 94.607 150.0973
58.212085 94.556 149.9016
58.633914 94.506 149.7102
59.058799 94.456 149.5217
59.486764 94.406 149.3357
59.917829 94.356 149.1528
60.352019 94.306 148.9743
60.789354 94.256 148.8011
61.229859 94.206 148.6329
61.673556 94.156 148.4689
62.120468 94.106 148.3082
62.570618 94.056 148.1503
63.024031 94.005 147.9954
63.480729 93.954 147.8437
63.940736 93.902 147.6963
64.404077 93.850 147.5543
64.870776 93.796 147.4189
65.340856 93.742 147.2908
65.814343 93.688 147.1693
66.291261 93.634 147.0531
66.771635 93.580 146.9400
67.255489 93.526 146.8281
67.742850 93.473 146.7158
68.233743 93.420 146.6016
68.728193 93.367 146.4845
69.226226 93.314 146.3640
69.727867 93.261 146.2403
70.233144 93.207 146.1141
70.742083 93.152 145.9876
71.254709 93.096 145.8650
71.771050 93.038 145.7516
72.291132 92.980 145.6512
72.814984 92.922 145.5638
73.342631 92.864 145.4861
73.874102 92.806 145.4133
74.409424 92.749 145.3417
74.948626 92.692 145.2695
75.491734 92.634 145.1963
76.038779 92.576 145.1219
76.589787 92.517 145.0466
77.144788 92.459 144.9707
77.703811 92.401 144.8944
78.266885 92.344 144.8184
78.834039 92.288 144.7439
79.405303 92.233 144.6728
79.980706 92.179 144.6074
80.560280 92.126 144.5497
81.144053 92.073 144.5015
81.732056 92.021 144.4645
82.324320 91.969 144.4398
82.920876 91.916 144.4279
83.521755 91.863 144.4275
84.126988 91.808 144.4365
84.736607 91.753 144.4520
85.350643 91.697 144.4709
85.969129 91.639 144.4901
86.592097 91.581 144.5071
87.219579 91.522 144.5200
87.851608 91.463 144.5276
88.488217 91.404 144.5303
89.129439 91.346 144.5294
89.775308 91.290 144.5273
90.425856 91.234 144.5267
91.081119 91.179 144.5305
91.741131 91.125 144.5414
92.405925 91.073 144.5604
93.075536 91.020 144.5878
93.750000 90.967 144.6235
94.429351 90.914 144.6674
95.113625 90.860 144.7197
95.802858 90.804 144.7811
96.497085 90.748 144.8515
97.196342 90.692 144.9286
97.900667 90.637 145.0091
98.610096 90.582 145.0892
99.324665 90.527 145.1670
100.044413 90.473 145.2440
100.769376 90.420 145.3224
101.499592 90.367 145.4031
102.235100 90.314 145.4855
102.975938 90.263 145.5688
103.722144 90.211 145.6512
104.473757 90.160 145.7334
105.230817 90.107 145.8190
105.993363 90.055 145.9102
106.761435 90.003 146.0079
107.535072 89.950 146.1142
108.314315 89.898 146.2291
109.099206 89.847 146.3501
109.889783 89.797 146.4759
110.686090 89.747 146.6050
111.488167 89.697 146.7349
112.296056 89.648 146.8658
113.109800 89.600 146.9985
113.929440 89.552 147.1312
114.755020 89.504 147.2644
115.586582 89.458 147.4001
116.424170 89.412 147.5386
117.267827 89.367 147.6816
118.117598 89.323 147.8325
118.973527 89.280 147.9907
119.835658 89.238 148.1533
120.704037 89.197 148.3163
121.578708 89.155 148.4749
122.459718 89.112 148.6270
123.347111 89.066 148.7776
124.240935 89.019 148.9355
125.141236 88.970 149.1055
126.048061 88.922 149.2866
126.961458 88.875 149.4725
127.881473 88.830 149.6577
128.808154 88.785 149.8403
129.741551 88.741 150.0225
130.681712 88.698 150.2085
131.628686 88.654 150.4023
132.582521 88.612 150.6023
133.543269 88.571 150.8046
134.510979 88.532 151.0076
135.485701 88.493 151.2102
136.467486 88.455 151.4108
137.456386 88.417 151.6090
138.452451 88.380 151.8062
139.455735 88.343 152.0023
140.466288 88.307 152.1969
141.484165 88.270 152.3932
142.509418 88.232 152.5967
143.542100 88.196 152.8083
144.582265 88.159 153.0259
145.629968 88.124 153.2487
146.685262 88.090 153.4762
147.748204 88.057 153.7048
148.818849 88.025 153.9304
149.897251 87.994 154.1544
150.983469 87.962 154.3819
152.077557 87.931 154.6133
153.179574 87.900 154.8458
154.289576 87.869 155.0811
155.407622 87.839 155.3223
156.533770 87.809 155.5656
157.668078 87.781 155.8016
158.810606 87.752 156.0272
159.961413 87.723 156.2502
161.120559 87.695 156.4755
162.288105 87.666 156.6990
163.464112 87.638 156.9197
164.648640 87.609 157.1452
165.841752 87.581 157.3830
167.043510 87.554 157.6295
168.253976 87.529 157.8714
169.473213 87.504 158.1039
170.701286 87.479 158.3382
171.938258 87.454 158.5856
173.184194 87.431 158.8432
174.439158 87.409 159.0986
175.703216 87.387 159.3450
176.976434 87.364 159.5923
178.258878 87.341 159.8575
179.550615 87.320 160.1378
180.851713 87.303 160.4100
182.162239 87.286 160.6566
183.482262 87.266 160.8859
184.811850 87.241 161.1298
186.151073 87.214 161.4187
187.500000 87.191 161.7421
188.858702 87.174 162.0496
190.227250 87.159 162.3048
191.605715 87.140 162.5214
192.994169 87.114 162.7531
194.392685 87.084 163.0579
195.801334 87.058 163.4490
197.220191 87.044 163.8673
198.649330 87.042 164.2253
200.088825 87.044 164.4715
201.538751 87.039 164.6119
202.999184 87.020 164.7089
204.470200 86.985 164.8611
205.951875 86.948 165.1438
207.444287 86.924 165.5568
208.947514 86.926 166.0423
210.461634 86.960 166.5241
211.986726 87.019 166.9207
213.522869 87.090 167.1693
215.070144 87.154 167.2740
216.628631 87.198 167.3006
218.198411 87.219 167.3097
219.779567 87.220 167.3256
221.372180 87.202 167.3719
222.976334 87.171 167.4881
224.592112 87.134 167.6885
226.219600 87.098 167.9403
227.858880 87.067 168.2018
229.510039 87.041 168.4644
231.173164 87.020 168.7391
232.848340 87.008 169.0192
234.535655 87.005 169.2789
236.235197 87.007 169.5074
237.947054 87.014 169.7187
239.671317 87.026 169.9173
241.408074 87.043 170.0768
243.157416 87.064 170.1619
244.919435 87.084 170.1673
246.694223 87.101 170.1289
248.481871 87.116 170.0977
250.282473 87.133 170.1084
252.096123 87.153 170.1682
253.922915 87.174 170.2662
255.762945 87.193 170.3907
257.616309 87.203 170.5372
259.483103 87.203 170.7062
261.363424 87.193 170.8954
263.257372 87.178 171.0947
265.165043 87.162 171.2878
267.086538 87.149 171.4596
269.021957 87.141 171.6045
270.971401 87.140 171.7272
272.934972 87.141 171.8385
274.912771 87.143 171.9486
276.904902 87.142 172.0622
278.911469 87.138 172.1778
280.932577 87.130 172.2928
282.968330 87.121 172.4089
285.018835 87.114 172.5348
287.084199 87.108 172.6790
289.164530 87.105 172.8428
291.259935 87.103 173.0176
293.370525 87.102 173.1923
295.496408 87.102 173.3604
297.637697 87.102 173.5202
299.794503 87.103 173.6724
301.966937 87.104 173.8176
304.155114 87.106 173.9568
306.359147 87.107 174.0916
308.579152 87.108 174.2229
310.815244 87.109 174.3512
313.067539 87.108 174.4762
315.336156 87.107 174.5975
317.621211 87.105 174.7152
319.922826 87.103 174.8297
322.241118 87.100 174.9419
324.576210 87.097 175.0530
326.928223 87.094 175.1645
329.297280 87.090 175.2771
331.683504 87.085 175.3908
334.087019 87.081 175.5054
336.507952 87.076 175.6209
338.946427 87.071 175.7377
341.402572 87.066 175.8564
343.876516 87.062 175.9777
346.368387 87.057 176.1014
348.878315 87.053 176.2267
351.406431 87.048 176.3527
353.952867 87.044 176.4792
356.517756 87.039 176.6066
359.101230 87.034 176.7358
361.703426 87.030 176.8672
364.324478 87.025 177.0013
366.964523 87.020 177.1381
369.623699 87.015 177.2780
372.302145 87.010 177.4219
375.000000 87.005 177.5701
377.717405 87.000 177.7227
380.454501 86.995 177.8792
383.211431 86.990 178.0391
385.988339 86.985 178.2017
388.785369 86.980 178.3669
391.602668 86.976 178.5356
394.440383 86.972 178.7086
397.298660 86.970 178.8870
400.177650 86.970 179.0707
403.077502 86.970 179.2595
405.998368 86.973 179.4517
408.940400 86.977 179.6448
411.903750 86.983 179.8357
414.888575 86.991 -179.9791
417.895028 87.000 -179.8036
420.923268 87.010 -179.6414
423.973452 87.020 -179.4953
427.045738 87.032 -179.3669
430.140287 87.044 -179.2558
433.257261 87.055 -179.1601
436.396822 87.065 -179.0771
439.559133 87.074 -179.0039
442.744360 87.082 -178.9377
445.952668 87.087 -178.8755
449.184225 87.090 -178.8145
452.439199 87.091 -178.7521
455.717760 87.091 -178.6870
459.020079 87.089 -178.6185
462.346327 87.086 -178.5469
465.696680 87.083 -178.4723
469.071310 87.078 -178.3948
472.470394 87.072 -178.3135
475.894109 87.066 -178.2265
479.342634 87.058 -178.1317
482.816148 87.050 -178.0275
486.314833 87.041 -177.9139
489.838871 87.032 -177.7921
493.388445 87.023 -177.6639
496.963741 87.015 -177.5309
500.564945 87.006 -177.3943
504.192245 86.998 -177.2556
507.845830 86.990 -177.1164
511.525890 86.981 -176.9788
515.232618 86.974 -176.8438
518.966206 86.966 -176.7108
522.726849 86.959 -176.5781
526.514743 86.953 -176.4433
530.330086 86.948 -176.3043
534.173076 86.943 -176.1598
538.043915 86.938 -176.0098
541.942803 86.934 -175.8558
545.869944 86.929 -175.6989
549.825542 86.923 -175.5398
553.809805 86.918 -175.3788
557.822939 86.914 -175.2156
561.865154 86.909 -175.0504
565.936660 86.904 -174.8835
570.037671 86.900 -174.7148
574.168399 86.896 -174.5437
578.329060 86.892 -174.3694
582.519870 86.888 -174.1917
586.741049 86.884 -174.0105
590.992817 86.881 -173.8265
595.275394 86.877 -173.6398
599.589005 86.874 -173.4507
603.933874 86.871 -173.2592
608.310228 86.867 -173.0653
612.718295 86.864 -172.8690
617.158304 86.862 -172.6704
621.630488 86.859 -172.4693
626.135079 86.857 -172.2655
630.672311 86.855 -172.0585
635.242423 86.853 -171.8482
639.845651 86.852 -171.6344
644.482237 86.851 -171.4173
649.152421 86.850 -171.1971
653.856447 86.849 -170.9737
658.594560 86.849 -170.7472
663.367008 86.849 -170.5172
668.174039 86.849 -170.2835
673.015903 86.850 -170.0459
677.892854 86.851 -169.8047
682.805145 86.853 -169.5599
687.753032 86.856 -169.3118
692.736774 86.858 -169.0605
697.756631 86.862 -168.8061
702.812863 86.865 -168.5484
707.905735 86.870 -168.2875
713.035511 86.875 -168.0232
718.202461 86.881 -167.7556
723.406852 86.887 -167.4847
728.648956 86.894 -167.2106
733.929047 86.902 -166.9332
739.247399 86.910 -166.6521
744.604290 86.919 -166.3675
750.000000 86.929 -166.0794
755.434809 86.939 -165.7880
760.909001 86.951 -165.4935
766.422861 86.963 -165.1961
771.976677 86.976 -164.8956
777.570739 86.991 -164.5921
783.205337 87.007 -164.2857
788.880766 87.023 -163.9769
794.597321 87.041 -163.6660
800.355301 87.060 -163.3531
806.155005 87.080 -163.0384
811.996736 87.101 -162.7216
817.880799 87.124 -162.4031
823.807501 87.148 -162.0831
829.777150 87.174 -161.7619
835.790057 87.201 -161.4399
841.846536 87.229 -161.1174
847.946903 87.260 -160.7948
854.091476 87.292 -160.4725
860.280575 87.325 -160.1508
866.514523 87.360 -159.8302
872.793644 87.397 -159.5110
879.118267 87.436 -159.1939
885.488720 87.477 -158.8796
891.905336 87.520 -158.5689
898.368450 87.564 -158.2624
904.878398 87.611 -157.9608
911.435520 87.660 -157.6650
918.040157 87.711 -157.3757
924.692655 87.765 -157.0943
931.393359 87.821 -156.8221
938.142619 87.880 -156.5609
944.940787 87.942 -156.3127
951.788218 88.006 -156.0802
958.685268 88.073 -155.8669
965.632296 88.143 -155.6769
972.629666 88.217 -155.5158
979.677741 88.293 -155.3900
986.776890 88.371 -155.3079
993.927482 88.450 -155.2794
1001.129891 88.530 -155.3151
1008.384491 88.606 -155.4251
1015.691660 88.677 -155.6164
1023.051781 88.736 -155.8894
1030.465236 88.780 -156.2323
1037.932411 88.802 -156.6155
1045.453698 88.797 -156.9840
1053.029486 88.764 -157.2541
1060.660172 88.708 -157.3269
1068.346153 88.643 -157.1263
1076.087829 88.587 -156.6407
1083.885605 88.557 -155.9348
1091.739887 88.561 -155.1200
1099.651084 88.599 -154.3088
1107.619609 88.664 -153.5825
1115.645878 88.747 -152.9834
1123.730308 88.842 -152.5222
1131.873321 88.941 -152.1909
1140.075341 89.042 -151.9733
1148.336797 89.142 -151.8510
1156.658119 89.240 -151.8071
1165.039741 89.336 -151.8284
1173.482099 89.428 -151.9050
1181.985634 89.515 -152.0299
1190.550789 89.595 -152.1969
1199.178011 89.667 -152.3981
1207.867749 89.729 -152.6211
1216.620457 89.780 -152.8482
1225.436590 89.818 -153.0561
1234.316609 89.846 -153.2199
1243.260976 89.866 -153.3185
1252.270157 89.882 -153.3409
1261.344623 89.900 -153.2902
1270.484846 89.922 -153.1822
1279.691303 89.953 -153.0403
1288.964474 89.991 -152.8883
1298.304842 90.037 -152.7458
1307.712894 90.090 -152.6258
1317.189120 90.147 -152.5347
1326.734016 90.206 -152.4738
1336.348077 90.268 -152.4413
1346.031806 90.330 -152.4341
1355.785708 90.392 -152.4484
1365.610290 90.454 -152.4808
1375.506065 90.515 -152.5283
1385.473549 90.575 -152.5884
1395.513261 90.634 -152.6592
1405.625726 90.692 -152.7390
1415.811469 90.750 -152.8266
1426.071023 90.807 -152.9209
1436.404921 90.863 -153.0213
1446.813703 90.918 -153.1272
1457.297912 90.973 -153.2380
1467.858093 91.027 -153.3534
1478.494798 91.080 -153.4731
1489.208581 91.133 -153.5969
1500.000000 91.185 -153.7245
1510.869618 91.237 -153.8560
1521.818002 91.289 -153.9911
1532.845723 91.340 -154.1298
1543.953355 91.390 -154.2721
1555.141477 91.440 -154.4180
1566.410674 91.490 -154.5677
1577.761531 91.540 -154.7212
1589.194642 91.589 -154.8786
1600.710601 91.638 -155.0399
1612.310010 91.687 -155.2049
1623.993473 91.735 -155.3739
1635.761599 91.783 -155.5471
1647.615002 91.831 -155.7246
1659.554299 91.879 -155.9066
1671.580114 91.926 -156.0933
1683.693072 91.973 -156.2849
1695.893807 92.019 -156.4814
1708.182952 92.065 -156.6829
1720.561150 92.111 -156.8892
1733.029045 92.156 -157.1005
1745.587288 92.201 -157.3167
1758.236533 92.245 -157.5380
1770.977440 92.289 -157.7643
1783.810673 92.332 -157.9958
1796.736900 92.375 -158.2324
1809.756796 92.416 -158.4738
1822.871040 92.458 -158.7200
1836.080315 92.498 -158.9707
1849.385310 92.538 -159.2258
1862.786718 92.578 -159.4852
1876.285239 92.616 -159.7487
1889.881575 92.654 -160.0164
1903.576436 92.690 -160.2878
1917.370535 92.726 -160.5629
1931.264593 92.761 -160.8415
1945.259332 92.795 -161.1237
1959.355483 92.829 -161.4091
1973.553781 92.861 -161.6977
1987.854965 92.892 -161.9889
2002.259781 92.923 -162.2826
2016.768981 92.952 -162.5782
2031.383320 92.980 -162.8755
2046.103561 93.008 -163.1740
2060.930471 93.034 -163.4734
2075.864823 93.058 -163.7732
2090.907395 93.082 -164.0731
2106.058972 93.105 -164.3726
2121.320344 93.126 -164.6711
2136.692305 93.147 -164.9682
2152.175658 93.166 -165.2632
2167.771210 93.184 -165.5554
2183.479774 93.202 -165.8438
2199.302169 93.218 -166.1276
2215.239219 93.233 -166.4057
2231.291755 93.247 -166.6768
2247.460615 93.261 -166.9401
2263.746641 93.273 -167.1945
2280.150683 93.286 -167.4392
2296.673595 93.298 -167.6731
2313.316238 93.310 -167.8956
2330.079481 93.323 -168.1057
2346.964198 93.336 -168.3031
2363.971268 93.351 -168.4877
2381.101578 93.368 -168.6605
2398.356022 93.387 -168.8231
2415.735498 93.410 -168.9782
2433.240913 93.435 -169.1298
2450.873180 93.465 -169.2832
2468.633217 93.499 -169.4447
2486.521951 93.537 -169.6213
2504.540314 93.578 -169.8200
2522.689246 93.623 -170.0469
2540.969692 93.670 -170.3072
2559.382606 93.718 -170.6040
2577.928947 93.766 -170.9383
2596.609683 93.812 -171.3091
2615.425787 93.857 -171.7134
2634.378241 93.898 -172.1468
2653.468031 93.935 -172.6041
2672.696154 93.968 -173.0802
2692.063613 93.998 -173.5698
2711.571415 94.023 -174.0685
2731.220579 94.045 -174.5724
2751.012130 94.063 -175.0786
2770.947098 94.079 -175.5847
2791.026522 94.091 -176.0892
2811.251451 94.101 -176.5914
2831.622938 94.108 -177.0906
2852.142045 94.114 -177.5865
2872.809842 94.118 -178.0793
2893.627406 94.120 -178.5691
2914.595823 94.121 -179.0564
2935.716186 94.121 -179.5418
2956.989596 94.119 179.9741
2978.417161 94.116 179.4908
3000.000000 94.112 179.0079
3021.739237 94.107 178.5249
3043.636005 94.101 178.0414
3065.691446 94.094 177.5571
3087.906710 94.086 177.0715
3110.282955 94.078 176.5841
3132.821347 94.069 176.0939
3155.523062 94.060 175.6000
3178.389283 94.050 175.1024
3201.421202 94.039 174.6021
3224.620020 94.026 174.1006
3247.986946 94.011 173.5985
3271.523198 93.994 173.0950
3295.230004 93.975 172.5888
3319.108599 93.954 172.0794
3343.160228 93.931 171.5664
3367.386145 93.906 171.0500
3391.787613 93.879 170.5303
3416.365904 93.849 170.0075
3441.122300 93.818 169.4819
3466.058091 93.785 168.9536
3491.174576 93.749 168.4228
3516.473066 93.711 167.8901
3541.954880 93.671 167.3560
3567.621345 93.628 166.8211
3593.473800 93.581 166.2863
3619.513592 93.532 165.7526
3645.742080 93.480 165.2214
3672.160630 93.425 164.6941
3698.770620 93.366 164.1725
3725.573436 93.304 163.6584
3752.570477 93.239 163.1537
3779.763150 93.171 162.6600
3807.152872 93.100 162.1790
3834.741071 93.026 161.7120
3862.529185 92.950 161.2597
3890.518664 92.871 160.8226
3918.710966 92.790 160.4006
3947.107561 92.707 159.9937
3975.709929 92.622 159.6015
4004.519563 92.535 159.2243
4033.537962 92.446 158.8622
4062.766641 92.355 158.5160
4092.207123 92.262 158.1862
4121.860942 92.167 157.8736
4151.729646 92.070 157.5791
4181.814790 91.972 157.3035
4212.117944 91.872 157.0472
4242.640687 91.770 156.8110
4273.384610 91.668 156.5954
4304.351317 91.563 156.4009
4335.542421 91.458 156.2279
4366.959549 91.353 156.0765
4398.604338 91.246 155.9464
4430.478438 91.139 155.8372
4462.583511 91.032 155.7485
4494.921231 90.925 155.6802
4527.493283 90.817 155.6319
4560.301365 90.709 155.6036
4593.347189 90.601 155.5951
4626.632476 90.493 155.6060
4660.158962 90.386 155.6364
4693.928395 90.278 155.6862
4727.942535 90.171 155.7552
4762.203156 90.064 155.8437
4796.712043 89.957 155.9514
4831.470996 89.851 156.0783
4866.481826 89.746 156.2244
4901.746360 89.641 156.3900
4937.266434 89.537 156.5752
4973.043902 89.434 156.7802
5009.080628 89.333 157.0051
5045.378492 89.232 157.2498
5081.939384 89.132 157.5142
5118.765212 89.035 157.7980
5155.857894 88.938 158.1007
5193.219366 88.844 158.4217
5230.851574 88.751 158.7604
5268.756481 88.660 159.1165
5306.936062 88.570 159.4898
5345.392309 88.483 159.8802
5384.127225 88.398 160.2878
5423.142830 88.314 160.7125
5462.441159 88.233 161.1539
5502.024259 88.154 161.6117
5541.894195 88.077 162.0859
5582.053045 88.003 162.5764
5622.502902 87.930 163.0836
5663.245876 87.861 163.6076
5704.284090 87.793 164.1487
5745.619684 87.729 164.7068
5787.254813 87.667 165.2823
5829.191647 87.608 165.8755
5871.432373 87.552 166.4863
5913.979192 87.499 167.1147
5956.834323 87.450 167.7601
6000.000000 87.405 168.4218
6043.478473 87.363 169.0992
6087.272010 87.326 169.7920
6131.382892 87.293 170.4998
6175.813420 87.264 171.2224
6220.565910 87.240 171.9597
6265.642695 87.221 172.7121
6311.046124 87.207 173.4798
6356.778566 87.200 174.2628
6402.842404 87.198 175.0610
6449.240040 87.203 175.8735
6495.973891 87.216 176.6992
6543.046396 87.238 177.5359
6590.460007 87.268 178.3811
6638.217197 87.308 179.2316
6686.320456 87.359 -179.9167
6734.772290 87.422 -179.0679
6783.575226 87.496 -178.2272
6832.731809 87.583 -177.4009
6882.244600 87.685 -176.5964
6932.116181 87.801 -175.8228
6982.349153 87.933 -175.0908
7032.946133 88.081 -174.4128
7083.909760 88.247 -173.8038
7135.242690 88.431 -173.2810
7186.947600 88.632 -172.8640
7239.027185 88.851 -172.5749
7291.484160 89.088 -172.4374
7344.321260 89.339 -172.4772
7397.541239 89.603 -172.7207
7451.146872 89.877 -173.1939
7505.140954 90.156 -173.9217
7559.526299 90.434 -174.9254
7614.305743 90.706 -176.2207
7669.482141 90.963 -177.8159
7725.058371 91.197 -179.7099
7781.037328 91.401 178.1095
7837.421932 91.566 175.6665
7894.215122 91.684 172.9979
7951.419859 91.747 170.1522
8009.039125 91.752 167.1884
8067.075924 91.695 164.1724
8125.533282 91.574 161.1737
8184.414245 91.392 158.2609
8243.721885 91.152 155.4976
8303.459292 90.859 152.9396
8363.629581 90.520 150.6316
8424.235888 90.144 148.6062
8485.281374 89.737 146.8836
8546.769221 89.310 145.4720
8608.702634 88.869 144.3692
8671.084842 88.421 143.5644
8733.919097 87.973 143.0409
8797.208675 87.529 142.7790
8860.956876 87.092 142.7574
8925.167022 86.667 142.9545
8989.842461 86.254 143.3486
9054.986566 85.856 143.9185
9120.602731 85.474 144.6442
9186.694378 85.107 145.5074
9253.264952 84.757 146.4919
9320.317925 84.423 147.5831
9387.856790 84.105 148.7675
9455.885071 83.804 150.0331
9524.406312 83.518 151.3691
9593.424086 83.248 152.7667
9662.941992 82.993 154.2178
9732.963653 82.752 155.7153
9803.492719 82.526 157.2529
9874.532869 82.312 158.8257
9946.087805 82.111 160.4298
10018.161257 81.922 162.0630
10090.756983 81.745 163.7239
10163.878768 81.579 165.4116
10237.530423 81.424 167.1251
10311.715789 81.281 168.8635
10386.438732 81.148 170.6250
10461.703149 81.028 172.4073
10537.512962 80.918 174.2080
10613.872125 80.820 176.0251
10690.784618 80.733 177.8575
10768.254450 80.657 179.7045
10846.285661 80.592 -178.4339
10924.882318 80.538 -176.5573
11004.048518 80.496 -174.6655
11083.788390 80.466 -172.7591
11164.106090 80.449 -170.8400
11245.005805 80.445 -168.9112
11326.491752 80.455 -166.9760
11408.568180 80.479 -165.0383
11491.239368 80.517 -163.1017
11574.509626 80.571 -161.1702
11658.383294 80.642 -159.2474
11742.864745 80.728 -157.3368
11827.958384 80.833 -155.4418
11913.668646 80.956 -153.5663
12000.000000 81.098 -151.7157
12086.956947 81.262 -149.8973
12174.544019 81.448 -148.1200
12262.765784 81.658 -146.3950
12351.626840 81.892 -144.7360
12441.131819 82.154 -143.1597
12531.285389 82.443 -141.6859
12622.092249 82.761 -140.3381
12713.557132 83.109 -139.1444
12805.684808 83.487 -138.1382
12898.480079 83.895 -137.3576
12991.947783 84.331 -136.8467
13086.092792 84.794 -136.6541
13180.920015 85.279 -136.8320
13276.434395 85.777 -137.4321
13372.640911 86.281 -138.5018
13469.544580 86.776 -140.0789
13567.150452 87.248 -142.1864
13665.463617 87.682 -144.8268
13764.489200 88.060 -147.9766
13864.232362 88.366 -151.5834
13964.698305 88.584 -155.5658
14065.892266 88.702 -159.8161
14167.819519 88.712 -164.2063
14270.485380 88.611 -168.5974
14373.895200 88.400 -172.8495
14478.054370 88.088 -176.8332
14582.968320 87.685 179.5620
14688.642520 87.206 176.4213
14795.082478 86.670 173.8029
14902.293745 86.093 171.7364
15010.281908 85.492 170.2250
15119.052599 84.884 169.2494
15228.611486 84.280 168.7732
15338.964283 83.693 168.7495
15450.116741 83.130 169.1270
15562.074656 82.598 169.8552
15674.843864 82.100 170.8874
15788.430244 81.641 172.1814
15902.839718 81.221 173.6987
16018.078250 80.843 175.4032
16134.151848 80.506 177.2615
16251.066563 80.212 179.2434
16368.828491 79.960 -178.6779
16487.443769 79.752 -176.5263
16606.918584 79.589 -174.3260
16727.259161 79.474 -172.1062
16848.471777 79.412 -169.9058
16970.562748 79.405 -167.7761
17093.538442 79.456 -165.7813
17217.405268 79.565 -163.9945
17342.169684 79.730 -162.4907
17467.838194 79.945 -161.3404
17594.417350 80.204 -160.6059
17721.913751 80.498 -160.3423
17850.334044 80.816 -160.6004
17979.684923 81.146 -161.4285
18109.973131 81.468 -162.8701
18241.205462 81.765 -164.9557
18373.388756 82.011 -167.6889
18506.529905 82.184 -171.0332
18640.635849 82.259 -174.9051
18775.713581 82.218 -179.1758
18911.770141 82.044 176.3187
19048.812624 81.729 171.7614
19186.848172 81.275 167.3361
19325.883983 80.693 163.2101
19465.927305 80.006 159.5242
19606.985439 79.260 156.3922
19749.065738 78.530 153.9109
19892.175609 77.926 152.1742
20036.322514 77.578 151.2742
