* Measurement data measured by REW V5.31.3
* Source: Headset (CX31993 HIFI AUDIO), MICROPHONE (Master Volume), R, volume: 0.400
* Format: 256k Log Swept Sine, 1 sweep at -11.9 dBFS with no timing reference
* Dated: 05 26, 25 6:02:53 PM
* REW Settings:
*  C-weighting compensation: Off
*  Target level: 75.0 dB
* Note: ; 
* Measurement: Final A5000 500 R
* Smoothing: 1/12 octave
* Frequency Step: 96 ppo
* Start Frequency: 0.36621094 Hz
*
* Freq(Hz) SPL(dB) Phase(degrees)
0.366211 34.384 -44.6936
0.368865 34.384 -44.6285
0.371538 34.383 -44.5327
0.374230 34.381 -44.4152
0.376942 34.380 -44.2838
0.379673 34.379 -44.1445
0.382424 34.377 -44.0009
0.385196 34.376 -43.8554
0.387987 34.374 -43.7093
0.390798 34.373 -43.5632
0.393630 34.371 -43.4174
0.396483 34.369 -43.2721
0.399356 34.368 -43.1272
0.402250 34.366 -42.9827
0.405165 34.365 -42.8384
0.408101 34.363 -42.6941
0.411058 34.361 -42.5498
0.414037 34.360 -42.4052
0.417037 34.358 -42.2602
0.420059 34.356 -42.1145
0.423103 34.355 -41.9680
0.426169 34.353 -41.8205
0.429257 34.351 -41.6717
0.432368 34.350 -41.5214
0.435501 34.348 -41.3693
0.438656 34.346 -41.2153
0.441835 34.344 -41.0589
0.445037 34.342 -40.9001
0.448262 34.341 -40.7384
0.451510 34.339 -40.5735
0.454782 34.337 -40.4052
0.458077 34.335 -40.2331
0.461397 34.333 -40.0568
0.464740 34.331 -39.8760
0.468108 34.330 -39.6903
0.471500 34.328 -39.4992
0.474917 34.326 -39.3024
0.478358 34.324 -39.0994
0.481825 34.322 -38.8898
0.485316 34.320 -38.6731
0.488833 34.318 -38.4487
0.492375 34.316 -38.2162
0.495943 34.314 -37.9750
0.499537 34.312 -37.7246
0.503157 34.310 -37.4643
0.506803 34.308 -37.1935
0.510475 34.306 -36.9117
0.514175 34.304 -36.6182
0.517900 34.302 -36.3122
0.521653 34.300 -35.9931
0.525434 34.298 -35.6601
0.529241 34.296 -35.3126
0.533076 34.293 -34.9497
0.536939 34.291 -34.5706
0.540830 34.289 -34.1746
0.544749 34.287 -33.7608
0.548696 34.285 -33.3284
0.552673 34.283 -32.8765
0.556677 34.280 -32.4043
0.560711 34.278 -31.9109
0.564774 34.276 -31.3954
0.568867 34.274 -30.8571
0.572989 34.271 -30.2950
0.577141 34.269 -29.7084
0.581324 34.267 -29.0964
0.585536 34.264 -28.4583
0.589779 34.262 -27.7933
0.594053 34.260 -27.1008
0.598358 34.257 -26.3802
0.602694 34.255 -25.6309
0.607061 34.252 -24.8526
0.611460 34.250 -24.0449
0.615891 34.247 -23.2076
0.620354 34.245 -22.3406
0.624849 34.242 -21.4440
0.629377 34.240 -20.5180
0.633938 34.237 -19.5631
0.638532 34.235 -18.5798
0.643159 34.232 -17.5689
0.647819 34.230 -16.5315
0.652514 34.227 -15.4687
0.657242 34.224 -14.3819
0.662005 34.222 -13.2729
0.666802 34.219 -12.1435
0.671634 34.216 -10.9957
0.676501 34.214 -9.8318
0.681403 34.211 -8.6543
0.686341 34.209 -7.4657
0.691314 34.206 -6.2687
0.696324 34.205 -5.0662
0.701370 34.204 -3.8611
0.706452 34.205 -2.6561
0.711571 34.209 -1.4543
0.716728 34.218 -0.2581
0.721921 34.235 0.9298
0.727153 34.263 2.1074
0.732422 34.307 3.2732
0.737729 34.369 4.4261
0.743075 34.448 5.5652
0.748460 34.542 6.6899
0.753883 34.648 7.7997
0.759346 34.765 8.8936
0.764849 34.890 9.9709
0.770391 35.023 11.0307
0.775974 35.164 12.0719
0.781597 35.312 13.0937
0.787261 35.466 14.0951
0.792966 35.627 15.0752
0.798712 35.794 16.0332
0.804500 35.968 16.9684
0.810329 36.148 17.8800
0.816201 36.334 18.7673
0.822116 36.526 19.6299
0.828073 36.723 20.4672
0.834074 36.927 21.2788
0.840118 37.137 22.0643
0.846206 37.352 22.8233
0.852338 37.572 23.5557
0.858514 37.797 24.2613
0.864735 38.028 24.9399
0.871001 38.263 25.5913
0.877313 38.504 26.2157
0.883670 38.748 26.8130
0.890074 38.997 27.3832
0.896524 39.250 27.9264
0.903020 39.507 28.4427
0.909564 39.768 28.9324
0.916155 40.032 29.3955
0.922794 40.299 29.8323
0.929481 40.569 30.2430
0.936216 40.841 30.6278
0.943000 41.116 30.9870
0.949834 41.392 31.3210
0.956717 41.670 31.6299
0.963649 41.950 31.9141
0.970632 42.230 32.1740
0.977666 42.511 32.4097
0.984750 42.792 32.6218
0.991886 43.073 32.8104
0.999074 43.353 32.9759
1.006314 43.632 33.1188
1.013606 43.909 33.2393
1.020951 44.184 33.3378
1.028349 44.457 33.4147
1.035801 44.727 33.4704
1.043307 44.994 33.5053
1.050867 45.256 33.5199
1.058482 45.514 33.5149
1.066152 45.768 33.4912
1.073878 46.017 33.4498
1.081660 46.260 33.3925
1.089498 46.499 33.3215
1.097393 46.734 33.2395
1.105345 46.964 33.1499
1.113355 47.193 33.0555
1.121423 47.418 32.9589
1.129549 47.643 32.8615
1.137734 47.865 32.7640
1.145979 48.087 32.6666
1.154283 48.308 32.5692
1.162647 48.527 32.4714
1.171072 48.746 32.3726
1.179558 48.963 32.2724
1.188106 49.180 32.1702
1.196715 49.396 32.0655
1.205387 49.611 31.9578
1.214122 49.825 31.8467
1.222920 50.038 31.7315
1.231782 50.250 31.6120
1.240708 50.462 31.4876
1.249699 50.673 31.3581
1.258754 50.883 31.2229
1.267876 51.092 31.0817
1.277063 51.300 30.9342
1.286318 51.508 30.7801
1.295639 51.715 30.6190
1.305027 51.922 30.4506
1.314484 52.128 30.2745
1.324009 52.333 30.0906
1.333604 52.538 29.8986
1.343268 52.742 29.6980
1.353002 52.946 29.4888
1.362806 53.150 29.2705
1.372681 53.353 29.0431
1.382628 53.556 28.8062
1.392647 53.758 28.5596
1.402739 53.961 28.3033
1.412904 54.163 28.0371
1.423142 54.365 27.7613
1.433455 54.567 27.4760
1.443843 54.769 27.1820
1.454305 54.970 26.8804
1.464844 55.171 26.5727
1.475459 55.370 26.2608
1.486150 55.569 25.9463
1.496920 55.766 25.6306
1.507767 55.961 25.3146
1.518693 56.156 24.9987
1.529698 56.348 24.6829
1.540783 56.539 24.3670
1.551948 56.729 24.0509
1.563194 56.917 23.7341
1.574521 57.103 23.4163
1.585931 57.288 23.0970
1.597423 57.472 22.7758
1.608999 57.655 22.4523
1.620658 57.836 22.1261
1.632402 58.016 21.7968
1.644232 58.195 21.4639
1.656146 58.373 21.1271
1.668147 58.551 20.7859
1.680235 58.727 20.4400
1.692411 58.903 20.0889
1.704675 59.078 19.7324
1.717028 59.253 19.3700
1.729470 59.428 19.0013
1.742003 59.602 18.6260
1.754626 59.776 18.2438
1.767341 59.949 17.8544
1.780147 60.123 17.4576
1.793047 60.297 17.0535
1.806040 60.471 16.6421
1.819128 60.644 16.2238
1.832310 60.817 15.7994
1.845587 60.990 15.3697
1.858961 61.162 14.9357
1.872432 61.333 14.4984
1.886001 61.503 14.0583
1.899667 61.671 13.6159
1.913433 61.839 13.1716
1.927299 62.005 12.7256
1.941265 62.170 12.2779
1.955332 62.334 11.8287
1.969501 62.496 11.3780
1.983773 62.658 10.9258
1.998148 62.819 10.4720
2.012627 62.979 10.0165
2.027212 63.138 9.5592
2.041902 63.296 9.1000
2.056698 63.454 8.6387
2.071602 63.611 8.1752
2.086614 63.767 7.7092
2.101734 63.923 7.2406
2.116964 64.078 6.7690
2.132304 64.233 6.2942
2.147756 64.388 5.8161
2.163320 64.542 5.3343
2.178996 64.696 4.8487
2.194786 64.849 4.3591
2.210690 65.002 3.8657
2.226710 65.153 3.3684
2.242845 65.304 2.8676
2.259098 65.454 2.3636
2.275468 65.602 1.8568
2.291957 65.750 1.3475
2.308566 65.896 0.8361
2.325295 66.041 0.3228
2.342145 66.186 -0.1919
2.359117 66.329 -0.7079
2.376212 66.471 -1.2250
2.393431 66.613 -1.7428
2.410775 66.753 -2.2614
2.428244 66.893 -2.7805
2.445840 67.032 -3.3001
2.463564 67.171 -3.8202
2.481416 67.309 -4.3409
2.499397 67.446 -4.8622
2.517509 67.583 -5.3843
2.535752 67.719 -5.9077
2.554127 67.855 -6.4326
2.572635 67.990 -6.9597
2.591277 68.124 -7.4892
2.610055 68.257 -8.0214
2.628968 68.388 -8.5564
2.648019 68.519 -9.0940
2.667208 68.649 -9.6337
2.686535 68.778 -10.1752
2.706003 68.905 -10.7181
2.725612 69.032 -11.2618
2.745363 69.158 -11.8059
2.765257 69.283 -12.3499
2.785295 69.407 -12.8935
2.805478 69.530 -13.4363
2.825808 69.653 -13.9779
2.846285 69.775 -14.5183
2.866910 69.896 -15.0572
2.887685 70.017 -15.5949
2.908611 70.137 -16.1317
2.929688 70.257 -16.6679
2.950917 70.375 -17.2043
2.972301 70.493 -17.7414
2.993839 70.610 -18.2795
3.015534 70.726 -18.8187
3.037386 70.840 -19.3588
3.059396 70.954 -19.8996
3.081565 71.067 -20.4405
3.103896 71.179 -20.9811
3.126388 71.290 -21.5210
3.149043 71.401 -22.0597
3.171862 71.511 -22.5967
3.194847 71.620 -23.1316
3.217998 71.729 -23.6643
3.241317 71.837 -24.1944
3.264805 71.945 -24.7221
3.288463 72.052 -25.2477
3.312293 72.159 -25.7715
3.336295 72.264 -26.2941
3.360471 72.370 -26.8159
3.384822 72.474 -27.3371
3.409350 72.577 -27.8577
3.434056 72.680 -28.3777
3.458940 72.782 -28.8967
3.484005 72.884 -29.4146
3.509252 72.985 -29.9310
3.534681 73.085 -30.4455
3.560295 73.185 -30.9580
3.586094 73.285 -31.4682
3.612081 73.384 -31.9759
3.638255 73.484 -32.4811
3.664620 73.582 -32.9840
3.691175 73.681 -33.4848
3.717923 73.779 -33.9838
3.744864 73.876 -34.4812
3.772001 73.974 -34.9773
3.799335 74.070 -35.4721
3.826866 74.166 -35.9659
3.854597 74.262 -36.4585
3.882529 74.358 -36.9501
3.910664 74.453 -37.4406
3.939002 74.548 -37.9300
3.967546 74.643 -38.4183
3.996296 74.738 -38.9056
4.025255 74.833 -39.3917
4.054423 74.928 -39.8768
4.083804 75.023 -40.3610
4.113396 75.117 -40.8445
4.143204 75.211 -41.3273
4.173227 75.305 -41.8098
4.203468 75.399 -42.2921
4.233928 75.493 -42.7746
4.264609 75.586 -43.2574
4.295512 75.679 -43.7409
4.326639 75.773 -44.2251
4.357992 75.866 -44.7103
4.389572 75.959 -45.1965
4.421380 76.052 -45.6838
4.453419 76.145 -46.1723
4.485691 76.237 -46.6618
4.518196 76.330 -47.1526
4.550936 76.422 -47.6447
4.583914 76.514 -48.1383
4.617131 76.606 -48.6336
4.650589 76.698 -49.1308
4.684289 76.789 -49.6301
4.718233 76.880 -50.1318
4.752424 76.971 -50.6360
4.786862 77.061 -51.1429
4.821549 77.151 -51.6526
4.856488 77.241 -52.1649
4.891680 77.330 -52.6798
4.927127 77.419 -53.1972
4.962831 77.508 -53.7169
4.998794 77.596 -54.2388
5.035017 77.683 -54.7628
5.071503 77.770 -55.2891
5.108253 77.856 -55.8177
5.145270 77.941 -56.3489
5.182555 78.026 -56.8828
5.220110 78.110 -57.4194
5.257937 78.194 -57.9584
5.296038 78.276 -58.4995
5.334415 78.358 -59.0423
5.373071 78.440 -59.5861
5.412006 78.520 -60.1308
5.451224 78.600 -60.6761
5.490725 78.678 -61.2221
5.530514 78.756 -61.7689
5.570590 78.833 -62.3165
5.610957 78.909 -62.8650
5.651616 78.984 -63.4138
5.692570 79.059 -63.9626
5.733821 79.132 -64.5106
5.775370 79.205 -65.0573
5.817221 79.277 -65.6024
5.859375 79.348 -66.1457
5.901834 79.418 -66.6872
5.944602 79.488 -67.2270
5.987679 79.556 -67.7651
6.031068 79.624 -68.3012
6.074771 79.691 -68.8350
6.118792 79.758 -69.3660
6.163131 79.824 -69.8938
6.207792 79.889 -70.4181
6.252776 79.954 -70.9388
6.298086 80.019 -71.4561
6.343725 80.083 -71.9700
6.389694 80.147 -72.4807
6.435996 80.210 -72.9881
6.482634 80.273 -73.4922
6.529610 80.336 -73.9930
6.576926 80.399 -74.4903
6.624585 80.462 -74.9843
6.672590 80.525 -75.4751
6.720942 80.588 -75.9628
6.769645 80.651 -76.4480
6.818700 80.713 -76.9309
6.868111 80.776 -77.4118
6.917881 80.840 -77.8912
6.968010 80.903 -78.3691
7.018504 80.967 -78.8457
7.069362 81.031 -79.3214
7.120590 81.095 -79.7965
7.172189 81.159 -80.2715
7.224161 81.224 -80.7467
7.276511 81.289 -81.2228
7.329239 81.354 -81.6999
7.382350 81.419 -82.1783
7.435845 81.484 -82.6583
7.489729 81.549 -83.1400
7.544002 81.615 -83.6236
7.598669 81.680 -84.1095
7.653732 81.746 -84.5979
7.709194 81.811 -85.0890
7.765058 81.876 -85.5828
7.821327 81.941 -86.0795
7.878004 82.006 -86.5789
7.935091 82.071 -87.0810
7.992592 82.135 -87.5856
8.050510 82.199 -88.0928
8.108847 82.262 -88.6025
8.167607 82.325 -89.1145
8.226793 82.387 -89.6288
8.286408 82.449 -90.1449
8.346454 82.511 -90.6626
8.406936 82.571 -91.1815
8.467856 82.631 -91.7016
8.529218 82.691 -92.2227
8.591024 82.750 -92.7444
8.653278 82.808 -93.2666
8.715983 82.865 -93.7888
8.779143 82.922 -94.3109
8.842760 82.979 -94.8326
8.906839 83.034 -95.3537
8.971381 83.090 -95.8742
9.036392 83.144 -96.3939
9.101873 83.198 -96.9125
9.167829 83.252 -97.4300
9.234263 83.305 -97.9461
9.301178 83.357 -98.4610
9.368578 83.409 -98.9745
9.436467 83.461 -99.4865
9.504847 83.512 -99.9971
9.573723 83.562 -100.5061
9.643099 83.613 -101.0135
9.712976 83.662 -101.5194
9.783361 83.712 -102.0236
9.854255 83.761 -102.5262
9.925663 83.809 -103.0270
9.997588 83.857 -103.5262
10.070035 83.905 -104.0236
10.143007 83.952 -104.5192
10.216507 83.999 -105.0130
10.290540 84.046 -105.5049
10.365109 84.092 -105.9951
10.440219 84.139 -106.4834
10.515873 84.184 -106.9700
10.592076 84.230 -107.4548
10.668830 84.275 -107.9381
10.746141 84.320 -108.4199
10.824012 84.365 -108.9004
10.902447 84.410 -109.3798
10.981451 84.454 -109.8584
11.061027 84.499 -110.3365
11.141180 84.543 -110.8143
11.221913 84.587 -111.2921
11.303232 84.631 -111.7703
11.385140 84.674 -112.2492
11.467641 84.718 -112.7291
11.550741 84.761 -113.2101
11.634442 84.803 -113.6925
11.718750 84.846 -114.1764
11.803669 84.887 -114.6618
11.889203 84.928 -115.1487
11.975357 84.969 -115.6369
12.062136 85.008 -116.1260
12.149543 85.047 -116.6158
12.237583 85.085 -117.1058
12.326262 85.121 -117.5955
12.415583 85.157 -118.0841
12.505552 85.192 -118.5711
12.596172 85.226 -119.0558
12.687449 85.259 -119.5377
12.779387 85.292 -120.0160
12.871992 85.323 -120.4903
12.965268 85.354 -120.9602
13.059220 85.384 -121.4256
13.153852 85.415 -121.8864
13.249170 85.444 -122.3428
13.345179 85.474 -122.7950
13.441884 85.504 -123.2437
13.539289 85.534 -123.6896
13.637401 85.565 -124.1335
13.736223 85.595 -124.5765
13.835761 85.626 -125.0195
13.936021 85.657 -125.4638
14.037007 85.688 -125.9101
14.138725 85.720 -126.3595
14.241180 85.751 -126.8125
14.344377 85.782 -127.2698
14.448323 85.813 -127.7313
14.553021 85.843 -128.1970
14.658478 85.872 -128.6665
14.764700 85.901 -129.1392
14.871691 85.928 -129.6140
14.979457 85.954 -130.0897
15.088005 85.979 -130.5651
15.197339 86.002 -131.0388
15.307465 86.025 -131.5096
15.418389 86.046 -131.9762
15.530117 86.067 -132.4377
15.642655 86.087 -132.8934
15.756008 86.107 -133.3432
15.870182 86.127 -133.7869
15.985184 86.147 -134.2253
16.101019 86.167 -134.6593
16.217694 86.188 -135.0900
16.335214 86.210 -135.5190
16.453586 86.232 -135.9480
16.572815 86.255 -136.3785
16.692909 86.278 -136.8121
16.813872 86.302 -137.2500
16.935713 86.326 -137.6930
17.058436 86.349 -138.1416
17.182048 86.372 -138.5955
17.306556 86.395 -139.0541
17.431967 86.416 -139.5163
17.558286 86.436 -139.9805
17.685521 86.455 -140.4449
17.813677 86.472 -140.9076
17.942762 86.488 -141.3668
18.072783 86.504 -141.8209
18.203746 86.518 -142.2688
18.335658 86.533 -142.7099
18.468526 86.547 -143.1443
18.602356 86.561 -143.5727
18.737156 86.576 -143.9964
18.872934 86.591 -144.4173
19.009695 86.607 -144.8373
19.147447 86.623 -145.2586
19.286197 86.640 -145.6830
19.425953 86.657 -146.1119
19.566721 86.673 -146.5457
19.708510 86.689 -146.9844
19.851326 86.704 -147.4266
19.995177 86.717 -147.8705
20.140070 86.728 -148.3133
20.286013 86.737 -148.7519
20.433014 86.745 -149.1834
20.581080 86.752 -149.6049
20.730219 86.758 -150.0148
20.880439 86.764 -150.4122
21.031747 86.771 -150.7978
21.184152 86.779 -151.1739
21.337661 86.788 -151.5440
21.492282 86.800 -151.9129
21.648024 86.813 -152.2858
21.804895 86.828 -152.6681
21.962902 86.845 -153.0643
22.122054 86.862 -153.4777
22.282360 86.878 -153.9099
22.443827 86.892 -154.3604
22.606464 86.904 -154.8264
22.770280 86.912 -155.3034
22.935283 86.917 -155.7855
23.101481 86.917 -156.2657
23.268884 86.913 -156.7375
23.437500 86.907 -157.1947
23.607338 86.897 -157.6329
23.778406 86.887 -158.0496
23.950714 86.876 -158.4445
24.124271 86.865 -158.8198
24.299086 86.856 -159.1791
24.475167 86.850 -159.5276
24.652524 86.845 -159.8707
24.831166 86.842 -160.2135
25.011103 86.840 -160.5602
25.192344 86.840 -160.9133
25.374898 86.840 -161.2737
25.558775 86.839 -161.6409
25.743984 86.838 -162.0132
25.930536 86.837 -162.3885
26.118439 86.834 -162.7646
26.307704 86.831 -163.1397
26.498341 86.827 -163.5129
26.690359 86.823 -163.8839
26.883768 86.819 -164.2533
27.078579 86.815 -164.6218
27.274801 86.811 -164.9901
27.472446 86.806 -165.3585
27.671522 86.801 -165.7268
27.872042 86.796 -166.0943
28.074014 86.790 -166.4600
28.277450 86.784 -166.8227
28.482360 86.777 -167.1817
28.688755 86.771 -167.5370
28.896645 86.764 -167.8891
29.106042 86.758 -168.2394
29.316957 86.753 -168.5898
29.529400 86.747 -168.9423
29.743382 86.742 -169.2984
29.958915 86.736 -169.6588
30.176009 86.729 -170.0234
30.394677 86.721 -170.3908
30.614929 86.712 -170.7590
30.836778 86.701 -171.1250
31.060234 86.689 -171.4862
31.285309 86.676 -171.8405
31.512015 86.662 -172.1866
31.740364 86.649 -172.5247
31.970368 86.635 -172.8565
32.202039 86.622 -173.1846
32.435388 86.610 -173.5122
32.670428 86.597 -173.8424
32.907171 86.585 -174.1772
33.145630 86.573 -174.5168
33.385817 86.559 -174.8597
33.627745 86.544 -175.2028
33.871425 86.527 -175.5419
34.116871 86.509 -175.8729
34.364096 86.490 -176.1929
34.613113 86.472 -176.5014
34.863934 86.454 -176.7999
35.116572 86.438 -177.0927
35.371041 86.424 -177.3851
35.627354 86.412 -177.6825
35.885525 86.400 -177.9887
36.145566 86.388 -178.3053
36.407492 86.376 -178.6313
36.671316 86.362 -178.9634
36.937051 86.347 -179.2969
37.204712 86.329 -179.6272
37.474313 86.311 -179.9510
37.745867 86.291 179.7339
38.019389 86.272 179.4277
38.294893 86.252 179.1296
38.572394 86.232 178.8384
38.851905 86.213 178.5530
39.133442 86.194 178.2726
39.417019 86.175 177.9963
39.702651 86.156 177.7235
39.990353 86.138 177.4530
40.280140 86.120 177.1831
40.572026 86.102 176.9122
40.866028 86.084 176.6390
41.162160 86.066 176.3634
41.460438 86.047 176.0861
41.760877 86.027 175.8088
42.063494 86.006 175.5337
42.368303 85.983 175.2624
42.675322 85.961 174.9961
42.984565 85.937 174.7351
43.296048 85.914 174.4794
43.609789 85.890 174.2287
43.925804 85.866 173.9826
44.244108 85.843 173.7405
44.564719 85.820 173.5009
44.887654 85.798 173.2612
45.212928 85.776 173.0185
45.540560 85.755 172.7698
45.870565 85.734 172.5140
46.202962 85.712 172.2522
46.537768 85.689 171.9877
46.875000 85.664 171.7246
47.214676 85.639 171.4665
47.556813 85.613 171.2144
47.901429 85.588 170.9669
48.248542 85.563 170.7206
48.598171 85.538 170.4729
48.950334 85.513 170.2231
49.305048 85.487 169.9726
49.662333 85.461 169.7248
50.022206 85.433 169.4826
50.384688 85.405 169.2474
50.749796 85.377 169.0188
51.117550 85.349 168.7951
51.487969 85.321 168.5748
51.861072 85.293 168.3575
52.236879 85.265 168.1434
52.615409 85.236 167.9334
52.996681 85.208 167.7276
53.380717 85.179 167.5251
53.767536 85.151 167.3244
54.157158 85.122 167.1239
54.549603 85.094 166.9227
54.944892 85.065 166.7210
55.343045 85.035 166.5197
55.744084 85.006 166.3191
56.148028 84.976 166.1188
56.554900 84.947 165.9176
56.964720 84.918 165.7139
57.377510 84.888 165.5076
57.793291 84.858 165.3008
58.212085 84.827 165.0972
58.633914 84.796 164.9005
59.058799 84.765 164.7125
59.486764 84.735 164.5327
59.917829 84.706 164.3584
60.352019 84.677 164.1874
60.789354 84.650 164.0185
61.229859 84.622 163.8515
61.673556 84.594 163.6870
62.120468 84.566 163.5249
62.570618 84.538 163.3643
63.024031 84.509 163.2035
63.480729 84.478 163.0422
63.940736 84.446 162.8820
64.404077 84.411 162.7263
64.870776 84.375 162.5778
65.340856 84.338 162.4365
65.814343 84.301 162.3000
66.291261 84.263 162.1663
66.771635 84.226 162.0357
67.255489 84.189 161.9099
67.742850 84.154 161.7874
68.233743 84.122 161.6610
68.728193 84.093 161.5201
69.226226 84.065 161.3573
69.727867 84.038 161.1735
70.233144 84.009 160.9778
70.742083 83.978 160.7838
71.254709 83.945 160.6030
71.771050 83.912 160.4420
72.291132 83.880 160.3004
72.814984 83.850 160.1724
73.342631 83.821 160.0508
73.874102 83.792 159.9301
74.409424 83.764 159.8092
74.948626 83.735 159.6892
75.491734 83.704 159.5717
76.038779 83.673 159.4572
76.589787 83.641 159.3448
77.144788 83.608 159.2335
77.703811 83.575 159.1228
78.266885 83.541 159.0132
78.834039 83.508 158.9059
79.405303 83.474 158.8018
79.980706 83.440 158.7006
80.560280 83.407 158.6026
81.144053 83.375 158.5081
81.732056 83.343 158.4172
82.324320 83.311 158.3286
82.920876 83.280 158.2402
83.521755 83.248 158.1502
84.126988 83.217 158.0583
84.736607 83.184 157.9657
85.350643 83.152 157.8733
85.969129 83.119 157.7814
86.592097 83.086 157.6897
87.219579 83.053 157.5978
87.851608 83.020 157.5062
88.488217 82.988 157.4156
89.129439 82.956 157.3268
89.775308 82.924 157.2399
90.425856 82.892 157.1550
91.081119 82.860 157.0742
91.741131 82.826 157.0009
92.405925 82.793 156.9365
93.075536 82.760 156.8787
93.750000 82.726 156.8236
94.429351 82.693 156.7681
95.113625 82.660 156.7108
95.802858 82.626 156.6513
96.497085 82.592 156.5907
97.196342 82.557 156.5305
97.900667 82.523 156.4721
98.610096 82.489 156.4158
99.324665 82.455 156.3613
100.044413 82.422 156.3082
100.769376 82.390 156.2560
101.499592 82.358 156.2041
102.235100 82.326 156.1514
102.975938 82.294 156.0969
103.722144 82.261 156.0398
104.473757 82.229 155.9803
105.230817 82.195 155.9209
105.993363 82.161 155.8653
106.761435 82.127 155.8165
107.535072 82.093 155.7758
108.314315 82.059 155.7425
109.099206 82.026 155.7149
109.889783 81.994 155.6911
110.686090 81.962 155.6699
111.488167 81.931 155.6507
112.296056 81.900 155.6336
113.109800 81.869 155.6187
113.929440 81.839 155.6065
114.755020 81.809 155.5974
115.586582 81.780 155.5910
116.424170 81.750 155.5861
117.267827 81.720 155.5804
118.117598 81.690 155.5685
118.973527 81.658 155.5438
119.835658 81.624 155.5035
120.704037 81.587 155.4542
121.578708 81.547 155.4067
122.459718 81.507 155.3679
123.347111 81.468 155.3391
124.240935 81.432 155.3198
125.141236 81.400 155.3075
126.048061 81.371 155.3004
126.961458 81.344 155.2989
127.881473 81.318 155.3062
128.808154 81.291 155.3239
129.741551 81.263 155.3499
130.681712 81.233 155.3802
131.628686 81.201 155.4111
132.582521 81.167 155.4374
133.543269 81.132 155.4538
134.510979 81.097 155.4580
135.485701 81.061 155.4520
136.467486 81.027 155.4405
137.456386 80.994 155.4286
138.452451 80.962 155.4202
139.455735 80.932 155.4176
140.466288 80.902 155.4219
141.484165 80.873 155.4324
142.509418 80.844 155.4476
143.542100 80.814 155.4664
144.582265 80.783 155.4883
145.629968 80.752 155.5123
146.685262 80.721 155.5367
147.748204 80.690 155.5602
148.818849 80.661 155.5822
149.897251 80.631 155.6026
150.983469 80.602 155.6214
152.077557 80.573 155.6400
153.179574 80.543 155.6599
154.289576 80.513 155.6819
155.407622 80.483 155.7062
156.533770 80.453 155.7330
157.668078 80.423 155.7615
158.810606 80.393 155.7903
159.961413 80.364 155.8193
161.120559 80.336 155.8507
162.288105 80.308 155.8858
163.464112 80.280 155.9249
164.648640 80.252 155.9673
165.841752 80.223 156.0121
167.043510 80.195 156.0578
168.253976 80.166 156.1023
169.473213 80.137 156.1440
170.701286 80.107 156.1833
171.938258 80.077 156.2222
173.184194 80.047 156.2617
174.439158 80.016 156.3016
175.703216 79.986 156.3416
176.976434 79.956 156.3827
178.258878 79.927 156.4272
179.550615 79.898 156.4768
180.851713 79.869 156.5325
182.162239 79.840 156.5941
183.482262 79.811 156.6594
184.811850 79.783 156.7245
186.151073 79.755 156.7847
187.500000 79.727 156.8379
188.858702 79.698 156.8858
190.227250 79.668 156.9329
191.605715 79.637 156.9824
192.994169 79.606 157.0343
194.392685 79.575 157.0873
195.801334 79.545 157.1423
197.220191 79.516 157.2011
198.649330 79.489 157.2627
200.088825 79.461 157.3235
201.538751 79.432 157.3832
202.999184 79.401 157.4455
204.470200 79.369 157.5139
205.951875 79.339 157.5875
207.444287 79.311 157.6647
208.947514 79.286 157.7468
210.461634 79.262 157.8368
211.986726 79.238 157.9359
213.522869 79.214 158.0410
215.070144 79.191 158.1454
216.628631 79.169 158.2407
218.198411 79.150 158.3229
219.779567 79.132 158.3960
221.372180 79.116 158.4685
222.976334 79.099 158.5481
224.592112 79.080 158.6393
226.219600 79.060 158.7438
227.858880 79.038 158.8560
229.510039 79.017 158.9631
231.173164 78.997 159.0551
232.848340 78.978 159.1338
234.535655 78.960 159.2094
236.235197 78.942 159.2910
237.947054 78.923 159.3802
239.671317 78.900 159.4720
241.408074 78.874 159.5615
243.157416 78.845 159.6475
244.919435 78.814 159.7296
246.694223 78.784 159.8070
248.481871 78.757 159.8794
250.282473 78.733 159.9468
252.096123 78.711 160.0107
253.922915 78.690 160.0736
255.762945 78.669 160.1392
257.616309 78.648 160.2097
259.483103 78.625 160.2865
261.363424 78.602 160.3694
263.257372 78.578 160.4566
265.165043 78.554 160.5454
267.086538 78.531 160.6336
269.021957 78.508 160.7204
270.971401 78.485 160.8063
272.934972 78.461 160.8916
274.912771 78.435 160.9774
276.904902 78.409 161.0661
278.911469 78.382 161.1615
280.932577 78.356 161.2670
282.968330 78.331 161.3814
285.018835 78.307 161.4962
287.084199 78.284 161.5987
289.164530 78.261 161.6808
291.259935 78.239 161.7460
293.370525 78.217 161.8056
295.496408 78.194 161.8699
297.637697 78.172 161.9435
299.794503 78.149 162.0263
301.966937 78.126 162.1172
304.155114 78.102 162.2148
306.359147 78.079 162.3167
308.579152 78.055 162.4193
310.815244 78.031 162.5201
313.067539 78.008 162.6188
315.336156 77.985 162.7169
317.621211 77.962 162.8162
319.922826 77.938 162.9180
322.241118 77.915 163.0225
324.576210 77.892 163.1293
326.928223 77.868 163.2382
329.297280 77.845 163.3491
331.683504 77.821 163.4628
334.087019 77.798 163.5792
336.507952 77.775 163.6979
338.946427 77.752 163.8177
341.402572 77.728 163.9377
343.876516 77.705 164.0568
346.368387 77.682 164.1751
348.878315 77.658 164.2935
351.406431 77.635 164.4124
353.952867 77.612 164.5323
356.517756 77.590 164.6528
359.101230 77.567 164.7740
361.703426 77.546 164.8961
364.324478 77.524 165.0198
366.964523 77.502 165.1459
369.623699 77.480 165.2749
372.302145 77.458 165.4066
375.000000 77.436 165.5405
377.717405 77.414 165.6755
380.454501 77.391 165.8116
383.211431 77.368 165.9485
385.988339 77.345 166.0859
388.785369 77.322 166.2239
391.602668 77.298 166.3632
394.440383 77.275 166.5044
397.298660 77.253 166.6480
400.177650 77.230 166.7937
403.077502 77.208 166.9400
405.998368 77.187 167.0859
408.940400 77.166 167.2315
411.903750 77.146 167.3770
414.888575 77.126 167.5225
417.895028 77.106 167.6679
420.923268 77.085 167.8141
423.973452 77.063 167.9623
427.045738 77.042 168.1131
430.140287 77.020 168.2664
433.257261 76.998 168.4216
436.396822 76.976 168.5786
439.559133 76.955 168.7374
442.744360 76.933 168.8978
445.952668 76.912 169.0599
449.184225 76.890 169.2244
452.439199 76.869 169.3921
455.717760 76.847 169.5628
459.020079 76.826 169.7356
462.346327 76.806 169.9084
465.696680 76.785 170.0791
469.071310 76.765 170.2463
472.470394 76.746 170.4106
475.894109 76.726 170.5746
479.342634 76.707 170.7422
482.816148 76.688 170.9175
486.314833 76.668 171.1031
489.838871 76.648 171.2985
493.388445 76.628 171.5000
496.963741 76.607 171.7013
500.564945 76.586 171.8977
504.192245 76.564 172.0890
507.845830 76.541 172.2782
511.525890 76.518 172.4694
515.232618 76.496 172.6651
518.966206 76.475 172.8659
522.726849 76.454 173.0717
526.514743 76.434 173.2824
530.330086 76.414 173.4978
534.173076 76.393 173.7178
538.043915 76.373 173.9413
541.942803 76.354 174.1669
545.869944 76.335 174.3937
549.825542 76.318 174.6215
553.809805 76.301 174.8502
557.822939 76.284 175.0819
561.865154 76.267 175.3190
565.936660 76.250 175.5620
570.037671 76.232 175.8084
574.168399 76.216 176.0532
578.329060 76.199 176.2928
582.519870 76.183 176.5287
586.741049 76.166 176.7654
590.992817 76.149 177.0060
595.275394 76.132 177.2510
599.589005 76.116 177.4996
603.933874 76.100 177.7518
608.310228 76.085 178.0078
612.718295 76.070 178.2671
617.158304 76.055 178.5278
621.630488 76.040 178.7881
626.135079 76.025 179.0480
630.672311 76.010 179.3090
635.242423 75.994 179.5726
639.845651 75.978 179.8396
644.482237 75.962 -179.8894
649.152421 75.946 -179.6137
653.856447 75.931 -179.3326
658.594560 75.916 -179.0460
663.367008 75.903 -178.7556
668.174039 75.890 -178.4633
673.015903 75.877 -178.1689
677.892854 75.864 -177.8692
682.805145 75.852 -177.5605
687.753032 75.841 -177.2408
692.736774 75.830 -176.9107
697.756631 75.821 -176.5727
702.812863 75.813 -176.2298
707.905735 75.805 -175.8843
713.035511 75.798 -175.5376
718.202461 75.791 -175.1897
723.406852 75.784 -174.8404
728.648956 75.778 -174.4898
733.929047 75.773 -174.1377
739.247399 75.768 -173.7833
744.604290 75.765 -173.4257
750.000000 75.762 -173.0649
755.434809 75.759 -172.7011
760.909001 75.758 -172.3345
766.422861 75.757 -171.9646
771.976677 75.757 -171.5911
777.570739 75.758 -171.2139
783.205337 75.760 -170.8333
788.880766 75.762 -170.4496
794.597321 75.766 -170.0629
800.355301 75.771 -169.6729
806.155005 75.777 -169.2793
811.996736 75.785 -168.8819
817.880799 75.794 -168.4811
823.807501 75.804 -168.0781
829.777150 75.815 -167.6741
835.790057 75.828 -167.2699
841.846536 75.843 -166.8657
847.946903 75.859 -166.4615
854.091476 75.877 -166.0572
860.280575 75.897 -165.6531
866.514523 75.918 -165.2495
872.793644 75.940 -164.8470
879.118267 75.965 -164.4463
885.488720 75.992 -164.0481
891.905336 76.020 -163.6526
898.368450 76.050 -163.2598
904.878398 76.082 -162.8699
911.435520 76.116 -162.4836
918.040157 76.152 -162.1018
924.692655 76.191 -161.7257
931.393359 76.233 -161.3568
938.142619 76.277 -160.9976
944.940787 76.325 -160.6512
951.788218 76.376 -160.3210
958.685268 76.430 -160.0104
965.632296 76.488 -159.7242
972.629666 76.549 -159.4699
979.677741 76.614 -159.2595
986.776890 76.682 -159.1079
993.927482 76.752 -159.0328
1001.129891 76.821 -159.0525
1008.384491 76.883 -159.1835
1015.691660 76.933 -159.4333
1023.051781 76.962 -159.7889
1030.465236 76.958 -160.2033
1037.932411 76.917 -160.5865
1045.453698 76.838 -160.8125
1053.029486 76.731 -160.7507
1060.660172 76.616 -160.3208
1068.346153 76.520 -159.5392
1076.087829 76.461 -158.5182
1083.885605 76.448 -157.4135
1091.739887 76.477 -156.3611
1099.651084 76.538 -155.4446
1107.619609 76.620 -154.6947
1115.645878 76.714 -154.1060
1123.730308 76.811 -153.6554
1131.873321 76.909 -153.3153
1140.075341 77.005 -153.0613
1148.336797 77.098 -152.8745
1156.658119 77.187 -152.7418
1165.039741 77.273 -152.6554
1173.482099 77.355 -152.6121
1181.985634 77.432 -152.6123
1190.550789 77.503 -152.6582
1199.178011 77.566 -152.7514
1207.867749 77.619 -152.8902
1216.620457 77.661 -153.0657
1225.436590 77.687 -153.2593
1234.316609 77.696 -153.4416
1243.260976 77.688 -153.5756
1252.270157 77.666 -153.6237
1261.344623 77.635 -153.5578
1270.484846 77.601 -153.3680
1279.691303 77.571 -153.0651
1288.964474 77.550 -152.6763
1298.304842 77.542 -152.2362
1307.712894 77.546 -151.7785
1317.189120 77.563 -151.3303
1326.734016 77.588 -150.9094
1336.348077 77.621 -150.5244
1346.031806 77.659 -150.1774
1355.785708 77.700 -149.8657
1365.610290 77.743 -149.5843
1375.506065 77.787 -149.3281
1385.473549 77.830 -149.0922
1395.513261 77.873 -148.8723
1405.625726 77.915 -148.6649
1415.811469 77.956 -148.4668
1426.071023 77.996 -148.2755
1436.404921 78.035 -148.0895
1446.813703 78.073 -147.9075
1457.297912 78.111 -147.7286
1467.858093 78.147 -147.5517
1478.494798 78.183 -147.3754
1489.208581 78.218 -147.1986
1500.000000 78.252 -147.0200
1510.869618 78.286 -146.8389
1521.818002 78.319 -146.6551
1532.845723 78.352 -146.4686
1543.953355 78.385 -146.2796
1555.141477 78.417 -146.0882
1566.410674 78.449 -145.8948
1577.761531 78.481 -145.6992
1589.194642 78.513 -145.5009
1600.710601 78.544 -145.2990
1612.310010 78.575 -145.0931
1623.993473 78.606 -144.8831
1635.761599 78.637 -144.6692
1647.615002 78.668 -144.4516
1659.554299 78.699 -144.2299
1671.580114 78.730 -144.0038
1683.693072 78.762 -143.7728
1695.893807 78.793 -143.5364
1708.182952 78.824 -143.2941
1720.561150 78.856 -143.0452
1733.029045 78.888 -142.7892
1745.587288 78.919 -142.5263
1758.236533 78.952 -142.2562
1770.977440 78.984 -141.9785
1783.810673 79.017 -141.6930
1796.736900 79.050 -141.3990
1809.756796 79.084 -141.0955
1822.871040 79.118 -140.7815
1836.080315 79.152 -140.4552
1849.385310 79.188 -140.1145
1862.786718 79.224 -139.7571
1876.285239 79.263 -139.3817
1889.881575 79.304 -138.9875
1903.576436 79.347 -138.5756
1917.370535 79.394 -138.1480
1931.264593 79.444 -137.7080
1945.259332 79.499 -137.2597
1959.355483 79.558 -136.8072
1973.553781 79.622 -136.3542
1987.854965 79.690 -135.9034
2002.259781 79.763 -135.4559
2016.768981 79.839 -135.0118
2031.383320 79.920 -134.5712
2046.103561 80.006 -134.1359
2060.930471 80.097 -133.7099
2075.864823 80.194 -133.2998
2090.907395 80.296 -132.9145
2106.058972 80.405 -132.5636
2121.320344 80.518 -132.2567
2136.692305 80.634 -132.0012
2152.175658 80.750 -131.8004
2167.771210 80.866 -131.6531
2183.479774 80.979 -131.5533
2199.302169 81.087 -131.4912
2215.239219 81.191 -131.4557
2231.291755 81.290 -131.4356
2247.460615 81.385 -131.4210
2263.746641 81.476 -131.4043
2280.150683 81.564 -131.3806
2296.673595 81.650 -131.3474
2313.316238 81.735 -131.3041
2330.079481 81.820 -131.2516
2346.964198 81.905 -131.1911
2363.971268 81.991 -131.1244
2381.101578 82.077 -131.0535
2398.356022 82.165 -130.9805
2415.735498 82.255 -130.9078
2433.240913 82.345 -130.8373
2450.873180 82.437 -130.7706
2468.633217 82.531 -130.7087
2486.521951 82.625 -130.6526
2504.540314 82.721 -130.6027
2522.689246 82.818 -130.5591
2540.969692 82.916 -130.5220
2559.382606 83.015 -130.4918
2577.928947 83.116 -130.4697
2596.609683 83.218 -130.4566
2615.425787 83.322 -130.4541
2634.378241 83.427 -130.4634
2653.468031 83.534 -130.4860
2672.696154 83.642 -130.5233
2692.063613 83.751 -130.5762
2711.571415 83.860 -130.6456
2731.220579 83.971 -130.7321
2751.012130 84.082 -130.8358
2770.947098 84.193 -130.9568
2791.026522 84.304 -131.0946
2811.251451 84.416 -131.2490
2831.622938 84.527 -131.4193
2852.142045 84.638 -131.6048
2872.809842 84.749 -131.8054
2893.627406 84.860 -132.0209
2914.595823 84.971 -132.2508
2935.716186 85.082 -132.4945
2956.989596 85.192 -132.7513
2978.417161 85.304 -133.0206
3000.000000 85.415 -133.3022
3021.739237 85.528 -133.5966
3043.636005 85.641 -133.9039
3065.691446 85.755 -134.2234
3087.906710 85.870 -134.5550
3110.282955 85.985 -134.9002
3132.821347 86.102 -135.2627
3155.523062 86.220 -135.6481
3178.389283 86.340 -136.0626
3201.421202 86.460 -136.5119
3224.620020 86.582 -137.0010
3247.986946 86.703 -137.5337
3271.523198 86.823 -138.1123
3295.230004 86.940 -138.7375
3319.108599 87.055 -139.4086
3343.160228 87.166 -140.1232
3367.386145 87.272 -140.8778
3391.787613 87.372 -141.6680
3416.365904 87.467 -142.4898
3441.122300 87.556 -143.3393
3466.058091 87.639 -144.2132
3491.174576 87.716 -145.1085
3516.473066 87.786 -146.0221
3541.954880 87.850 -146.9512
3567.621345 87.908 -147.8928
3593.473800 87.959 -148.8441
3619.513592 88.004 -149.8025
3645.742080 88.042 -150.7658
3672.160630 88.073 -151.7316
3698.770620 88.098 -152.6974
3725.573436 88.117 -153.6607
3752.570477 88.129 -154.6193
3779.763150 88.135 -155.5710
3807.152872 88.135 -156.5137
3834.741071 88.129 -157.4455
3862.529185 88.117 -158.3641
3890.518664 88.100 -159.2674
3918.710966 88.077 -160.1535
3947.107561 88.048 -161.0206
3975.709929 88.015 -161.8671
4004.519563 87.977 -162.6915
4033.537962 87.934 -163.4925
4062.766641 87.887 -164.2690
4092.207123 87.835 -165.0199
4121.860942 87.780 -165.7444
4151.729646 87.722 -166.4419
4181.814790 87.660 -167.1117
4212.117944 87.596 -167.7535
4242.640687 87.528 -168.3668
4273.384610 87.458 -168.9513
4304.351317 87.385 -169.5063
4335.542421 87.310 -170.0311
4366.959549 87.233 -170.5249
4398.604338 87.154 -170.9875
4430.478438 87.074 -171.4188
4462.583511 86.993 -171.8191
4494.921231 86.912 -172.1895
4527.493283 86.830 -172.5311
4560.301365 86.747 -172.8451
4593.347189 86.664 -173.1325
4626.632476 86.581 -173.3937
4660.158962 86.498 -173.6283
4693.928395 86.414 -173.8351
4727.942535 86.331 -174.0121
4762.203156 86.247 -174.1568
4796.712043 86.163 -174.2666
4831.470996 86.080 -174.3396
4866.481826 85.999 -174.3750
4901.746360 85.921 -174.3737
4937.266434 85.846 -174.3380
4973.043902 85.776 -174.2720
5009.080628 85.710 -174.1812
5045.378492 85.650 -174.0714
5081.939384 85.594 -173.9487
5118.765212 85.544 -173.8185
5155.857894 85.499 -173.6854
5193.219366 85.458 -173.5531
5230.851574 85.421 -173.4239
5268.756481 85.387 -173.2991
5306.936062 85.357 -173.1794
5345.392309 85.329 -173.0648
5384.127225 85.304 -172.9552
5423.142830 85.281 -172.8501
5462.441159 85.260 -172.7487
5502.024259 85.240 -172.6506
5541.894195 85.222 -172.5553
5582.053045 85.205 -172.4625
5622.502902 85.189 -172.3715
5663.245876 85.175 -172.2822
5704.284090 85.162 -172.1947
5745.619684 85.151 -172.1100
5787.254813 85.144 -172.0287
5829.191647 85.138 -171.9506
5871.432373 85.136 -171.8761
5913.979192 85.137 -171.8055
5956.834323 85.140 -171.7400
6000.000000 85.145 -171.6811
6043.478473 85.154 -171.6309
6087.272010 85.164 -171.5912
6131.382892 85.178 -171.5638
6175.813420 85.193 -171.5501
6220.565910 85.210 -171.5513
6265.642695 85.230 -171.5689
6311.046124 85.251 -171.6041
6356.778566 85.274 -171.6587
6402.842404 85.299 -171.7345
6449.240040 85.324 -171.8330
6495.973891 85.351 -171.9556
6543.046396 85.378 -172.1027
6590.460007 85.405 -172.2739
6638.217197 85.432 -172.4686
6686.320456 85.458 -172.6863
6734.772290 85.482 -172.9259
6783.575226 85.503 -173.1848
6832.731809 85.522 -173.4577
6882.244600 85.536 -173.7359
6932.116181 85.547 -174.0074
6982.349153 85.554 -174.2580
7032.946133 85.560 -174.4742
7083.909760 85.566 -174.6446
7135.242690 85.575 -174.7633
7186.947600 85.591 -174.8307
7239.027185 85.617 -174.8550
7291.484160 85.657 -174.8521
7344.321260 85.713 -174.8440
7397.541239 85.785 -174.8561
7451.146872 85.874 -174.9136
7505.140954 85.979 -175.0385
7559.526299 86.097 -175.2486
7614.305743 86.225 -175.5584
7669.482141 86.363 -175.9802
7725.058371 86.508 -176.5239
7781.037328 86.658 -177.1983
7837.421932 86.812 -178.0112
7894.215122 86.968 -178.9701
7951.419859 87.123 179.9173
8009.039125 87.276 178.6436
8067.075924 87.423 177.2021
8125.533282 87.561 175.5886
8184.414245 87.687 173.8017
8243.721885 87.797 171.8441
8303.459292 87.887 169.7226
8363.629581 87.952 167.4487
8424.235888 87.990 165.0384
8485.281374 87.997 162.5123
8546.769221 87.969 159.8947
8608.702634 87.904 157.2133
8671.084842 87.801 154.4984
8733.919097 87.657 151.7829
8797.208675 87.473 149.1016
8860.956876 87.249 146.4896
8925.167022 86.987 143.9807
8989.842461 86.688 141.6049
9054.986566 86.355 139.3889
9120.602731 85.993 137.3547
9186.694378 85.604 135.5207
9253.264952 85.192 133.9005
9320.317925 84.762 132.5035
9387.856790 84.317 131.3339
9455.885071 83.861 130.3908
9524.406312 83.400 129.6694
9593.424086 82.936 129.1622
9662.941992 82.473 128.8596
9732.963653 82.013 128.7508
9803.492719 81.559 128.8242
9874.532869 81.112 129.0674
9946.087805 80.674 129.4680
10018.161257 80.244 130.0143
10090.756983 79.825 130.6952
10163.878768 79.416 131.5006
10237.530423 79.017 132.4213
10311.715789 78.630 133.4489
10386.438732 78.254 134.5762
10461.703149 77.889 135.7971
10537.512962 77.536 137.1059
10613.872125 77.194 138.4971
10690.784618 76.864 139.9647
10768.254450 76.546 141.5027
10846.285661 76.240 143.1053
10924.882318 75.946 144.7671
11004.048518 75.663 146.4830
11083.788390 75.392 148.2487
11164.106090 75.133 150.0603
11245.005805 74.885 151.9144
11326.491752 74.648 153.8075
11408.568180 74.423 155.7352
11491.239368 74.209 157.6924
11574.509626 74.008 159.6744
11658.383294 73.818 161.6768
11742.864745 73.641 163.6956
11827.958384 73.476 165.7276
11913.668646 73.324 167.7697
12000.000000 73.184 169.8185
12086.956947 73.057 171.8707
12174.544019 72.943 173.9222
12262.765784 72.843 175.9685
12351.626840 72.756 178.0040
12441.131819 72.683 -179.9776
12531.285389 72.624 -177.9838
12622.092249 72.580 -176.0228
12713.557132 72.550 -174.1029
12805.684808 72.533 -172.2308
12898.480079 72.530 -170.4107
12991.947783 72.540 -168.6450
13086.092792 72.564 -166.9356
13180.920015 72.603 -165.2861
13276.434395 72.658 -163.7045
13372.640911 72.730 -162.2038
13469.544580 72.823 -160.8032
13567.150452 72.936 -159.5266
13665.463617 73.070 -158.4015
13764.489200 73.224 -157.4577
13864.232362 73.397 -156.7249
13964.698305 73.585 -156.2314
14065.892266 73.786 -156.0029
14167.819519 73.994 -156.0606
14270.485380 74.203 -156.4214
14373.895200 74.407 -157.0973
14478.054370 74.600 -158.0935
14582.968320 74.773 -159.4065
14688.642520 74.917 -161.0209
14795.082478 75.025 -162.9072
14902.293745 75.087 -165.0215
15010.281908 75.098 -167.3069
15119.052599 75.053 -169.6957
15228.611486 74.950 -172.1142
15338.964283 74.789 -174.4867
15450.116741 74.573 -176.7403
15562.074656 74.306 -178.8085
15674.843864 73.995 179.3660
15788.430244 73.646 177.8290
15902.839718 73.269 176.6141
16018.078250 72.870 175.7423
16134.151848 72.458 175.2255
16251.066563 72.040 175.0698
16368.828491 71.622 175.2779
16487.443769 71.212 175.8499
16606.918584 70.817 176.7824
16727.259161 70.444 178.0630
16848.471777 70.103 179.6633
16970.562748 69.802 -178.4681
17093.538442 69.547 -176.4080
17217.405268 69.340 -174.2498
17342.169684 69.178 -172.0858
17467.838194 69.054 -169.9854
17594.417350 68.958 -167.9820
17721.913751 68.878 -166.0732
17850.334044 68.809 -164.2328
17979.684923 68.745 -162.4274
18109.973131 68.687 -160.6306
18241.205462 68.636 -158.8314
18373.388756 68.594 -157.0383
18506.529905 68.565 -155.2812
18640.635849 68.547 -153.6092
18775.713581 68.540 -152.0843
18911.770141 68.537 -150.7722
19048.812624 68.532 -149.7328
19186.848172 68.515 -149.0108
19325.883983 68.477 -148.6274
19465.927305 68.412 -148.5730
19606.985439 68.322 -148.7978
19749.065738 68.220 -149.2024
19892.175609 68.129 -149.6350
20036.322514 68.075 -149.9175
