* Measurement data measured by REW V5.31.3
* Source: Headset (CX31993 HIFI AUDIO), MICROPHONE (Master Volume), R, volume: 0.400
* Format: 256k Log Swept Sine, 1 sweep at -11.9 dBFS with no timing reference
* Dated: 05 26, 25 5:56:00 PM
* REW Settings:
*  C-weighting compensation: Off
*  Target level: 75.0 dB
* Note: ; 
* Measurement: Final A5000 R
* Smoothing: 1/12 octave
* Frequency Step: 96 ppo
* Start Frequency: 0.36621094 Hz
*
* Freq(Hz) SPL(dB) Phase(degrees)
0.366211 30.720 47.1212
0.368865 30.760 47.1078
0.371538 30.819 47.0889
0.374230 30.892 47.0673
0.376942 30.974 47.0454
0.379673 31.062 47.0249
0.382424 31.153 47.0068
0.385196 31.246 46.9917
0.387987 31.341 46.9798
0.390798 31.437 46.9713
0.393630 31.534 46.9661
0.396483 31.632 46.9641
0.399356 31.730 46.9653
0.402250 31.830 46.9694
0.405165 31.930 46.9765
0.408101 32.030 46.9862
0.411058 32.132 46.9985
0.414037 32.234 47.0133
0.417037 32.337 47.0303
0.420059 32.441 47.0494
0.423103 32.545 47.0705
0.426169 32.650 47.0934
0.429257 32.756 47.1179
0.432368 32.863 47.1440
0.435501 32.971 47.1713
0.438656 33.079 47.1999
0.441835 33.188 47.2295
0.445037 33.298 47.2599
0.448262 33.409 47.2911
0.451510 33.520 47.3228
0.454782 33.632 47.3548
0.458077 33.745 47.3871
0.461397 33.859 47.4195
0.464740 33.974 47.4518
0.468108 34.090 47.4839
0.471500 34.206 47.5155
0.474917 34.323 47.5466
0.478358 34.442 47.5770
0.481825 34.561 47.6065
0.485316 34.680 47.6350
0.488833 34.801 47.6623
0.492375 34.923 47.6884
0.495943 35.045 47.7129
0.499537 35.169 47.7358
0.503157 35.293 47.7570
0.506803 35.418 47.7762
0.510475 35.544 47.7934
0.514175 35.671 47.8084
0.517900 35.799 47.8211
0.521653 35.928 47.8313
0.525434 36.058 47.8389
0.529241 36.188 47.8438
0.533076 36.320 47.8458
0.536939 36.453 47.8448
0.540830 36.586 47.8408
0.544749 36.721 47.8335
0.548696 36.856 47.8228
0.552673 36.993 47.8087
0.556677 37.130 47.7910
0.560711 37.269 47.7696
0.564774 37.408 47.7444
0.568867 37.549 47.7154
0.572989 37.690 47.6823
0.577141 37.833 47.6452
0.581324 37.976 47.6038
0.585536 38.121 47.5582
0.589779 38.267 47.5083
0.594053 38.414 47.4539
0.598358 38.561 47.3949
0.602694 38.710 47.3314
0.607061 38.860 47.2632
0.611460 39.011 47.1903
0.615891 39.163 47.1126
0.620354 39.317 47.0300
0.624849 39.471 46.9425
0.629377 39.627 46.8501
0.633938 39.783 46.7526
0.638532 39.941 46.6501
0.643159 40.100 46.5424
0.647819 40.260 46.4297
0.652514 40.421 46.3117
0.657242 40.584 46.1886
0.662005 40.747 46.0602
0.666802 40.912 45.9266
0.671634 41.078 45.7877
0.676501 41.245 45.6436
0.681403 41.413 45.4942
0.686341 41.583 45.3395
0.691314 41.754 45.1796
0.696324 41.925 45.0145
0.701370 42.098 44.8444
0.706452 42.271 44.6693
0.711571 42.444 44.4897
0.716728 42.618 44.3059
0.721921 42.789 44.1189
0.727153 42.959 43.9296
0.732422 43.125 43.7397
0.737729 43.288 43.5507
0.743075 43.448 43.3643
0.748460 43.605 43.1816
0.753883 43.761 43.0034
0.759346 43.915 42.8300
0.764849 44.069 42.6615
0.770391 44.222 42.4976
0.775974 44.376 42.3382
0.781597 44.529 42.1828
0.787261 44.682 42.0312
0.792966 44.835 41.8829
0.798712 44.988 41.7376
0.804500 45.141 41.5948
0.810329 45.294 41.4543
0.816201 45.447 41.3155
0.822116 45.600 41.1783
0.828073 45.753 41.0422
0.834074 45.906 40.9069
0.840118 46.059 40.7720
0.846206 46.212 40.6373
0.852338 46.365 40.5024
0.858514 46.518 40.3670
0.864735 46.671 40.2309
0.871001 46.824 40.0936
0.877313 46.978 39.9550
0.883670 47.131 39.8147
0.890074 47.284 39.6725
0.896524 47.437 39.5281
0.903020 47.590 39.3813
0.909564 47.744 39.2318
0.916155 47.897 39.0794
0.922794 48.050 38.9239
0.929481 48.204 38.7649
0.936216 48.358 38.6023
0.943000 48.512 38.4359
0.949834 48.666 38.2655
0.956717 48.820 38.0908
0.963649 48.974 37.9116
0.970632 49.129 37.7278
0.977666 49.283 37.5392
0.984750 49.438 37.3455
0.991886 49.593 37.1466
0.999074 49.749 36.9424
1.006314 49.905 36.7326
1.013606 50.061 36.5171
1.020951 50.217 36.2957
1.028349 50.374 36.0683
1.035801 50.531 35.8348
1.043307 50.689 35.5950
1.050867 50.847 35.3489
1.058482 51.005 35.0965
1.066152 51.164 34.8378
1.073878 51.324 34.5732
1.081660 51.484 34.3032
1.089498 51.644 34.0284
1.097393 51.804 33.7502
1.105345 51.965 33.4698
1.113355 52.125 33.1887
1.121423 52.286 32.9079
1.129549 52.446 32.6282
1.137734 52.606 32.3501
1.145979 52.765 32.0738
1.154283 52.924 31.7991
1.162647 53.083 31.5261
1.171072 53.242 31.2545
1.179558 53.400 30.9841
1.188106 53.558 30.7147
1.196715 53.716 30.4460
1.205387 53.873 30.1778
1.214122 54.030 29.9098
1.222920 54.187 29.6418
1.231782 54.344 29.3736
1.240708 54.500 29.1049
1.249699 54.656 28.8354
1.258754 54.812 28.5649
1.267876 54.967 28.2931
1.277063 55.123 28.0199
1.286318 55.278 27.7450
1.295639 55.433 27.4681
1.305027 55.588 27.1890
1.314484 55.743 26.9074
1.324009 55.898 26.6232
1.333604 56.053 26.3361
1.343268 56.208 26.0458
1.353002 56.363 25.7522
1.362806 56.518 25.4549
1.372681 56.673 25.1539
1.382628 56.828 24.8488
1.392647 56.983 24.5395
1.402739 57.138 24.2258
1.412904 57.294 23.9075
1.423142 57.450 23.5847
1.433455 57.606 23.2575
1.443843 57.762 22.9261
1.454305 57.919 22.5910
1.464844 58.075 22.2531
1.475459 58.231 21.9134
1.486150 58.387 21.5727
1.496920 58.543 21.2319
1.507767 58.698 20.8913
1.518693 58.853 20.5513
1.529698 59.007 20.2118
1.540783 59.161 19.8727
1.551948 59.314 19.5338
1.563194 59.466 19.1950
1.574521 59.619 18.8558
1.585931 59.770 18.5161
1.597423 59.922 18.1755
1.608999 60.073 17.8338
1.620658 60.223 17.4907
1.632402 60.373 17.1459
1.644232 60.523 16.7990
1.656146 60.672 16.4498
1.668147 60.821 16.0980
1.680235 60.970 15.7432
1.692411 61.119 15.3853
1.704675 61.267 15.0238
1.717028 61.415 14.6585
1.729470 61.563 14.2891
1.742003 61.711 13.9153
1.754626 61.859 13.5368
1.767341 62.006 13.1534
1.780147 62.154 12.7649
1.793047 62.302 12.3712
1.806040 62.449 11.9723
1.819128 62.597 11.5684
1.832310 62.744 11.1599
1.845587 62.890 10.7474
1.858961 63.037 10.3313
1.872432 63.183 9.9122
1.886001 63.328 9.4907
1.899667 63.472 9.0670
1.913433 63.616 8.6415
1.927299 63.759 8.2143
1.941265 63.902 7.7855
1.955332 64.044 7.3553
1.969501 64.185 6.9238
1.983773 64.326 6.4909
1.998148 64.467 6.0567
2.012627 64.606 5.6213
2.027212 64.746 5.1845
2.041902 64.884 4.7464
2.056698 65.023 4.3068
2.071602 65.161 3.8657
2.086614 65.298 3.4231
2.101734 65.436 2.9787
2.116964 65.573 2.5324
2.132304 65.709 2.0842
2.147756 65.846 1.6337
2.163320 65.982 1.1809
2.178996 66.118 0.7255
2.194786 66.254 0.2673
2.210690 66.389 -0.1936
2.226710 66.523 -0.6574
2.242845 66.657 -1.1240
2.259098 66.790 -1.5931
2.275468 66.922 -2.0646
2.291957 67.054 -2.5381
2.308566 67.184 -3.0134
2.325295 67.314 -3.4903
2.342145 67.443 -3.9684
2.359117 67.572 -4.4476
2.376212 67.700 -4.9276
2.393431 67.827 -5.4082
2.410775 67.954 -5.8893
2.428244 68.080 -6.3707
2.445840 68.206 -6.8524
2.463564 68.332 -7.3343
2.481416 68.456 -7.8163
2.499397 68.581 -8.2985
2.517509 68.705 -8.7811
2.535752 68.829 -9.2642
2.554127 68.952 -9.7482
2.572635 69.075 -10.2335
2.591277 69.197 -10.7205
2.610055 69.318 -11.2094
2.628968 69.438 -11.7003
2.648019 69.558 -12.1930
2.667208 69.677 -12.6874
2.686535 69.795 -13.1831
2.706003 69.912 -13.6798
2.725612 70.029 -14.1772
2.745363 70.145 -14.6747
2.765257 70.260 -15.1723
2.785295 70.374 -15.6694
2.805478 70.489 -16.1658
2.825808 70.602 -16.6612
2.846285 70.715 -17.1555
2.866910 70.828 -17.6486
2.887685 70.941 -18.1406
2.908611 71.052 -18.6316
2.929688 71.164 -19.1220
2.950917 71.275 -19.6123
2.972301 71.385 -20.1028
2.993839 71.494 -20.5940
3.015534 71.603 -21.0858
3.037386 71.711 -21.5782
3.059396 71.818 -22.0708
3.081565 71.924 -22.5636
3.103896 72.030 -23.0560
3.126388 72.135 -23.5478
3.149043 72.240 -24.0385
3.171862 72.344 -24.5279
3.194847 72.448 -25.0157
3.217998 72.552 -25.5016
3.241317 72.655 -25.9855
3.264805 72.758 -26.4674
3.288463 72.860 -26.9475
3.312293 72.962 -27.4261
3.336295 73.064 -27.9036
3.360471 73.165 -28.3802
3.384822 73.265 -28.8561
3.409350 73.365 -29.3314
3.434056 73.464 -29.8060
3.458940 73.563 -30.2798
3.484005 73.662 -30.7527
3.509252 73.760 -31.2245
3.534681 73.857 -31.6950
3.560295 73.955 -32.1639
3.586094 74.052 -32.6313
3.612081 74.149 -33.0969
3.638255 74.246 -33.5608
3.664620 74.343 -34.0231
3.691175 74.439 -34.4838
3.717923 74.536 -34.9432
3.744864 74.631 -35.4015
3.772001 74.727 -35.8588
3.799335 74.822 -36.3153
3.826866 74.917 -36.7710
3.854597 75.012 -37.2260
3.882529 75.107 -37.6803
3.910664 75.201 -38.1340
3.939002 75.296 -38.5872
3.967546 75.390 -39.0397
3.996296 75.484 -39.4917
4.025255 75.579 -39.9431
4.054423 75.673 -40.3940
4.083804 75.767 -40.8443
4.113396 75.861 -41.2943
4.143204 75.955 -41.7440
4.173227 76.049 -42.1936
4.203468 76.143 -42.6434
4.233928 76.237 -43.0937
4.264609 76.330 -43.5445
4.295512 76.424 -43.9962
4.326639 76.518 -44.4489
4.357992 76.611 -44.9027
4.389572 76.705 -45.3577
4.421380 76.798 -45.8139
4.453419 76.892 -46.2713
4.485691 76.986 -46.7298
4.518196 77.079 -47.1897
4.550936 77.172 -47.6511
4.583914 77.266 -48.1140
4.617131 77.359 -48.5788
4.650589 77.452 -49.0457
4.684289 77.545 -49.5149
4.718233 77.637 -49.9865
4.752424 77.730 -50.4608
4.786862 77.822 -50.9377
4.821549 77.915 -51.4173
4.856488 78.007 -51.8995
4.891680 78.099 -52.3844
4.927127 78.190 -52.8720
4.962831 78.282 -53.3623
4.998794 78.373 -53.8553
5.035017 78.464 -54.3512
5.071503 78.554 -54.8501
5.108253 78.645 -55.3521
5.145270 78.734 -55.8574
5.182555 78.824 -56.3660
5.220110 78.913 -56.8779
5.257937 79.001 -57.3931
5.296038 79.089 -57.9113
5.334415 79.177 -58.4324
5.373071 79.264 -58.9563
5.412006 79.350 -59.4828
5.451224 79.436 -60.0119
5.490725 79.522 -60.5438
5.530514 79.607 -61.0786
5.570590 79.691 -61.6163
5.610957 79.774 -62.1568
5.651616 79.857 -62.7000
5.692570 79.939 -63.2455
5.733821 80.021 -63.7929
5.775370 80.101 -64.3420
5.817221 80.181 -64.8926
5.859375 80.261 -65.4447
5.901834 80.339 -65.9985
5.944602 80.417 -66.5539
5.987679 80.494 -67.1109
6.031068 80.570 -67.6692
6.074771 80.645 -68.2283
6.118792 80.720 -68.7879
6.163131 80.794 -69.3476
6.207792 80.867 -69.9072
6.252776 80.939 -70.4668
6.298086 81.011 -71.0264
6.343725 81.081 -71.5860
6.389694 81.151 -72.1453
6.435996 81.220 -72.7039
6.482634 81.289 -73.2617
6.529610 81.357 -73.8180
6.576926 81.424 -74.3729
6.624585 81.490 -74.9261
6.672590 81.556 -75.4778
6.720942 81.621 -76.0279
6.769645 81.686 -76.5763
6.818700 81.750 -77.1228
6.868111 81.813 -77.6670
6.917881 81.876 -78.2089
6.968010 81.938 -78.7483
7.018504 82.001 -79.2852
7.069362 82.062 -79.8197
7.120590 82.123 -80.3517
7.172189 82.184 -80.8814
7.224161 82.245 -81.4087
7.276511 82.305 -81.9335
7.329239 82.365 -82.4559
7.382350 82.425 -82.9759
7.435845 82.485 -83.4936
7.489729 82.545 -84.0093
7.544002 82.604 -84.5231
7.598669 82.664 -85.0352
7.653732 82.723 -85.5458
7.709194 82.783 -86.0549
7.765058 82.842 -86.5629
7.821327 82.902 -87.0699
7.878004 82.961 -87.5762
7.935091 83.021 -88.0819
7.992592 83.080 -88.5876
8.050510 83.140 -89.0933
8.108847 83.199 -89.5993
8.167607 83.259 -90.1059
8.226793 83.318 -90.6131
8.286408 83.377 -91.1211
8.346454 83.437 -91.6303
8.406936 83.496 -92.1407
8.467856 83.555 -92.6526
8.529218 83.613 -93.1660
8.591024 83.672 -93.6809
8.653278 83.730 -94.1974
8.715983 83.788 -94.7153
8.779143 83.845 -95.2348
8.842760 83.902 -95.7557
8.906839 83.958 -96.2779
8.971381 84.014 -96.8013
9.036392 84.069 -97.3255
9.101873 84.124 -97.8503
9.167829 84.178 -98.3755
9.234263 84.231 -98.9008
9.301178 84.284 -99.4259
9.368578 84.336 -99.9506
9.436467 84.387 -100.4743
9.504847 84.437 -100.9968
9.573723 84.487 -101.5176
9.643099 84.536 -102.0367
9.712976 84.585 -102.5536
9.783361 84.633 -103.0682
9.854255 84.680 -103.5801
9.925663 84.727 -104.0891
9.997588 84.774 -104.5951
10.070035 84.820 -105.0981
10.143007 84.865 -105.5980
10.216507 84.911 -106.0949
10.290540 84.956 -106.5888
10.365109 85.001 -107.0799
10.440219 85.045 -107.5683
10.515873 85.090 -108.0544
10.592076 85.135 -108.5384
10.668830 85.179 -109.0207
10.746141 85.224 -109.5016
10.824012 85.268 -109.9815
10.902447 85.313 -110.4609
10.981451 85.357 -110.9400
11.061027 85.401 -111.4194
11.141180 85.446 -111.8994
11.221913 85.490 -112.3802
11.303232 85.534 -112.8623
11.385140 85.577 -113.3459
11.467641 85.621 -113.8311
11.550741 85.664 -114.3181
11.634442 85.707 -114.8070
11.718750 85.749 -115.2979
11.803669 85.790 -115.7906
11.889203 85.831 -116.2851
11.975357 85.872 -116.7812
12.062136 85.911 -117.2787
12.149543 85.950 -117.7773
12.237583 85.988 -118.2768
12.326262 86.025 -118.7768
12.415583 86.062 -119.2771
12.505552 86.097 -119.7771
12.596172 86.132 -120.2765
12.687449 86.165 -120.7750
12.779387 86.198 -121.2722
12.871992 86.230 -121.7676
12.965268 86.261 -122.2609
13.059220 86.291 -122.7519
13.153852 86.321 -123.2401
13.249170 86.350 -123.7253
13.345179 86.378 -124.2073
13.441884 86.406 -124.6858
13.539289 86.433 -125.1609
13.637401 86.460 -125.6323
13.736223 86.486 -126.1002
13.835761 86.512 -126.5645
13.936021 86.538 -127.0256
14.037007 86.564 -127.4837
14.138725 86.590 -127.9390
14.241180 86.615 -128.3922
14.344377 86.641 -128.8436
14.448323 86.667 -129.2939
14.553021 86.693 -129.7437
14.658478 86.720 -130.1935
14.764700 86.746 -130.6441
14.871691 86.773 -131.0959
14.979457 86.799 -131.5495
15.088005 86.825 -132.0052
15.197339 86.851 -132.4634
15.307465 86.877 -132.9240
15.418389 86.902 -133.3871
15.530117 86.927 -133.8522
15.642655 86.951 -134.3191
15.756008 86.975 -134.7871
15.870182 86.998 -135.2556
15.985184 87.020 -135.7237
16.101019 87.041 -136.1908
16.217694 87.061 -136.6560
16.335214 87.081 -137.1189
16.453586 87.101 -137.5790
16.572815 87.120 -138.0360
16.692909 87.139 -138.4901
16.813872 87.158 -138.9416
16.935713 87.177 -139.3910
17.058436 87.196 -139.8392
17.182048 87.215 -140.2871
17.306556 87.235 -140.7358
17.431967 87.254 -141.1862
17.558286 87.273 -141.6391
17.685521 87.292 -142.0953
17.813677 87.310 -142.5548
17.942762 87.328 -143.0177
18.072783 87.345 -143.4831
18.203746 87.360 -143.9501
18.335658 87.374 -144.4172
18.468526 87.387 -144.8827
18.602356 87.398 -145.3448
18.737156 87.408 -145.8017
18.872934 87.417 -146.2517
19.009695 87.424 -146.6936
19.147447 87.432 -147.1267
19.286197 87.439 -147.5509
19.425953 87.446 -147.9670
19.566721 87.453 -148.3760
19.708510 87.461 -148.7799
19.851326 87.469 -149.1806
19.995177 87.479 -149.5806
20.140070 87.488 -149.9817
20.286013 87.498 -150.3856
20.433014 87.508 -150.7933
20.581080 87.517 -151.2050
20.730219 87.526 -151.6200
20.880439 87.533 -152.0369
21.031747 87.539 -152.4536
21.184152 87.543 -152.8678
21.337661 87.547 -153.2769
21.492282 87.549 -153.6789
21.648024 87.551 -154.0725
21.804895 87.552 -154.4571
21.962902 87.554 -154.8333
22.122054 87.557 -155.2028
22.282360 87.561 -155.5683
22.443827 87.566 -155.9331
22.606464 87.573 -156.3006
22.770280 87.581 -156.6742
22.935283 87.590 -157.0567
23.101481 87.598 -157.4498
23.268884 87.607 -157.8542
23.437500 87.615 -158.2693
23.607338 87.621 -158.6935
23.778406 87.626 -159.1244
23.950714 87.629 -159.5589
24.124271 87.630 -159.9942
24.299086 87.629 -160.4277
24.475167 87.627 -160.8574
24.652524 87.624 -161.2819
24.831166 87.621 -161.7009
25.011103 87.617 -162.1145
25.192344 87.612 -162.5232
25.374898 87.607 -162.9279
25.558775 87.603 -163.3295
25.743984 87.598 -163.7283
25.930536 87.593 -164.1246
26.118439 87.587 -164.5185
26.307704 87.582 -164.9097
26.498341 87.576 -165.2981
26.690359 87.570 -165.6835
26.883768 87.563 -166.0661
27.078579 87.557 -166.4460
27.274801 87.551 -166.8235
27.472446 87.545 -167.1992
27.671522 87.538 -167.5731
27.872042 87.531 -167.9455
28.074014 87.524 -168.3162
28.277450 87.517 -168.6852
28.482360 87.510 -169.0522
28.688755 87.502 -169.4172
28.896645 87.494 -169.7803
29.106042 87.485 -170.1416
29.316957 87.476 -170.5013
29.529400 87.467 -170.8597
29.743382 87.458 -171.2166
29.958915 87.448 -171.5716
30.176009 87.437 -171.9240
30.394677 87.426 -172.2731
30.614929 87.415 -172.6183
30.836778 87.403 -172.9596
31.060234 87.391 -173.2975
31.285309 87.380 -173.6332
31.512015 87.368 -173.9682
31.740364 87.357 -174.3042
31.970368 87.346 -174.6424
32.202039 87.334 -174.9833
32.435388 87.321 -175.3263
32.670428 87.308 -175.6700
32.907171 87.293 -176.0125
33.145630 87.278 -176.3516
33.385817 87.261 -176.6858
33.627745 87.245 -177.0145
33.871425 87.228 -177.3382
34.116871 87.211 -177.6578
34.364096 87.194 -177.9751
34.613113 87.177 -178.2911
34.863934 87.160 -178.6065
35.116572 87.143 -178.9209
35.371041 87.125 -179.2334
35.627354 87.107 -179.5426
35.885525 87.088 -179.8474
36.145566 87.069 179.8523
36.407492 87.051 179.5560
36.671316 87.032 179.2621
36.937051 87.014 178.9689
37.204712 86.996 178.6748
37.474313 86.978 178.3790
37.745867 86.960 178.0817
38.019389 86.942 177.7835
38.294893 86.923 177.4855
38.572394 86.904 177.1880
38.851905 86.884 176.8907
39.133442 86.865 176.5923
39.417019 86.845 176.2911
39.702651 86.826 175.9863
39.990353 86.805 175.6783
40.280140 86.783 175.3694
40.572026 86.759 175.0631
40.866028 86.735 174.7635
41.162160 86.710 174.4734
41.460438 86.684 174.1938
41.760877 86.659 173.9230
42.063494 86.636 173.6583
42.368303 86.613 173.3964
42.675322 86.590 173.1355
42.984565 86.568 172.8756
43.296048 86.547 172.6178
43.609789 86.525 172.3630
43.925804 86.504 172.1105
44.244108 86.483 171.8578
44.564719 86.463 171.6012
44.887654 86.443 171.3386
45.212928 86.422 171.0707
45.540560 86.398 170.8021
45.870565 86.373 170.5390
46.202962 86.346 170.2874
46.537768 86.318 170.0493
46.875000 86.291 169.8226
47.214676 86.265 169.6010
47.556813 86.239 169.3782
47.901429 86.214 169.1505
48.248542 86.188 168.9184
48.598171 86.160 168.6860
48.950334 86.130 168.4582
49.305048 86.100 168.2387
49.662333 86.070 168.0284
50.022206 86.040 167.8258
50.384688 86.011 167.6282
50.749796 85.982 167.4325
51.117550 85.955 167.2357
51.487969 85.928 167.0356
51.861072 85.901 166.8307
52.236879 85.874 166.6213
52.615409 85.846 166.4099
52.996681 85.817 166.1998
53.380717 85.788 165.9935
53.767536 85.759 165.7910
54.157158 85.729 165.5898
54.549603 85.700 165.3871
54.944892 85.671 165.1817
55.343045 85.640 164.9750
55.744084 85.609 164.7694
56.148028 85.577 164.5665
56.554900 85.545 164.3659
56.964720 85.512 164.1667
57.377510 85.480 163.9684
57.793291 85.447 163.7721
58.212085 85.415 163.5781
58.633914 85.383 163.3852
59.058799 85.351 163.1908
59.486764 85.320 162.9939
59.917829 85.288 162.7971
60.352019 85.255 162.6056
60.789354 85.222 162.4241
61.229859 85.189 162.2534
61.673556 85.158 162.0905
62.120468 85.126 161.9311
62.570618 85.095 161.7727
63.024031 85.064 161.6153
63.480729 85.031 161.4601
63.940736 84.998 161.3083
64.404077 84.963 161.1610
64.870776 84.926 161.0184
65.340856 84.888 160.8804
65.814343 84.848 160.7476
66.291261 84.807 160.6235
66.771635 84.765 160.5146
67.255489 84.723 160.4249
67.742850 84.684 160.3494
68.233743 84.651 160.2714
68.728193 84.621 160.1702
69.226226 84.594 160.0345
69.727867 84.565 159.8708
70.233144 84.534 159.6985
70.742083 84.501 159.5362
71.254709 84.470 159.3885
71.771050 84.441 159.2463
72.291132 84.415 159.0959
72.814984 84.390 158.9307
73.342631 84.364 158.7556
73.874102 84.335 158.5819
74.409424 84.304 158.4195
74.948626 84.272 158.2726
75.491734 84.240 158.1391
76.038779 84.208 158.0140
76.589787 84.175 157.8934
77.144788 84.142 157.7762
77.703811 84.108 157.6643
78.266885 84.073 157.5587
78.834039 84.039 157.4578
79.405303 84.005 157.3573
79.980706 83.972 157.2534
80.560280 83.938 157.1461
81.144053 83.904 157.0388
81.732056 83.869 156.9358
82.324320 83.834 156.8388
82.920876 83.800 156.7460
83.521755 83.767 156.6542
84.126988 83.733 156.5620
84.736607 83.699 156.4705
85.350643 83.665 156.3826
85.969129 83.631 156.3004
86.592097 83.596 156.2237
87.219579 83.562 156.1506
87.851608 83.528 156.0790
88.488217 83.494 156.0087
89.129439 83.460 155.9415
89.775308 83.426 155.8777
90.425856 83.392 155.8142
91.081119 83.360 155.7457
91.741131 83.328 155.6679
92.405925 83.296 155.5810
93.075536 83.262 155.4888
93.750000 83.228 155.3969
94.429351 83.193 155.3100
95.113625 83.158 155.2315
95.802858 83.123 155.1637
96.497085 83.088 155.1078
97.196342 83.054 155.0636
97.900667 83.022 155.0287
98.610096 82.990 154.9996
99.324665 82.959 154.9723
100.044413 82.927 154.9430
100.769376 82.895 154.9096
101.499592 82.863 154.8711
102.235100 82.828 154.8277
102.975938 82.793 154.7812
103.722144 82.756 154.7342
104.473757 82.719 154.6891
105.230817 82.683 154.6474
105.993363 82.649 154.6087
106.761435 82.617 154.5700
107.535072 82.586 154.5278
108.314315 82.557 154.4799
109.099206 82.528 154.4271
109.889783 82.499 154.3712
110.686090 82.468 154.3154
111.488167 82.436 154.2643
112.296056 82.401 154.2222
113.109800 82.366 154.1901
113.929440 82.331 154.1653
114.755020 82.296 154.1437
115.586582 82.262 154.1213
116.424170 82.228 154.0956
117.267827 82.194 154.0669
118.117598 82.159 154.0385
118.973527 82.124 154.0129
119.835658 82.088 153.9898
120.704037 82.052 153.9675
121.578708 82.014 153.9467
122.459718 81.976 153.9293
123.347111 81.936 153.9164
124.240935 81.897 153.9064
125.141236 81.858 153.8966
126.048061 81.820 153.8872
126.961458 81.781 153.8840
127.881473 81.743 153.8979
128.808154 81.705 153.9383
129.741551 81.669 154.0078
130.681712 81.635 154.1022
131.628686 81.603 154.2120
132.582521 81.574 154.3253
133.543269 81.545 154.4298
134.510979 81.518 154.5147
135.485701 81.492 154.5716
136.467486 81.467 154.5944
137.456386 81.443 154.5794
138.452451 81.418 154.5323
139.455735 81.391 154.4692
140.466288 81.363 154.4075
141.484165 81.335 154.3571
142.509418 81.307 154.3196
143.542100 81.280 154.2914
144.582265 81.253 154.2673
145.629968 81.224 154.2448
146.685262 81.195 154.2260
147.748204 81.163 154.2158
148.818849 81.131 154.2189
149.897251 81.099 154.2353
150.983469 81.067 154.2606
152.077557 81.036 154.2903
153.179574 81.005 154.3246
154.289576 80.975 154.3663
155.407622 80.944 154.4156
156.533770 80.914 154.4691
157.668078 80.883 154.5211
158.810606 80.853 154.5684
159.961413 80.821 154.6106
161.120559 80.789 154.6496
162.288105 80.756 154.6878
163.464112 80.722 154.7278
164.648640 80.690 154.7714
165.841752 80.658 154.8184
167.043510 80.627 154.8665
168.253976 80.596 154.9116
169.473213 80.565 154.9506
170.701286 80.535 154.9820
171.938258 80.506 155.0056
173.184194 80.477 155.0236
174.439158 80.450 155.0419
175.703216 80.422 155.0685
176.976434 80.394 155.1088
178.258878 80.366 155.1622
179.550615 80.337 155.2248
180.851713 80.307 155.2919
182.162239 80.275 155.3596
183.482262 80.244 155.4256
184.811850 80.212 155.4886
186.151073 80.182 155.5476
187.500000 80.152 155.6023
188.858702 80.124 155.6558
190.227250 80.096 155.7142
191.605715 80.070 155.7831
192.994169 80.044 155.8632
194.392685 80.019 155.9484
195.801334 79.994 156.0293
197.220191 79.969 156.0988
198.649330 79.942 156.1564
200.088825 79.916 156.2116
201.538751 79.890 156.2766
202.999184 79.865 156.3591
204.470200 79.840 156.4600
205.951875 79.812 156.5791
207.444287 79.781 156.7166
208.947514 79.748 156.8658
210.461634 79.715 157.0164
211.986726 79.683 157.1622
213.522869 79.654 157.3033
215.070144 79.628 157.4396
216.628631 79.604 157.5673
218.198411 79.580 157.6830
219.779567 79.555 157.7855
221.372180 79.528 157.8741
222.976334 79.502 157.9453
224.592112 79.478 157.9957
226.219600 79.458 158.0266
227.858880 79.440 158.0444
229.510039 79.423 158.0608
231.173164 79.405 158.0903
232.848340 79.385 158.1423
234.535655 79.366 158.2150
236.235197 79.348 158.2975
237.947054 79.331 158.3777
239.671317 79.315 158.4483
241.408074 79.298 158.5100
243.157416 79.278 158.5687
244.919435 79.257 158.6289
246.694223 79.234 158.6918
248.481871 79.211 158.7574
250.282473 79.188 158.8250
252.096123 79.165 158.8919
253.922915 79.142 158.9570
255.762945 79.116 159.0233
257.616309 79.090 159.0949
259.483103 79.063 159.1744
261.363424 79.036 159.2619
263.257372 79.010 159.3546
265.165043 78.985 159.4474
267.086538 78.960 159.5345
269.021957 78.935 159.6131
270.971401 78.910 159.6846
272.934972 78.885 159.7523
274.912771 78.860 159.8157
276.904902 78.834 159.8720
278.911469 78.807 159.9186
280.932577 78.779 159.9572
282.968330 78.750 159.9959
285.018835 78.723 160.0489
287.084199 78.698 160.1270
289.164530 78.675 160.2282
291.259935 78.655 160.3419
293.370525 78.635 160.4578
295.496408 78.616 160.5701
297.637697 78.595 160.6770
299.794503 78.573 160.7798
301.966937 78.551 160.8802
304.155114 78.527 160.9804
306.359147 78.504 161.0815
308.579152 78.480 161.1835
310.815244 78.457 161.2856
313.067539 78.433 161.3875
315.336156 78.409 161.4897
317.621211 78.384 161.5942
319.922826 78.360 161.7017
322.241118 78.336 161.8111
324.576210 78.312 161.9202
326.928223 78.288 162.0268
329.297280 78.265 162.1302
331.683504 78.242 162.2313
334.087019 78.219 162.3332
336.507952 78.195 162.4387
338.946427 78.172 162.5490
341.402572 78.148 162.6642
343.876516 78.123 162.7832
346.368387 78.099 162.9044
348.878315 78.075 163.0268
351.406431 78.051 163.1494
353.952867 78.026 163.2718
356.517756 78.002 163.3936
359.101230 77.978 163.5153
361.703426 77.954 163.6375
364.324478 77.931 163.7621
366.964523 77.908 163.8906
369.623699 77.885 164.0233
372.302145 77.862 164.1591
375.000000 77.839 164.2950
377.717405 77.817 164.4279
380.454501 77.794 164.5566
383.211431 77.771 164.6827
385.988339 77.748 164.8083
388.785369 77.725 164.9351
391.602668 77.701 165.0644
394.440383 77.679 165.1973
397.298660 77.656 165.3345
400.177650 77.633 165.4744
403.077502 77.611 165.6133
405.998368 77.588 165.7497
408.940400 77.565 165.8864
411.903750 77.542 166.0277
414.888575 77.518 166.1751
417.895028 77.495 166.3272
420.923268 77.471 166.4818
423.973452 77.446 166.6371
427.045738 77.422 166.7931
430.140287 77.397 166.9513
433.257261 77.372 167.1137
436.396822 77.347 167.2813
439.559133 77.323 167.4538
442.744360 77.299 167.6310
445.952668 77.276 167.8132
449.184225 77.253 168.0015
452.439199 77.231 168.1968
455.717760 77.209 168.3986
459.020079 77.188 168.6044
462.346327 77.167 168.8112
465.696680 77.148 169.0165
469.071310 77.129 169.2198
472.470394 77.111 169.4213
475.894109 77.094 169.6208
479.342634 77.080 169.8178
482.816148 77.066 170.0110
486.314833 77.054 170.1997
489.838871 77.042 170.3849
493.388445 77.030 170.5670
496.963741 77.017 170.7451
500.564945 77.003 170.9175
504.192245 76.988 171.0845
507.845830 76.973 171.2473
511.525890 76.956 171.4072
515.232618 76.937 171.5656
518.966206 76.918 171.7243
522.726849 76.897 171.8860
526.514743 76.877 172.0526
530.330086 76.856 172.2255
534.173076 76.835 172.4048
538.043915 76.815 172.5906
541.942803 76.794 172.7822
545.869944 76.774 172.9790
549.825542 76.754 173.1803
553.809805 76.733 173.3860
557.822939 76.713 173.5962
561.865154 76.693 173.8107
565.936660 76.674 174.0294
570.037671 76.654 174.2521
574.168399 76.634 174.4793
578.329060 76.613 174.7103
582.519870 76.593 174.9428
586.741049 76.574 175.1758
590.992817 76.555 175.4099
595.275394 76.536 175.6469
599.589005 76.518 175.8884
603.933874 76.501 176.1351
608.310228 76.483 176.3864
612.718295 76.465 176.6407
617.158304 76.448 176.8967
621.630488 76.431 177.1537
626.135079 76.414 177.4128
630.672311 76.397 177.6752
635.242423 76.381 177.9421
639.845651 76.365 178.2133
644.482237 76.349 178.4880
649.152421 76.334 178.7651
653.856447 76.318 179.0442
658.594560 76.303 179.3257
663.367008 76.288 179.6113
668.174039 76.274 179.9020
673.015903 76.260 -179.8020
677.892854 76.248 -179.5020
682.805145 76.236 -179.1989
687.753032 76.225 -178.8935
692.736774 76.214 -178.5855
697.756631 76.204 -178.2743
702.812863 76.194 -177.9592
707.905735 76.184 -177.6397
713.035511 76.175 -177.3151
718.202461 76.166 -176.9855
723.406852 76.158 -176.6518
728.648956 76.150 -176.3145
733.929047 76.143 -175.9737
739.247399 76.136 -175.6294
744.604290 76.130 -175.2816
750.000000 76.125 -174.9307
755.434809 76.121 -174.5771
760.909001 76.119 -174.2206
766.422861 76.118 -173.8607
771.976677 76.118 -173.4974
777.570739 76.118 -173.1307
783.205337 76.120 -172.7609
788.880766 76.122 -172.3880
794.597321 76.125 -172.0124
800.355301 76.130 -171.6343
806.155005 76.135 -171.2539
811.996736 76.141 -170.8719
817.880799 76.148 -170.4884
823.807501 76.156 -170.1028
829.777150 76.166 -169.7141
835.790057 76.177 -169.3222
841.846536 76.190 -168.9279
847.946903 76.205 -168.5327
854.091476 76.222 -168.1376
860.280575 76.240 -167.7430
866.514523 76.260 -167.3486
872.793644 76.281 -166.9547
879.118267 76.304 -166.5624
885.488720 76.329 -166.1732
891.905336 76.356 -165.7880
898.368450 76.385 -165.4064
904.878398 76.416 -165.0284
911.435520 76.450 -164.6540
918.040157 76.485 -164.2840
924.692655 76.523 -163.9198
931.393359 76.564 -163.5636
938.142619 76.607 -163.2184
944.940787 76.652 -162.8872
951.788218 76.700 -162.5722
958.685268 76.752 -162.2763
965.632296 76.807 -162.0038
972.629666 76.865 -161.7618
979.677741 76.927 -161.5607
986.776890 76.993 -161.4140
993.927482 77.061 -161.3371
1001.129891 77.129 -161.3471
1008.384491 77.192 -161.4613
1015.691660 77.246 -161.6917
1023.051781 77.281 -162.0347
1030.465236 77.289 -162.4588
1037.932411 77.260 -162.8927
1045.453698 77.191 -163.2233
1053.029486 77.088 -163.3160
1060.660172 76.967 -163.0616
1068.346153 76.853 -162.4309
1076.087829 76.770 -161.4980
1083.885605 76.731 -160.4081
1091.739887 76.737 -159.3140
1099.651084 76.781 -158.3257
1107.619609 76.852 -157.4966
1115.645878 76.938 -156.8354
1123.730308 77.031 -156.3256
1131.873321 77.127 -155.9408
1140.075341 77.221 -155.6551
1148.336797 77.314 -155.4471
1156.658119 77.403 -155.3013
1165.039741 77.489 -155.2076
1173.482099 77.571 -155.1601
1181.985634 77.648 -155.1566
1190.550789 77.720 -155.1970
1199.178011 77.786 -155.2820
1207.867749 77.843 -155.4114
1216.620457 77.889 -155.5809
1225.436590 77.922 -155.7782
1234.316609 77.938 -155.9807
1243.260976 77.937 -156.1557
1252.270157 77.920 -156.2661
1261.344623 77.890 -156.2781
1270.484846 77.853 -156.1710
1279.691303 77.816 -155.9432
1288.964474 77.785 -155.6130
1298.304842 77.764 -155.2113
1307.712894 77.755 -154.7732
1317.189120 77.759 -154.3298
1326.734016 77.774 -153.9032
1336.348077 77.797 -153.5061
1346.031806 77.827 -153.1434
1355.785708 77.861 -152.8152
1365.610290 77.898 -152.5178
1375.506065 77.936 -152.2460
1385.473549 77.975 -151.9946
1395.513261 78.013 -151.7593
1405.625726 78.051 -151.5368
1415.811469 78.089 -151.3255
1426.071023 78.125 -151.1236
1436.404921 78.161 -150.9296
1446.813703 78.196 -150.7416
1457.297912 78.229 -150.5581
1467.858093 78.262 -150.3777
1478.494798 78.294 -150.1988
1489.208581 78.325 -150.0202
1500.000000 78.356 -149.8410
1510.869618 78.386 -149.6604
1521.818002 78.416 -149.4780
1532.845723 78.446 -149.2932
1543.953355 78.476 -149.1057
1555.141477 78.505 -148.9149
1566.410674 78.534 -148.7210
1577.761531 78.562 -148.5244
1589.194642 78.591 -148.3256
1600.710601 78.619 -148.1251
1612.310010 78.646 -147.9226
1623.993473 78.673 -147.7176
1635.761599 78.701 -147.5091
1647.615002 78.728 -147.2967
1659.554299 78.755 -147.0798
1671.580114 78.783 -146.8584
1683.693072 78.810 -146.6322
1695.893807 78.837 -146.4012
1708.182952 78.864 -146.1652
1720.561150 78.891 -145.9238
1733.029045 78.918 -145.6766
1745.587288 78.944 -145.4236
1758.236533 78.970 -145.1641
1770.977440 78.996 -144.8972
1783.810673 79.021 -144.6213
1796.736900 79.046 -144.3347
1809.756796 79.070 -144.0356
1822.871040 79.095 -143.7220
1836.080315 79.120 -143.3918
1849.385310 79.145 -143.0431
1862.786718 79.171 -142.6733
1876.285239 79.197 -142.2797
1889.881575 79.225 -141.8593
1903.576436 79.255 -141.4090
1917.370535 79.287 -140.9260
1931.264593 79.324 -140.4088
1945.259332 79.367 -139.8576
1959.355483 79.417 -139.2755
1973.553781 79.476 -138.6693
1987.854965 79.546 -138.0505
2002.259781 79.627 -137.4351
2016.768981 79.719 -136.8419
2031.383320 79.823 -136.2905
2046.103561 79.935 -135.7988
2060.930471 80.054 -135.3797
2075.864823 80.177 -135.0396
2090.907395 80.299 -134.7780
2106.058972 80.419 -134.5885
2121.320344 80.535 -134.4599
2136.692305 80.645 -134.3790
2152.175658 80.750 -134.3321
2167.771210 80.847 -134.3065
2183.479774 80.940 -134.2911
2199.302169 81.027 -134.2767
2215.239219 81.109 -134.2563
2231.291755 81.189 -134.2252
2247.460615 81.267 -134.1809
2263.746641 81.343 -134.1226
2280.150683 81.419 -134.0507
2296.673595 81.494 -133.9672
2313.316238 81.571 -133.8749
2330.079481 81.648 -133.7764
2346.964198 81.726 -133.6741
2363.971268 81.806 -133.5700
2381.101578 81.886 -133.4663
2398.356022 81.968 -133.3649
2415.735498 82.051 -133.2672
2433.240913 82.135 -133.1739
2450.873180 82.220 -133.0856
2468.633217 82.306 -133.0024
2486.521951 82.392 -132.9244
2504.540314 82.479 -132.8514
2522.689246 82.566 -132.7830
2540.969692 82.654 -132.7186
2559.382606 82.742 -132.6578
2577.928947 82.831 -132.6005
2596.609683 82.920 -132.5462
2615.425787 83.011 -132.4944
2634.378241 83.102 -132.4445
2653.468031 83.194 -132.3960
2672.696154 83.288 -132.3488
2692.063613 83.383 -132.3033
2711.571415 83.481 -132.2601
2731.220579 83.581 -132.2209
2751.012130 83.683 -132.1877
2770.947098 83.789 -132.1636
2791.026522 83.897 -132.1524
2811.251451 84.008 -132.1579
2831.622938 84.122 -132.1844
2852.142045 84.239 -132.2353
2872.809842 84.356 -132.3137
2893.627406 84.475 -132.4214
2914.595823 84.595 -132.5594
2935.716186 84.714 -132.7271
2956.989596 84.833 -132.9229
2978.417161 84.952 -133.1444
3000.000000 85.070 -133.3888
3021.739237 85.188 -133.6538
3043.636005 85.304 -133.9379
3065.691446 85.421 -134.2407
3087.906710 85.537 -134.5623
3110.282955 85.653 -134.9024
3132.821347 85.768 -135.2599
3155.523062 85.882 -135.6334
3178.389283 85.995 -136.0227
3201.421202 86.107 -136.4290
3224.620020 86.218 -136.8549
3247.986946 86.328 -137.3033
3271.523198 86.438 -137.7766
3295.230004 86.546 -138.2771
3319.108599 86.653 -138.8067
3343.160228 86.759 -139.3667
3367.386145 86.863 -139.9583
3391.787613 86.964 -140.5812
3416.365904 87.063 -141.2344
3441.122300 87.158 -141.9160
3466.058091 87.249 -142.6240
3491.174576 87.337 -143.3566
3516.473066 87.420 -144.1121
3541.954880 87.499 -144.8889
3567.621345 87.573 -145.6854
3593.473800 87.643 -146.4999
3619.513592 87.707 -147.3307
3645.742080 87.766 -148.1763
3672.160630 87.820 -149.0347
3698.770620 87.869 -149.9044
3725.573436 87.912 -150.7837
3752.570477 87.950 -151.6707
3779.763150 87.982 -152.5635
3807.152872 88.008 -153.4601
3834.741071 88.028 -154.3586
3862.529185 88.042 -155.2572
3890.518664 88.051 -156.1540
3918.710966 88.053 -157.0470
3947.107561 88.050 -157.9338
3975.709929 88.041 -158.8122
4004.519563 88.026 -159.6798
4033.537962 88.005 -160.5341
4062.766641 87.978 -161.3728
4092.207123 87.946 -162.1932
4121.860942 87.909 -162.9930
4151.729646 87.866 -163.7699
4181.814790 87.819 -164.5219
4212.117944 87.767 -165.2467
4242.640687 87.710 -165.9425
4273.384610 87.650 -166.6073
4304.351317 87.586 -167.2397
4335.542421 87.519 -167.8388
4366.959549 87.450 -168.4045
4398.604338 87.378 -168.9371
4430.478438 87.305 -169.4374
4462.583511 87.230 -169.9064
4494.921231 87.154 -170.3449
4527.493283 87.078 -170.7539
4560.301365 87.000 -171.1339
4593.347189 86.922 -171.4851
4626.632476 86.844 -171.8077
4660.158962 86.765 -172.1016
4693.928395 86.686 -172.3666
4727.942535 86.608 -172.6028
4762.203156 86.529 -172.8107
4796.712043 86.451 -172.9907
4831.470996 86.375 -173.1440
4866.481826 86.299 -173.2710
4901.746360 86.224 -173.3727
4937.266434 86.151 -173.4494
4973.043902 86.080 -173.5017
5009.080628 86.010 -173.5296
5045.378492 85.943 -173.5337
5081.939384 85.878 -173.5145
5118.765212 85.815 -173.4732
5155.857894 85.755 -173.4113
5193.219366 85.698 -173.3306
5230.851574 85.644 -173.2328
5268.756481 85.593 -173.1194
5306.936062 85.545 -172.9915
5345.392309 85.501 -172.8513
5384.127225 85.460 -172.7012
5423.142830 85.424 -172.5439
5462.441159 85.392 -172.3810
5502.024259 85.364 -172.2139
5541.894195 85.340 -172.0439
5582.053045 85.321 -171.8723
5622.502902 85.306 -171.7005
5663.245876 85.295 -171.5297
5704.284090 85.288 -171.3616
5745.619684 85.284 -171.1975
5787.254813 85.284 -171.0388
5829.191647 85.287 -170.8869
5871.432373 85.294 -170.7430
5913.979192 85.305 -170.6083
5956.834323 85.318 -170.4841
6000.000000 85.335 -170.3715
6043.478473 85.355 -170.2718
6087.272010 85.378 -170.1862
6131.382892 85.404 -170.1160
6175.813420 85.432 -170.0627
6220.565910 85.463 -170.0283
6265.642695 85.497 -170.0138
6311.046124 85.532 -170.0197
6356.778566 85.569 -170.0449
6402.842404 85.607 -170.0865
6449.240040 85.646 -170.1396
6495.973891 85.687 -170.1981
6543.046396 85.729 -170.2561
6590.460007 85.774 -170.3084
6638.217197 85.821 -170.3516
6686.320456 85.873 -170.3854
6734.772290 85.931 -170.4131
6783.575226 85.997 -170.4412
6832.731809 86.072 -170.4789
6882.244600 86.157 -170.5380
6932.116181 86.253 -170.6325
6982.349153 86.362 -170.7773
7032.946133 86.481 -170.9877
7083.909760 86.610 -171.2783
7135.242690 86.748 -171.6627
7186.947600 86.893 -172.1525
7239.027185 87.043 -172.7569
7291.484160 87.196 -173.4820
7344.321260 87.350 -174.3313
7397.541239 87.502 -175.3055
7451.146872 87.651 -176.4035
7505.140954 87.795 -177.6230
7559.526299 87.933 -178.9612
7614.305743 88.062 179.5844
7669.482141 88.182 178.0160
7725.058371 88.292 176.3352
7781.037328 88.391 174.5429
7837.421932 88.477 172.6390
7894.215122 88.549 170.6229
7951.419859 88.604 168.4947
8009.039125 88.640 166.2565
8067.075924 88.655 163.9138
8125.533282 88.645 161.4762
8184.414245 88.607 158.9582
8243.721885 88.539 156.3786
8303.459292 88.439 153.7594
8363.629581 88.306 151.1250
8424.235888 88.138 148.5008
8485.281374 87.936 145.9123
8546.769221 87.699 143.3837
8608.702634 87.430 140.9387
8671.084842 87.128 138.5995
8733.919097 86.796 136.3881
8797.208675 86.434 134.3261
8860.956876 86.045 132.4345
8925.167022 85.631 130.7327
8989.842461 85.195 129.2373
9054.986566 84.741 127.9617
9120.602731 84.272 126.9153
9186.694378 83.793 126.1031
9253.264952 83.306 125.5258
9320.317925 82.817 125.1803
9387.856790 82.329 125.0598
9455.885071 81.846 125.1547
9524.406312 81.370 125.4528
9593.424086 80.903 125.9400
9662.941992 80.448 126.6015
9732.963653 80.005 127.4217
9803.492719 79.576 128.3854
9874.532869 79.162 129.4781
9946.087805 78.763 130.6865
10018.161257 78.379 131.9979
10090.756983 78.011 133.4006
10163.878768 77.657 134.8836
10237.530423 77.319 136.4371
10311.715789 76.995 138.0529
10386.438732 76.684 139.7240
10461.703149 76.388 141.4448
10537.512962 76.104 143.2104
10613.872125 75.833 145.0169
10690.784618 75.573 146.8617
10768.254450 75.324 148.7431
10846.285661 75.087 150.6606
10924.882318 74.861 152.6136
11004.048518 74.647 154.6013
11083.788390 74.443 156.6214
11164.106090 74.252 158.6709
11245.005805 74.073 160.7447
11326.491752 73.906 162.8369
11408.568180 73.752 164.9410
11491.239368 73.611 167.0510
11574.509626 73.483 169.1612
11658.383294 73.368 171.2663
11742.864745 73.266 173.3608
11827.958384 73.177 175.4390
11913.668646 73.102 177.4954
12000.000000 73.040 179.5247
12086.956947 72.991 -178.4787
12174.544019 72.956 -176.5202
12262.765784 72.934 -174.6055
12351.626840 72.924 -172.7401
12441.131819 72.928 -170.9288
12531.285389 72.944 -169.1755
12622.092249 72.973 -167.4830
12713.557132 73.014 -165.8551
12805.684808 73.069 -164.2965
12898.480079 73.137 -162.8137
12991.947783 73.220 -161.4149
13086.092792 73.318 -160.1117
13180.920015 73.433 -158.9197
13276.434395 73.565 -157.8586
13372.640911 73.715 -156.9518
13469.544580 73.882 -156.2261
13567.150452 74.065 -155.7100
13665.463617 74.263 -155.4331
13764.489200 74.470 -155.4238
13864.232362 74.683 -155.7067
13964.698305 74.895 -156.2999
14065.892266 75.100 -157.2137
14167.819519 75.289 -158.4494
14270.485380 75.454 -159.9972
14373.895200 75.586 -161.8344
14478.054370 75.676 -163.9238
14582.968320 75.717 -166.2132
14688.642520 75.703 -168.6382
14795.082478 75.630 -171.1243
14902.293745 75.496 -173.5927
15010.281908 75.304 -175.9633
15119.052599 75.057 -178.1596
15228.611486 74.761 179.8877
15338.964283 74.426 178.2361
15450.116741 74.061 176.9266
15562.074656 73.678 175.9799
15674.843864 73.287 175.3964
15788.430244 72.897 175.1612
15902.839718 72.516 175.2507
16018.078250 72.146 175.6408
16134.151848 71.792 176.3139
16251.066563 71.454 177.2616
16368.828491 71.137 178.4835
16487.443769 70.843 179.9814
16606.918584 70.580 -178.2516
16727.259161 70.355 -176.2450
16848.471777 70.176 -174.0619
16970.562748 70.049 -171.7978
17093.538442 69.971 -169.5660
17217.405268 69.937 -167.4708
17342.169684 69.934 -165.5799
17467.838194 69.946 -163.9125
17594.417350 69.963 -162.4453
17721.913751 69.976 -161.1313
17850.334044 69.980 -159.9219
17979.684923 69.977 -158.7822
18109.973131 69.967 -157.6996
18241.205462 69.953 -156.6849
18373.388756 69.937 -155.7689
18506.529905 69.917 -154.9952
18640.635849 69.889 -154.4125
18775.713581 69.849 -154.0674
18911.770141 69.786 -153.9989
19048.812624 69.691 -154.2336
19186.848172 69.554 -154.7795
19325.883983 69.368 -155.6197
19465.927305 69.132 -156.7043
19606.985439 68.859 -157.9404
19749.065738 68.581 -159.1799
19892.175609 68.346 -160.2172
20036.322514 68.210 -160.8200
