* Measurement data measured by REW V5.31.3
* Source: Headset (2- CX31993 HIFI AUDIO), MICROPHONE (Master Volume), R, volume: 0.400
* Format: 256k Log Swept Sine, 1 sweep at -12.0 dBFS with no timing reference
* Dated: 10 9, 24 12:25:34 PM
* REW Settings:
*  C-weighting compensation: Off
*  Target level: 75.0 dB
* Note: ; 
* Measurement: Kadenz ECHO B Bass+ L
* Smoothing: 1/12 octave
* Frequency Step: 96 ppo
* Start Frequency: 0.36621094 Hz
*
* Freq(Hz) SPL(dB) Phase(degrees)
0.366211 62.121 -43.3216
0.368865 62.113 -43.3626
0.371538 62.103 -43.4241
0.374230 62.090 -43.5015
0.376942 62.075 -43.5908
0.379673 62.059 -43.6891
0.382424 62.043 -43.7945
0.385196 62.026 -43.9059
0.387987 62.008 -44.0226
0.390798 61.991 -44.1442
0.393630 61.973 -44.2707
0.396483 61.955 -44.4021
0.399356 61.937 -44.5382
0.402250 61.919 -44.6792
0.405165 61.901 -44.8252
0.408101 61.883 -44.9761
0.411058 61.864 -45.1322
0.414037 61.845 -45.2935
0.417037 61.827 -45.4601
0.420059 61.808 -45.6320
0.423103 61.789 -45.8094
0.426169 61.770 -45.9923
0.429257 61.750 -46.1809
0.432368 61.731 -46.3752
0.435501 61.711 -46.5754
0.438656 61.691 -46.7815
0.441835 61.671 -46.9936
0.445037 61.651 -47.2118
0.448262 61.631 -47.4363
0.451510 61.611 -47.6672
0.454782 61.590 -47.9044
0.458077 61.570 -48.1482
0.461397 61.549 -48.3987
0.464740 61.528 -48.6559
0.468108 61.507 -48.9199
0.471500 61.486 -49.1910
0.474917 61.464 -49.4690
0.478358 61.443 -49.7543
0.481825 61.421 -50.0468
0.485316 61.399 -50.3467
0.488833 61.377 -50.6541
0.492375 61.355 -50.9690
0.495943 61.333 -51.2917
0.499537 61.310 -51.6221
0.503157 61.288 -51.9604
0.506803 61.265 -52.3067
0.510475 61.242 -52.6611
0.514175 61.219 -53.0236
0.517900 61.195 -53.3944
0.521653 61.172 -53.7735
0.525434 61.148 -54.1610
0.529241 61.124 -54.5570
0.533076 61.100 -54.9616
0.536939 61.076 -55.3748
0.540830 61.052 -55.7967
0.544749 61.027 -56.2273
0.548696 61.003 -56.6667
0.552673 60.978 -57.1149
0.556677 60.953 -57.5720
0.560711 60.927 -58.0380
0.564774 60.902 -58.5129
0.568867 60.876 -58.9966
0.572989 60.851 -59.4892
0.577141 60.825 -59.9907
0.581324 60.798 -60.5010
0.585536 60.772 -61.0201
0.589779 60.746 -61.5479
0.594053 60.719 -62.0844
0.598358 60.692 -62.6294
0.602694 60.665 -63.1828
0.607061 60.637 -63.7446
0.611460 60.610 -64.3145
0.615891 60.582 -64.8925
0.620354 60.554 -65.4783
0.624849 60.526 -66.0717
0.629377 60.498 -66.6725
0.633938 60.469 -67.2805
0.638532 60.440 -67.8955
0.643159 60.411 -68.5170
0.647819 60.382 -69.1449
0.652514 60.353 -69.7787
0.657242 60.323 -70.4182
0.662005 60.294 -71.0630
0.666802 60.263 -71.7126
0.671634 60.233 -72.3666
0.676501 60.203 -73.0246
0.681403 60.172 -73.6860
0.686341 60.141 -74.3504
0.691314 60.110 -75.0172
0.696324 60.078 -75.6857
0.701370 60.047 -76.3553
0.706452 60.014 -77.0251
0.711571 59.981 -77.6944
0.716728 59.947 -78.3623
0.721921 59.911 -79.0284
0.727153 59.873 -79.6927
0.732422 59.832 -80.3568
0.737729 59.787 -81.0240
0.743075 59.739 -81.6996
0.748460 59.686 -82.3894
0.753883 59.629 -83.0980
0.759346 59.569 -83.8292
0.764849 59.505 -84.5854
0.770391 59.438 -85.3687
0.775974 59.367 -86.1803
0.781597 59.293 -87.0213
0.787261 59.217 -87.8927
0.792966 59.137 -88.7953
0.798712 59.055 -89.7301
0.804500 58.970 -90.6977
0.810329 58.882 -91.6990
0.816201 58.792 -92.7348
0.822116 58.699 -93.8059
0.828073 58.605 -94.9131
0.834074 58.509 -96.0571
0.840118 58.410 -97.2388
0.846206 58.310 -98.4590
0.852338 58.209 -99.7182
0.858514 58.106 -101.0172
0.864735 58.002 -102.3568
0.871001 57.898 -103.7374
0.877313 57.792 -105.1598
0.883670 57.686 -106.6244
0.890074 57.580 -108.1316
0.896524 57.474 -109.6820
0.903020 57.368 -111.2759
0.909564 57.263 -112.9135
0.916155 57.159 -114.5950
0.922794 57.055 -116.3205
0.929481 56.953 -118.0902
0.936216 56.853 -119.9040
0.943000 56.755 -121.7618
0.949834 56.659 -123.6635
0.956717 56.566 -125.6087
0.963649 56.476 -127.5972
0.970632 56.390 -129.6288
0.977666 56.307 -131.7029
0.984750 56.229 -133.8193
0.991886 56.156 -135.9775
0.999074 56.087 -138.1771
1.006314 56.025 -140.4179
1.013606 55.968 -142.6994
1.020951 55.919 -145.0215
1.028349 55.876 -147.3841
1.035801 55.842 -149.7871
1.043307 55.815 -152.2307
1.050867 55.798 -154.7153
1.058482 55.790 -157.2417
1.066152 55.792 -159.8110
1.073878 55.805 -162.4247
1.081660 55.830 -165.0849
1.089498 55.866 -167.7941
1.097393 55.915 -170.5548
1.105345 55.976 -173.3683
1.113355 56.050 -176.2336
1.121423 56.137 -179.1465
1.129549 56.237 177.9005
1.137734 56.349 174.9179
1.145979 56.474 171.9181
1.154283 56.611 168.9143
1.162647 56.761 165.9203
1.171072 56.922 162.9499
1.179558 57.094 160.0154
1.188106 57.278 157.1286
1.196715 57.472 154.2997
1.205387 57.676 151.5370
1.214122 57.890 148.8477
1.222920 58.113 146.2368
1.231782 58.345 143.7079
1.240708 58.586 141.2633
1.249699 58.834 138.9037
1.258754 59.089 136.6287
1.267876 59.352 134.4373
1.277063 59.620 132.3273
1.286318 59.894 130.2961
1.295639 60.172 128.3406
1.305027 60.455 126.4573
1.314484 60.741 124.6426
1.324009 61.030 122.8927
1.333604 61.320 121.2037
1.343268 61.612 119.5715
1.353002 61.903 117.9926
1.362806 62.195 116.4630
1.372681 62.484 114.9792
1.382628 62.771 113.5374
1.392647 63.055 112.1344
1.402739 63.334 110.7669
1.412904 63.609 109.4319
1.423142 63.878 108.1265
1.433455 64.141 106.8482
1.443843 64.398 105.5950
1.454305 64.649 104.3654
1.464844 64.895 103.1584
1.475459 65.137 101.9740
1.486150 65.377 100.8120
1.496920 65.615 99.6725
1.507767 65.853 98.5556
1.518693 66.090 97.4608
1.529698 66.328 96.3874
1.540783 66.565 95.3348
1.551948 66.803 94.3019
1.563194 67.041 93.2878
1.574521 67.279 92.2913
1.585931 67.516 91.3112
1.597423 67.754 90.3464
1.608999 67.992 89.3957
1.620658 68.229 88.4579
1.632402 68.466 87.5319
1.644232 68.703 86.6163
1.656146 68.940 85.7101
1.668147 69.176 84.8122
1.680235 69.411 83.9213
1.692411 69.645 83.0364
1.704675 69.879 82.1563
1.717028 70.111 81.2799
1.729470 70.343 80.4063
1.742003 70.574 79.5344
1.754626 70.803 78.6632
1.767341 71.031 77.7918
1.780147 71.257 76.9195
1.793047 71.482 76.0456
1.806040 71.704 75.1700
1.819128 71.925 74.2926
1.832310 72.144 73.4140
1.845587 72.361 72.5352
1.858961 72.575 71.6573
1.872432 72.787 70.7816
1.886001 72.997 69.9089
1.899667 73.204 69.0401
1.913433 73.409 68.1758
1.927299 73.612 67.3162
1.941265 73.813 66.4617
1.955332 74.012 65.6123
1.969501 74.209 64.7681
1.983773 74.404 63.9288
1.998148 74.598 63.0944
2.012627 74.790 62.2644
2.027212 74.981 61.4387
2.041902 75.171 60.6167
2.056698 75.360 59.7981
2.071602 75.548 58.9822
2.086614 75.735 58.1686
2.101734 75.921 57.3567
2.116964 76.107 56.5457
2.132304 76.293 55.7352
2.147756 76.479 54.9245
2.163320 76.664 54.1130
2.178996 76.849 53.3003
2.194786 77.033 52.4861
2.210690 77.217 51.6706
2.226710 77.400 50.8540
2.242845 77.582 50.0367
2.259098 77.762 49.2193
2.275468 77.941 48.4022
2.291957 78.118 47.5860
2.308566 78.294 46.7709
2.325295 78.469 45.9575
2.342145 78.643 45.1458
2.359117 78.815 44.3359
2.376212 78.986 43.5280
2.393431 79.156 42.7219
2.410775 79.325 41.9177
2.428244 79.494 41.1151
2.445840 79.661 40.3138
2.463564 79.828 39.5136
2.481416 79.994 38.7141
2.499397 80.160 37.9148
2.517509 80.326 37.1153
2.535752 80.491 36.3149
2.554127 80.655 35.5131
2.572635 80.819 34.7095
2.591277 80.981 33.9038
2.610055 81.143 33.0960
2.628968 81.304 32.2863
2.648019 81.463 31.4751
2.667208 81.621 30.6628
2.686535 81.778 29.8500
2.706003 81.935 29.0371
2.725612 82.089 28.2245
2.745363 82.243 27.4126
2.765257 82.397 26.6016
2.785295 82.549 25.7917
2.805478 82.700 24.9830
2.825808 82.851 24.1755
2.846285 83.001 23.3692
2.866910 83.150 22.5636
2.887685 83.299 21.7585
2.908611 83.447 20.9532
2.929688 83.595 20.1471
2.950917 83.742 19.3395
2.972301 83.887 18.5300
2.993839 84.032 17.7185
3.015534 84.175 16.9050
3.037386 84.318 16.0900
3.059396 84.459 15.2740
3.081565 84.600 14.4575
3.103896 84.739 13.6410
3.126388 84.878 12.8251
3.149043 85.015 12.0100
3.171862 85.152 11.1962
3.194847 85.288 10.3837
3.217998 85.424 9.5727
3.241317 85.558 8.7629
3.264805 85.692 7.9538
3.288463 85.825 7.1448
3.312293 85.958 6.3352
3.336295 86.089 5.5242
3.360471 86.220 4.7114
3.384822 86.349 3.8969
3.409350 86.477 3.0808
3.434056 86.605 2.2637
3.458940 86.731 1.4461
3.484005 86.856 0.6288
3.509252 86.981 -0.1877
3.534681 87.105 -1.0029
3.560295 87.227 -1.8165
3.586094 87.350 -2.6281
3.612081 87.471 -3.4379
3.638255 87.592 -4.2462
3.664620 87.711 -5.0537
3.691175 87.830 -5.8612
3.717923 87.948 -6.6693
3.744864 88.065 -7.4783
3.772001 88.182 -8.2883
3.799335 88.297 -9.0988
3.826866 88.411 -9.9093
3.854597 88.524 -10.7194
3.882529 88.636 -11.5282
3.910664 88.748 -12.3354
3.939002 88.858 -13.1406
3.967546 88.968 -13.9437
3.996296 89.078 -14.7448
4.025255 89.186 -15.5443
4.054423 89.294 -16.3430
4.083804 89.401 -17.1415
4.113396 89.506 -17.9401
4.143204 89.611 -18.7389
4.173227 89.715 -19.5377
4.203468 89.818 -20.3359
4.233928 89.921 -21.1331
4.264609 90.022 -21.9286
4.295512 90.123 -22.7220
4.326639 90.223 -23.5132
4.357992 90.322 -24.3019
4.389572 90.421 -25.0887
4.421380 90.519 -25.8740
4.453419 90.615 -26.6583
4.485691 90.712 -27.4420
4.518196 90.807 -28.2252
4.550936 90.901 -29.0076
4.583914 90.995 -29.7889
4.617131 91.088 -30.5686
4.650589 91.180 -31.3463
4.684289 91.272 -32.1219
4.718233 91.363 -32.8950
4.752424 91.453 -33.6661
4.786862 91.542 -34.4354
4.821549 91.631 -35.2032
4.856488 91.719 -35.9702
4.891680 91.806 -36.7360
4.927127 91.893 -37.5008
4.962831 91.979 -38.2642
4.998794 92.064 -39.0258
5.035017 92.148 -39.7853
5.071503 92.232 -40.5427
5.108253 92.316 -41.2981
5.145270 92.398 -42.0516
5.182555 92.480 -42.8035
5.220110 92.562 -43.5542
5.257937 92.642 -44.3037
5.296038 92.722 -45.0520
5.334415 92.802 -45.7988
5.373071 92.880 -46.5440
5.412006 92.959 -47.2873
5.451224 93.036 -48.0286
5.490725 93.113 -48.7681
5.530514 93.190 -49.5060
5.570590 93.265 -50.2426
5.610957 93.340 -50.9779
5.651616 93.415 -51.7120
5.692570 93.489 -52.4448
5.733821 93.562 -53.1761
5.775370 93.635 -53.9058
5.817221 93.707 -54.6336
5.859375 93.778 -55.3599
5.901834 93.849 -56.0847
5.944602 93.920 -56.8082
5.987679 93.990 -57.5305
6.031068 94.059 -58.2517
6.074771 94.127 -58.9714
6.118792 94.195 -59.6897
6.163131 94.263 -60.4062
6.207792 94.329 -61.1212
6.252776 94.395 -61.8346
6.298086 94.461 -62.5466
6.343725 94.526 -63.2574
6.389694 94.590 -63.9669
6.435996 94.654 -64.6749
6.482634 94.717 -65.3813
6.529610 94.780 -66.0861
6.576926 94.842 -66.7891
6.624585 94.903 -67.4904
6.672590 94.964 -68.1901
6.720942 95.024 -68.8884
6.769645 95.083 -69.5851
6.818700 95.142 -70.2800
6.868111 95.200 -70.9731
6.917881 95.258 -71.6643
6.968010 95.315 -72.3534
7.018504 95.371 -73.0406
7.069362 95.427 -73.7260
7.120590 95.482 -74.4094
7.172189 95.537 -75.0908
7.224161 95.591 -75.7700
7.276511 95.644 -76.4470
7.329239 95.697 -77.1216
7.382350 95.749 -77.7939
7.435845 95.801 -78.4640
7.489729 95.852 -79.1317
7.544002 95.902 -79.7971
7.598669 95.952 -80.4599
7.653732 96.002 -81.1201
7.709194 96.051 -81.7776
7.765058 96.099 -82.4326
7.821327 96.147 -83.0848
7.878004 96.194 -83.7345
7.935091 96.241 -84.3815
7.992592 96.287 -85.0256
8.050510 96.333 -85.6669
8.108847 96.379 -86.3054
8.167607 96.424 -86.9412
8.226793 96.468 -87.5741
8.286408 96.512 -88.2043
8.346454 96.556 -88.8317
8.406936 96.599 -89.4563
8.467856 96.642 -90.0781
8.529218 96.685 -90.6973
8.591024 96.727 -91.3137
8.653278 96.769 -91.9276
8.715983 96.810 -92.5389
8.779143 96.852 -93.1477
8.842760 96.893 -93.7540
8.906839 96.933 -94.3580
8.971381 96.973 -94.9597
9.036392 97.013 -95.5591
9.101873 97.053 -96.1565
9.167829 97.092 -96.7518
9.234263 97.131 -97.3451
9.301178 97.170 -97.9365
9.368578 97.208 -98.5261
9.436467 97.247 -99.1140
9.504847 97.284 -99.7003
9.573723 97.322 -100.2849
9.643099 97.359 -100.8679
9.712976 97.396 -101.4495
9.783361 97.432 -102.0295
9.854255 97.468 -102.6082
9.925663 97.503 -103.1853
9.997588 97.539 -103.7610
10.070035 97.573 -104.3352
10.143007 97.608 -104.9080
10.216507 97.641 -105.4791
10.290540 97.675 -106.0486
10.365109 97.708 -106.6165
10.440219 97.740 -107.1826
10.515873 97.772 -107.7468
10.592076 97.803 -108.3091
10.668830 97.834 -108.8693
10.746141 97.864 -109.4273
10.824012 97.894 -109.9830
10.902447 97.924 -110.5364
10.981451 97.952 -111.0873
11.061027 97.981 -111.6356
11.141180 98.009 -112.1812
11.221913 98.036 -112.7240
11.303232 98.063 -113.2640
11.385140 98.090 -113.8013
11.467641 98.116 -114.3356
11.550741 98.142 -114.8671
11.634442 98.167 -115.3956
11.718750 98.192 -115.9214
11.803669 98.217 -116.4443
11.889203 98.241 -116.9646
11.975357 98.265 -117.4821
12.062136 98.289 -117.9971
12.149543 98.313 -118.5095
12.237583 98.336 -119.0195
12.326262 98.359 -119.5272
12.415583 98.382 -120.0327
12.505552 98.404 -120.5360
12.596172 98.426 -121.0372
12.687449 98.448 -121.5363
12.779387 98.470 -122.0334
12.871992 98.491 -122.5286
12.965268 98.512 -123.0217
13.059220 98.533 -123.5129
13.153852 98.553 -124.0021
13.249170 98.573 -124.4893
13.345179 98.593 -124.9745
13.441884 98.613 -125.4577
13.539289 98.632 -125.9389
13.637401 98.651 -126.4182
13.736223 98.670 -126.8954
13.835761 98.689 -127.3708
13.936021 98.707 -127.8445
14.037007 98.726 -128.3166
14.138725 98.744 -128.7872
14.241180 98.762 -129.2565
14.344377 98.780 -129.7247
14.448323 98.798 -130.1920
14.553021 98.815 -130.6588
14.658478 98.833 -131.1251
14.764700 98.850 -131.5913
14.871691 98.867 -132.0575
14.979457 98.884 -132.5238
15.088005 98.900 -132.9904
15.197339 98.916 -133.4571
15.307465 98.932 -133.9240
15.418389 98.947 -134.3909
15.530117 98.961 -134.8575
15.642655 98.975 -135.3236
15.756008 98.989 -135.7888
15.870182 99.001 -136.2526
15.985184 99.013 -136.7145
16.101019 99.025 -137.1742
16.217694 99.036 -137.6311
16.335214 99.046 -138.0847
16.453586 99.056 -138.5348
16.572815 99.065 -138.9810
16.692909 99.074 -139.4230
16.813872 99.083 -139.8610
16.935713 99.092 -140.2949
17.058436 99.100 -140.7250
17.182048 99.109 -141.1516
17.306556 99.118 -141.5751
17.431967 99.126 -141.9961
17.558286 99.135 -142.4151
17.685521 99.144 -142.8327
17.813677 99.153 -143.2495
17.942762 99.163 -143.6659
18.072783 99.172 -144.0823
18.203746 99.181 -144.4988
18.335658 99.190 -144.9156
18.468526 99.198 -145.3326
18.602356 99.206 -145.7496
18.737156 99.214 -146.1659
18.872934 99.221 -146.5812
19.009695 99.227 -146.9948
19.147447 99.233 -147.4062
19.286197 99.239 -147.8148
19.425953 99.244 -148.2202
19.566721 99.249 -148.6219
19.708510 99.253 -149.0200
19.851326 99.258 -149.4144
19.995177 99.262 -149.8054
20.140070 99.267 -150.1936
20.286013 99.272 -150.5795
20.433014 99.276 -150.9636
20.581080 99.281 -151.3468
20.730219 99.286 -151.7296
20.880439 99.291 -152.1123
21.031747 99.296 -152.4953
21.184152 99.300 -152.8785
21.337661 99.305 -153.2617
21.492282 99.309 -153.6444
21.648024 99.312 -154.0260
21.804895 99.315 -154.4058
21.962902 99.318 -154.7832
22.122054 99.320 -155.1577
22.282360 99.322 -155.5289
22.443827 99.324 -155.8970
22.606464 99.326 -156.2622
22.770280 99.329 -156.6254
22.935283 99.332 -156.9874
23.101481 99.335 -157.3495
23.268884 99.339 -157.7128
23.437500 99.343 -158.0782
23.607338 99.347 -158.4469
23.778406 99.351 -158.8190
23.950714 99.354 -159.1946
24.124271 99.357 -159.5734
24.299086 99.359 -159.9545
24.475167 99.361 -160.3367
24.652524 99.361 -160.7187
24.831166 99.361 -161.0994
25.011103 99.360 -161.4774
25.192344 99.358 -161.8521
25.374898 99.356 -162.2228
25.558775 99.353 -162.5895
25.743984 99.350 -162.9520
25.930536 99.347 -163.3110
26.118439 99.344 -163.6671
26.307704 99.341 -164.0206
26.498341 99.339 -164.3723
26.690359 99.336 -164.7227
26.883768 99.333 -165.0720
27.078579 99.329 -165.4204
27.274801 99.326 -165.7682
27.472446 99.323 -166.1154
27.671522 99.319 -166.4619
27.872042 99.314 -166.8076
28.074014 99.310 -167.1524
28.277450 99.305 -167.4961
28.482360 99.299 -167.8383
28.688755 99.293 -168.1784
28.896645 99.286 -168.5159
29.106042 99.278 -168.8500
29.316957 99.270 -169.1802
29.529400 99.262 -169.5059
29.743382 99.253 -169.8265
29.958915 99.244 -170.1418
30.176009 99.235 -170.4520
30.394677 99.226 -170.7569
30.614929 99.217 -171.0571
30.836778 99.208 -171.3531
31.060234 99.200 -171.6456
31.285309 99.192 -171.9354
31.512015 99.185 -172.2239
31.740364 99.179 -172.5121
31.970368 99.173 -172.8016
32.202039 99.168 -173.0936
32.435388 99.163 -173.3893
32.670428 99.159 -173.6897
32.907171 99.155 -173.9949
33.145630 99.150 -174.3051
33.385817 99.145 -174.6198
33.627745 99.140 -174.9383
33.871425 99.135 -175.2599
34.116871 99.129 -175.5844
34.364096 99.123 -175.9112
34.613113 99.116 -176.2405
34.863934 99.109 -176.5724
35.116572 99.101 -176.9067
35.371041 99.093 -177.2427
35.627354 99.083 -177.5793
35.885525 99.072 -177.9149
36.145566 99.061 -178.2473
36.407492 99.048 -178.5742
36.671316 99.035 -178.8936
36.937051 99.021 -179.2042
37.204712 99.007 -179.5057
37.474313 98.995 -179.7990
37.745867 98.983 179.9138
38.019389 98.972 179.6296
38.294893 98.962 179.3444
38.572394 98.954 179.0544
38.851905 98.946 178.7568
39.133442 98.938 178.4503
39.417019 98.930 178.1357
39.702651 98.919 177.8157
39.990353 98.908 177.4939
40.280140 98.894 177.1743
40.572026 98.880 176.8596
40.866028 98.864 176.5508
41.162160 98.848 176.2472
41.460438 98.833 175.9467
41.760877 98.816 175.6475
42.063494 98.800 175.3486
42.368303 98.783 175.0504
42.675322 98.765 174.7540
42.984565 98.746 174.4609
43.296048 98.727 174.1719
43.609789 98.707 173.8869
43.925804 98.688 173.6055
44.244108 98.668 173.3278
44.564719 98.648 173.0546
44.887654 98.629 172.7871
45.212928 98.610 172.5256
45.540560 98.592 172.2679
45.870565 98.576 172.0099
46.202962 98.561 171.7455
46.537768 98.548 171.4698
46.875000 98.534 171.1811
47.214676 98.519 170.8818
47.556813 98.503 170.5776
47.901429 98.485 170.2754
48.248542 98.465 169.9800
48.598171 98.445 169.6926
48.950334 98.426 169.4115
49.305048 98.407 169.1329
49.662333 98.388 168.8536
50.022206 98.369 168.5725
50.384688 98.349 168.2905
50.749796 98.329 168.0100
51.117550 98.308 167.7330
51.487969 98.286 167.4608
51.861072 98.264 167.1924
52.236879 98.242 166.9260
52.615409 98.219 166.6597
52.996681 98.197 166.3922
53.380717 98.173 166.1239
53.767536 98.148 165.8563
54.157158 98.123 165.5914
54.549603 98.096 165.3306
54.944892 98.070 165.0745
55.343045 98.043 164.8229
55.744084 98.016 164.5756
56.148028 97.989 164.3321
56.554900 97.963 164.0912
56.964720 97.938 163.8505
57.377510 97.913 163.6061
57.793291 97.889 163.3547
58.212085 97.865 163.0946
58.633914 97.840 162.8273
59.058799 97.813 162.5570
59.486764 97.785 162.2887
59.917829 97.756 162.0262
60.352019 97.725 161.7712
60.789354 97.695 161.5228
61.229859 97.664 161.2794
61.673556 97.634 161.0393
62.120468 97.603 160.8014
62.570618 97.573 160.5645
63.024031 97.543 160.3268
63.480729 97.513 160.0863
63.940736 97.483 159.8409
64.404077 97.454 159.5903
64.870776 97.423 159.3356
65.340856 97.392 159.0791
65.814343 97.361 158.8233
66.291261 97.330 158.5695
66.771635 97.300 158.3167
67.255489 97.271 158.0615
67.742850 97.242 157.7996
68.233743 97.212 157.5300
68.728193 97.181 157.2584
69.226226 97.147 156.9957
69.727867 97.112 156.7520
70.233144 97.076 156.5297
70.742083 97.041 156.3237
71.254709 97.007 156.1272
71.771050 96.973 155.9375
72.291132 96.938 155.7552
72.814984 96.904 155.5801
73.342631 96.870 155.4091
73.874102 96.835 155.2381
74.409424 96.801 155.0654
74.948626 96.765 154.8906
75.491734 96.729 154.7134
76.038779 96.692 154.5327
76.589787 96.654 154.3489
77.144788 96.616 154.1635
77.703811 96.577 153.9778
78.266885 96.538 153.7913
78.834039 96.498 153.6023
79.405303 96.459 153.4103
79.980706 96.419 153.2170
80.560280 96.378 153.0251
81.144053 96.338 152.8365
81.732056 96.298 152.6511
82.324320 96.258 152.4677
82.920876 96.218 152.2853
83.521755 96.178 152.1052
84.126988 96.139 151.9293
84.736607 96.099 151.7587
85.350643 96.060 151.5925
85.969129 96.021 151.4290
86.592097 95.982 151.2671
87.219579 95.943 151.1071
87.851608 95.904 150.9496
88.488217 95.864 150.7952
89.129439 95.823 150.6436
89.775308 95.783 150.4943
90.425856 95.741 150.3462
91.081119 95.700 150.1985
91.741131 95.658 150.0497
92.405925 95.616 149.8981
93.075536 95.573 149.7435
93.750000 95.529 149.5875
94.429351 95.485 149.4330
95.113625 95.440 149.2819
95.802858 95.395 149.1348
96.497085 95.350 148.9918
97.196342 95.305 148.8530
97.900667 95.261 148.7181
98.610096 95.216 148.5876
99.324665 95.171 148.4612
100.044413 95.126 148.3385
100.769376 95.080 148.2191
101.499592 95.035 148.1031
102.235100 94.988 147.9908
102.975938 94.942 147.8821
103.722144 94.895 147.7770
104.473757 94.849 147.6743
105.230817 94.803 147.5725
105.993363 94.757 147.4717
106.761435 94.711 147.3713
107.535072 94.665 147.2706
108.314315 94.618 147.1713
109.099206 94.571 147.0745
109.889783 94.524 146.9805
110.686090 94.476 146.8906
111.488167 94.427 146.8054
112.296056 94.378 146.7225
113.109800 94.329 146.6408
113.929440 94.280 146.5596
114.755020 94.231 146.4762
115.586582 94.183 146.3893
116.424170 94.135 146.3001
117.267827 94.087 146.2072
118.117598 94.038 146.1124
118.973527 93.989 146.0246
119.835658 93.938 145.9520
120.704037 93.886 145.8994
121.578708 93.834 145.8677
122.459718 93.783 145.8508
123.347111 93.732 145.8399
124.240935 93.680 145.8306
125.141236 93.629 145.8190
126.048061 93.577 145.8030
126.961458 93.524 145.7852
127.881473 93.472 145.7687
128.808154 93.419 145.7555
129.741551 93.368 145.7473
130.681712 93.317 145.7466
131.628686 93.266 145.7562
132.582521 93.215 145.7786
133.543269 93.165 145.8153
134.510979 93.114 145.8676
135.485701 93.064 145.9368
136.467486 93.015 146.0192
137.456386 92.968 146.0986
138.452451 92.922 146.1556
139.455735 92.874 146.1884
140.466288 92.821 146.2098
141.484165 92.765 146.2376
142.509418 92.705 146.2927
143.542100 92.645 146.3842
144.582265 92.587 146.5053
145.629968 92.530 146.6597
146.685262 92.477 146.8556
147.748204 92.428 147.0774
148.818849 92.384 147.3068
149.897251 92.344 147.5446
150.983469 92.310 147.7805
152.077557 92.283 147.9871
153.179574 92.263 148.1555
154.289576 92.247 148.2914
155.407622 92.237 148.3896
156.533770 92.230 148.4438
157.668078 92.223 148.4601
158.810606 92.214 148.4456
159.961413 92.200 148.4020
161.120559 92.179 148.3326
162.288105 92.153 148.2456
163.464112 92.120 148.1515
164.648640 92.084 148.0596
165.841752 92.046 147.9762
167.043510 92.007 147.9049
168.253976 91.968 147.8489
169.473213 91.929 147.8121
170.701286 91.890 147.7958
171.938258 91.849 147.7960
173.184194 91.808 147.8068
174.439158 91.765 147.8234
175.703216 91.723 147.8430
176.976434 91.679 147.8657
178.258878 91.636 147.8943
179.550615 91.593 147.9318
180.851713 91.550 147.9758
182.162239 91.508 148.0209
183.482262 91.466 148.0631
184.811850 91.423 148.1061
186.151073 91.380 148.1572
187.500000 91.337 148.2178
188.858702 91.296 148.2795
190.227250 91.256 148.3356
191.605715 91.215 148.3899
192.994169 91.173 148.4515
194.392685 91.131 148.5251
195.801334 91.089 148.6078
197.220191 91.048 148.6942
198.649330 91.008 148.7789
200.088825 90.969 148.8584
201.538751 90.929 148.9329
202.999184 90.889 149.0053
204.470200 90.848 149.0785
205.951875 90.808 149.1531
207.444287 90.767 149.2275
208.947514 90.727 149.3016
210.461634 90.686 149.3781
211.986726 90.644 149.4633
213.522869 90.601 149.5648
215.070144 90.558 149.6902
216.628631 90.516 149.8468
218.198411 90.478 150.0370
219.779567 90.447 150.2498
221.372180 90.426 150.4526
222.976334 90.412 150.5995
224.592112 90.401 150.6563
226.219600 90.386 150.6182
227.858880 90.361 150.5029
229.510039 90.323 150.3450
231.173164 90.271 150.1923
232.848340 90.210 150.0854
234.535655 90.146 150.0408
236.235197 90.083 150.0507
237.947054 90.025 150.0917
239.671317 89.972 150.1368
241.408074 89.920 150.1698
243.157416 89.870 150.1924
244.919435 89.821 150.2227
246.694223 89.776 150.2898
248.481871 89.740 150.4232
250.282473 89.715 150.6334
252.096123 89.703 150.9080
253.922915 89.701 151.2234
255.762945 89.701 151.5621
257.616309 89.696 151.9197
259.483103 89.680 152.2924
261.363424 89.651 152.6633
263.257372 89.610 152.9990
265.165043 89.560 153.2627
267.086538 89.507 153.4331
269.021957 89.456 153.5172
270.971401 89.410 153.5488
272.934972 89.371 153.5736
274.912771 89.340 153.6283
276.904902 89.311 153.7269
278.911469 89.285 153.8606
280.932577 89.257 154.0122
282.968330 89.228 154.1727
285.018835 89.198 154.3413
287.084199 89.167 154.5168
289.164530 89.135 154.6923
291.259935 89.102 154.8601
293.370525 89.066 155.0164
295.496408 89.026 155.1628
297.637697 88.982 155.3038
299.794503 88.937 155.4451
301.966937 88.891 155.5939
304.155114 88.845 155.7526
306.359147 88.801 155.9129
308.579152 88.759 156.0595
310.815244 88.720 156.1841
313.067539 88.685 156.2950
315.336156 88.653 156.4089
317.621211 88.621 156.5348
319.922826 88.588 156.6715
322.241118 88.553 156.8160
324.576210 88.517 156.9680
326.928223 88.480 157.1283
329.297280 88.441 157.2948
331.683504 88.403 157.4636
334.087019 88.364 157.6310
336.507952 88.324 157.7973
338.946427 88.284 157.9670
341.402572 88.244 158.1452
343.876516 88.205 158.3329
346.368387 88.166 158.5269
348.878315 88.127 158.7238
351.406431 88.088 158.9228
353.952867 88.050 159.1254
356.517756 88.011 159.3329
359.101230 87.971 159.5458
361.703426 87.931 159.7639
364.324478 87.890 159.9863
366.964523 87.848 160.2118
369.623699 87.807 160.4399
372.302145 87.766 160.6710
375.000000 87.725 160.9058
377.717405 87.685 161.1455
380.454501 87.645 161.3914
383.211431 87.605 161.6433
385.988339 87.566 161.9005
388.785369 87.527 162.1629
391.602668 87.488 162.4316
394.440383 87.450 162.7069
397.298660 87.412 162.9877
400.177650 87.374 163.2742
403.077502 87.336 163.5681
405.998368 87.299 163.8710
408.940400 87.262 164.1818
411.903750 87.224 164.4984
414.888575 87.187 164.8196
417.895028 87.151 165.1447
420.923268 87.115 165.4728
423.973452 87.079 165.8043
427.045738 87.045 166.1404
430.140287 87.011 166.4824
433.257261 86.977 166.8303
436.396822 86.944 167.1844
439.559133 86.912 167.5453
442.744360 86.880 167.9133
445.952668 86.849 168.2887
449.184225 86.820 168.6702
452.439199 86.791 169.0565
455.717760 86.763 169.4465
459.020079 86.736 169.8397
462.346327 86.709 170.2358
465.696680 86.684 170.6352
469.071310 86.659 171.0378
472.470394 86.635 171.4436
475.894109 86.612 171.8521
479.342634 86.590 172.2640
482.816148 86.570 172.6802
486.314833 86.550 173.1014
489.838871 86.532 173.5271
493.388445 86.515 173.9567
496.963741 86.500 174.3889
500.564945 86.485 174.8229
504.192245 86.471 175.2572
507.845830 86.458 175.6912
511.525890 86.446 176.1244
515.232618 86.435 176.5568
518.966206 86.424 176.9886
522.726849 86.415 177.4203
526.514743 86.407 177.8515
530.330086 86.400 178.2816
534.173076 86.394 178.7103
538.043915 86.389 179.1374
541.942803 86.385 179.5630
545.869944 86.382 179.9875
549.825542 86.380 -179.5892
553.809805 86.378 -179.1669
557.822939 86.377 -178.7451
561.865154 86.377 -178.3239
565.936660 86.378 -177.9038
570.037671 86.379 -177.4852
574.168399 86.381 -177.0681
578.329060 86.384 -176.6527
582.519870 86.387 -176.2391
586.741049 86.390 -175.8277
590.992817 86.393 -175.4183
595.275394 86.397 -175.0106
599.589005 86.400 -174.6039
603.933874 86.404 -174.1975
608.310228 86.407 -173.7910
612.718295 86.411 -173.3840
617.158304 86.415 -172.9766
621.630488 86.420 -172.5679
626.135079 86.426 -172.1564
630.672311 86.432 -171.7413
635.242423 86.438 -171.3222
639.845651 86.445 -170.8987
644.482237 86.451 -170.4702
649.152421 86.458 -170.0367
653.856447 86.465 -169.5976
658.594560 86.473 -169.1523
663.367008 86.482 -168.7004
668.174039 86.492 -168.2424
673.015903 86.503 -167.7789
677.892854 86.516 -167.3110
682.805145 86.531 -166.8392
687.753032 86.549 -166.3641
692.736774 86.568 -165.8862
697.756631 86.590 -165.4069
702.812863 86.613 -164.9285
707.905735 86.639 -164.4531
713.035511 86.666 -163.9822
718.202461 86.694 -163.5171
723.406852 86.725 -163.0587
728.648956 86.756 -162.6072
733.929047 86.789 -162.1632
739.247399 86.823 -161.7269
744.604290 86.857 -161.2983
750.000000 86.893 -160.8780
755.434809 86.929 -160.4659
760.909001 86.965 -160.0623
766.422861 87.001 -159.6666
771.976677 87.038 -159.2774
777.570739 87.076 -158.8926
783.205337 87.113 -158.5107
788.880766 87.152 -158.1310
794.597321 87.190 -157.7534
800.355301 87.229 -157.3781
806.155005 87.267 -157.0055
811.996736 87.306 -156.6356
817.880799 87.346 -156.2679
823.807501 87.386 -155.9014
829.777150 87.426 -155.5349
835.790057 87.467 -155.1677
841.846536 87.509 -154.8002
847.946903 87.551 -154.4329
854.091476 87.594 -154.0666
860.280575 87.637 -153.7012
866.514523 87.682 -153.3372
872.793644 87.727 -152.9746
879.118267 87.773 -152.6139
885.488720 87.820 -152.2551
891.905336 87.868 -151.8979
898.368450 87.917 -151.5426
904.878398 87.967 -151.1899
911.435520 88.018 -150.8405
918.040157 88.069 -150.4946
924.692655 88.122 -150.1525
931.393359 88.176 -149.8135
938.142619 88.230 -149.4775
944.940787 88.286 -149.1451
951.788218 88.343 -148.8171
958.685268 88.401 -148.4946
965.632296 88.460 -148.1783
972.629666 88.520 -147.8685
979.677741 88.581 -147.5649
986.776890 88.643 -147.2669
993.927482 88.706 -146.9741
1001.129891 88.771 -146.6870
1008.384491 88.835 -146.4062
1015.691660 88.901 -146.1326
1023.051781 88.968 -145.8666
1030.465236 89.035 -145.6091
1037.932411 89.103 -145.3607
1045.453698 89.172 -145.1213
1053.029486 89.241 -144.8909
1060.660172 89.311 -144.6691
1068.346153 89.381 -144.4561
1076.087829 89.452 -144.2522
1083.885605 89.522 -144.0577
1091.739887 89.594 -143.8724
1099.651084 89.665 -143.6961
1107.619609 89.737 -143.5286
1115.645878 89.808 -143.3698
1123.730308 89.880 -143.2195
1131.873321 89.952 -143.0778
1140.075341 90.024 -142.9442
1148.336797 90.095 -142.8191
1156.658119 90.167 -142.7026
1165.039741 90.238 -142.5949
1173.482099 90.309 -142.4956
1181.985634 90.380 -142.4041
1190.550789 90.450 -142.3197
1199.178011 90.521 -142.2422
1207.867749 90.591 -142.1714
1216.620457 90.660 -142.1069
1225.436590 90.729 -142.0487
1234.316609 90.798 -141.9962
1243.260976 90.866 -141.9491
1252.270157 90.934 -141.9070
1261.344623 91.001 -141.8696
1270.484846 91.068 -141.8367
1279.691303 91.135 -141.8081
1288.964474 91.201 -141.7837
1298.304842 91.266 -141.7633
1307.712894 91.332 -141.7465
1317.189120 91.396 -141.7330
1326.734016 91.461 -141.7225
1336.348077 91.524 -141.7147
1346.031806 91.588 -141.7093
1355.785708 91.651 -141.7062
1365.610290 91.714 -141.7051
1375.506065 91.777 -141.7064
1385.473549 91.839 -141.7098
1395.513261 91.902 -141.7152
1405.625726 91.964 -141.7226
1415.811469 92.026 -141.7317
1426.071023 92.088 -141.7424
1436.404921 92.149 -141.7543
1446.813703 92.211 -141.7673
1457.297912 92.272 -141.7814
1467.858093 92.334 -141.7965
1478.494798 92.395 -141.8128
1489.208581 92.457 -141.8305
1500.000000 92.519 -141.8497
1510.869618 92.581 -141.8705
1521.818002 92.643 -141.8929
1532.845723 92.705 -141.9169
1543.953355 92.768 -141.9425
1555.141477 92.831 -141.9698
1566.410674 92.894 -141.9988
1577.761531 92.957 -142.0297
1589.194642 93.021 -142.0630
1600.710601 93.085 -142.0986
1612.310010 93.150 -142.1368
1623.993473 93.215 -142.1775
1635.761599 93.280 -142.2209
1647.615002 93.346 -142.2672
1659.554299 93.413 -142.3167
1671.580114 93.480 -142.3696
1683.693072 93.547 -142.4265
1695.893807 93.615 -142.4875
1708.182952 93.684 -142.5529
1720.561150 93.753 -142.6229
1733.029045 93.823 -142.6975
1745.587288 93.894 -142.7770
1758.236533 93.965 -142.8615
1770.977440 94.036 -142.9517
1783.810673 94.109 -143.0477
1796.736900 94.182 -143.1501
1809.756796 94.255 -143.2593
1822.871040 94.329 -143.3756
1836.080315 94.404 -143.4996
1849.385310 94.479 -143.6315
1862.786718 94.555 -143.7717
1876.285239 94.632 -143.9205
1889.881575 94.709 -144.0782
1903.576436 94.787 -144.2451
1917.370535 94.865 -144.4216
1931.264593 94.944 -144.6081
1945.259332 95.024 -144.8051
1959.355483 95.103 -145.0129
1973.553781 95.183 -145.2320
1987.854965 95.264 -145.4626
2002.259781 95.344 -145.7053
2016.768981 95.425 -145.9604
2031.383320 95.506 -146.2283
2046.103561 95.588 -146.5097
2060.930471 95.669 -146.8049
2075.864823 95.750 -147.1144
2090.907395 95.832 -147.4385
2106.058972 95.913 -147.7775
2121.320344 95.994 -148.1316
2136.692305 96.075 -148.5013
2152.175658 96.155 -148.8870
2167.771210 96.235 -149.2891
2183.479774 96.315 -149.7080
2199.302169 96.393 -150.1438
2215.239219 96.471 -150.5967
2231.291755 96.548 -151.0671
2247.460615 96.624 -151.5549
2263.746641 96.699 -152.0604
2280.150683 96.772 -152.5837
2296.673595 96.843 -153.1246
2313.316238 96.913 -153.6831
2330.079481 96.981 -154.2590
2346.964198 97.047 -154.8521
2363.971268 97.111 -155.4619
2381.101578 97.172 -156.0880
2398.356022 97.231 -156.7297
2415.735498 97.287 -157.3870
2433.240913 97.341 -158.0591
2450.873180 97.392 -158.7456
2468.633217 97.439 -159.4458
2486.521951 97.484 -160.1587
2504.540314 97.525 -160.8836
2522.689246 97.563 -161.6196
2540.969692 97.597 -162.3656
2559.382606 97.627 -163.1207
2577.928947 97.654 -163.8836
2596.609683 97.677 -164.6532
2615.425787 97.695 -165.4282
2634.378241 97.710 -166.2073
2653.468031 97.721 -166.9894
2672.696154 97.727 -167.7730
2692.063613 97.730 -168.5567
2711.571415 97.728 -169.3390
2731.220579 97.721 -170.1184
2751.012130 97.711 -170.8935
2770.947098 97.696 -171.6628
2791.026522 97.677 -172.4249
2811.251451 97.654 -173.1781
2831.622938 97.627 -173.9210
2852.142045 97.596 -174.6521
2872.809842 97.561 -175.3697
2893.627406 97.522 -176.0722
2914.595823 97.480 -176.7581
2935.716186 97.433 -177.4258
2956.989596 97.384 -178.0736
2978.417161 97.331 -178.6997
3000.000000 97.275 -179.3024
3021.739237 97.216 -179.8795
3043.636005 97.155 179.5709
3065.691446 97.091 179.0508
3087.906710 97.027 178.5616
3110.282955 96.961 178.1044
3132.821347 96.895 177.6792
3155.523062 96.830 177.2852
3178.389283 96.767 176.9197
3201.421202 96.705 176.5785
3224.620020 96.646 176.2557
3247.986946 96.590 175.9445
3271.523198 96.537 175.6381
3295.230004 96.485 175.3307
3319.108599 96.435 175.0187
3343.160228 96.385 174.7009
3367.386145 96.335 174.3788
3391.787613 96.283 174.0557
3416.365904 96.230 173.7360
3441.122300 96.176 173.4239
3466.058091 96.121 173.1225
3491.174576 96.065 172.8337
3516.473066 96.008 172.5577
3541.954880 95.952 172.2931
3567.621345 95.896 172.0373
3593.473800 95.841 171.7872
3619.513592 95.787 171.5398
3645.742080 95.733 171.2925
3672.160630 95.678 171.0439
3698.770620 95.623 170.7938
3725.573436 95.567 170.5433
3752.570477 95.509 170.2952
3779.763150 95.448 170.0535
3807.152872 95.385 169.8235
3834.741071 95.319 169.6105
3862.529185 95.252 169.4196
3890.518664 95.183 169.2552
3918.710966 95.115 169.1196
3947.107561 95.047 169.0125
3975.709929 94.981 168.9313
4004.519563 94.919 168.8708
4033.537962 94.859 168.8246
4062.766641 94.803 168.7856
4092.207123 94.751 168.7479
4121.860942 94.701 168.7065
4151.729646 94.653 168.6581
4181.814790 94.608 168.6006
4212.117944 94.563 168.5328
4242.640687 94.519 168.4550
4273.384610 94.475 168.3672
4304.351317 94.431 168.2708
4335.542421 94.386 168.1667
4366.959549 94.341 168.0563
4398.604338 94.295 167.9410
4430.478438 94.248 167.8221
4462.583511 94.199 167.7008
4494.921231 94.150 167.5780
4527.493283 94.100 167.4544
4560.301365 94.048 167.3307
4593.347189 93.995 167.2074
4626.632476 93.941 167.0851
4660.158962 93.885 166.9647
4693.928395 93.829 166.8470
4727.942535 93.771 166.7330
4762.203156 93.711 166.6235
4796.712043 93.651 166.5192
4831.470996 93.589 166.4204
4866.481826 93.526 166.3273
4901.746360 93.462 166.2400
4937.266434 93.397 166.1586
4973.043902 93.331 166.0834
5009.080628 93.264 166.0148
5045.378492 93.196 165.9535
5081.939384 93.126 165.9003
5118.765212 93.055 165.8561
5155.857894 92.982 165.8222
5193.219366 92.908 165.7997
5230.851574 92.833 165.7898
5268.756481 92.756 165.7939
5306.936062 92.678 165.8138
5345.392309 92.598 165.8511
5384.127225 92.518 165.9076
5423.142830 92.436 165.9851
5462.441159 92.354 166.0851
5502.024259 92.272 166.2086
5541.894195 92.189 166.3564
5582.053045 92.107 166.5289
5622.502902 92.025 166.7261
5663.245876 91.944 166.9479
5704.284090 91.864 167.1939
5745.619684 91.785 167.4639
5787.254813 91.708 167.7573
5829.191647 91.632 168.0736
5871.432373 91.559 168.4124
5913.979192 91.487 168.7731
5956.834323 91.417 169.1550
6000.000000 91.350 169.5573
6043.478473 91.286 169.9791
6087.272010 91.225 170.4194
6131.382892 91.166 170.8772
6175.813420 91.111 171.3513
6220.565910 91.059 171.8405
6265.642695 91.010 172.3436
6311.046124 90.965 172.8595
6356.778566 90.924 173.3873
6402.842404 90.886 173.9264
6449.240040 90.852 174.4762
6495.973891 90.821 175.0363
6543.046396 90.795 175.6063
6590.460007 90.773 176.1863
6638.217197 90.754 176.7767
6686.320456 90.741 177.3783
6734.772290 90.732 177.9919
6783.575226 90.728 178.6187
6832.731809 90.730 179.2587
6882.244600 90.740 179.9120
6932.116181 90.756 -179.4229
6982.349153 90.782 -178.7480
7032.946133 90.817 -178.0676
7083.909760 90.862 -177.3870
7135.242690 90.919 -176.7137
7186.947600 90.989 -176.0571
7239.027185 91.071 -175.4274
7291.484160 91.166 -174.8362
7344.321260 91.274 -174.2957
7397.541239 91.396 -173.8177
7451.146872 91.530 -173.4149
7505.140954 91.677 -173.0991
7559.526299 91.835 -172.8828
7614.305743 92.004 -172.7791
7669.482141 92.183 -172.8015
7725.058371 92.370 -172.9644
7781.037328 92.563 -173.2822
7837.421932 92.760 -173.7695
7894.215122 92.959 -174.4395
7951.419859 93.156 -175.3033
8009.039125 93.347 -176.3696
8067.075924 93.528 -177.6434
8125.533282 93.694 -179.1254
8184.414245 93.841 179.1893
8243.721885 93.963 177.3110
8303.459292 94.055 175.2570
8363.629581 94.114 173.0502
8424.235888 94.133 170.7206
8485.281374 94.112 168.3029
8546.769221 94.046 165.8364
8608.702634 93.935 163.3625
8671.084842 93.779 160.9236
8733.919097 93.579 158.5604
8797.208675 93.338 156.3105
8860.956876 93.057 154.2074
8925.167022 92.742 152.2791
8989.842461 92.395 150.5485
9054.986566 92.022 149.0328
9120.602731 91.625 147.7448
9186.694378 91.211 146.6934
9253.264952 90.781 145.8853
9320.317925 90.342 145.3243
9387.856790 89.895 145.0124
9455.885071 89.445 144.9483
9524.406312 88.997 145.1275
9593.424086 88.553 145.5420
9662.941992 88.117 146.1800
9732.963653 87.693 147.0269
9803.492719 87.283 148.0658
9874.532869 86.888 149.2790
9946.087805 86.512 150.6483
10018.161257 86.154 152.1564
10090.756983 85.815 153.7869
10163.878768 85.495 155.5253
10237.530423 85.196 157.3587
10311.715789 84.916 159.2761
10386.438732 84.655 161.2682
10461.703149 84.414 163.3265
10537.512962 84.193 165.4441
10613.872125 83.992 167.6147
10690.784618 83.811 169.8326
10768.254450 83.649 172.0923
10846.285661 83.506 174.3888
10924.882318 83.383 176.7174
11004.048518 83.279 179.0742
11083.788390 83.195 -178.5449
11164.106090 83.130 -176.1437
11245.005805 83.085 -173.7260
11326.491752 83.060 -171.2953
11408.568180 83.056 -168.8554
11491.239368 83.074 -166.4100
11574.509626 83.114 -163.9636
11658.383294 83.177 -161.5213
11742.864745 83.265 -159.0887
11827.958384 83.378 -156.6727
11913.668646 83.519 -154.2813
12000.000000 83.689 -151.9242
12086.956947 83.888 -149.6129
12174.544019 84.121 -147.3608
12262.765784 84.387 -145.1837
12351.626840 84.691 -143.1006
12441.131819 85.033 -141.1350
12531.285389 85.417 -139.3157
12622.092249 85.844 -137.6787
12713.557132 86.315 -136.2677
12805.684808 86.833 -135.1356
12898.480079 87.395 -134.3460
12991.947783 88.000 -133.9735
13086.092792 88.643 -134.1018
13180.920015 89.313 -134.8193
13276.434395 89.997 -136.2122
13372.640911 90.675 -138.3541
13469.544580 91.322 -141.2944
13567.150452 91.910 -145.0453
13665.463617 92.407 -149.5693
13764.489200 92.783 -154.7701
13864.232362 93.010 -160.4870
13964.698305 93.068 -166.5002
14065.892266 92.946 -172.5488
14167.819519 92.648 -178.3597
14270.485380 92.187 176.3175
14373.895200 91.588 171.6846
14478.054370 90.881 167.8794
14582.968320 90.100 164.9736
14688.642520 89.279 162.9777
14795.082478 88.450 161.8506
14902.293745 87.639 161.5116
15010.281908 86.867 161.8540
15119.052599 86.152 162.7592
15228.611486 85.501 164.1086
15338.964283 84.920 165.7936
15450.116741 84.409 167.7198
15562.074656 83.965 169.8097
15674.843864 83.586 172.0005
15788.430244 83.266 174.2429
15902.839718 83.001 176.4980
16018.078250 82.787 178.7351
16134.151848 82.620 -179.0714
16251.066563 82.497 -176.9438
16368.828491 82.414 -174.9032
16487.443769 82.370 -172.9714
16606.918584 82.364 -171.1720
16727.259161 82.393 -169.5320
16848.471777 82.456 -168.0825
16970.562748 82.552 -166.8585
17093.538442 82.677 -165.8985
17217.405268 82.827 -165.2417
17342.169684 82.995 -164.9241
17467.838194 83.175 -164.9750
17594.417350 83.356 -165.4131
17721.913751 83.528 -166.2437
17850.334044 83.680 -167.4572
17979.684923 83.800 -169.0280
18109.973131 83.879 -170.9146
18241.205462 83.908 -173.0616
18373.388756 83.882 -175.4034
18506.529905 83.795 -177.8688
18640.635849 83.647 179.6135
18775.713581 83.439 177.1088
18911.770141 83.175 174.6724
19048.812624 82.859 172.3457
19186.848172 82.499 170.1562
19325.883983 82.103 168.1199
19465.927305 81.687 166.2501
19606.985439 81.272 164.5717
19749.065738 80.894 163.1416
19892.175609 80.600 162.0620
20036.322514 80.437 161.4685
