* Measurement data measured by REW V5.31.3
* Source: Headset (2- CX31993 HIFI AUDIO), MICROPHONE (Master Volume), R, volume: 0.400
* Format: 256k Log Swept Sine, 1 sweep at -12.0 dBFS with no timing reference
* Dated: 10 9, 24 12:27:01 PM
* REW Settings:
*  C-weighting compensation: Off
*  Target level: 75.0 dB
* Note: ; 
* Measurement: Kadenz ECHO B Bass++ L
* Smoothing: 1/12 octave
* Frequency Step: 96 ppo
* Start Frequency: 0.36621094 Hz
*
* Freq(Hz) SPL(dB) Phase(degrees)
0.366211 62.321 -42.2498
0.368865 62.313 -42.2899
0.371538 62.302 -42.3501
0.374230 62.287 -42.4257
0.376942 62.271 -42.5129
0.379673 62.254 -42.6089
0.382424 62.236 -42.7118
0.385196 62.217 -42.8205
0.387987 62.198 -42.9344
0.390798 62.179 -43.0530
0.393630 62.159 -43.1764
0.396483 62.140 -43.3044
0.399356 62.120 -43.4370
0.402250 62.100 -43.5744
0.405165 62.080 -43.7166
0.408101 62.060 -43.8637
0.411058 62.040 -44.0157
0.414037 62.019 -44.1728
0.417037 61.999 -44.3350
0.420059 61.978 -44.5024
0.423103 61.957 -44.6751
0.426169 61.936 -44.8532
0.429257 61.915 -45.0368
0.432368 61.893 -45.2261
0.435501 61.872 -45.4210
0.438656 61.850 -45.6217
0.441835 61.828 -45.8283
0.445037 61.806 -46.0409
0.448262 61.784 -46.2596
0.451510 61.762 -46.4845
0.454782 61.739 -46.7157
0.458077 61.717 -46.9533
0.461397 61.694 -47.1975
0.464740 61.671 -47.4483
0.468108 61.648 -47.7058
0.471500 61.625 -47.9702
0.474917 61.601 -48.2415
0.478358 61.578 -48.5200
0.481825 61.554 -48.8056
0.485316 61.530 -49.0985
0.488833 61.506 -49.3988
0.492375 61.481 -49.7067
0.495943 61.457 -50.0222
0.499537 61.432 -50.3454
0.503157 61.407 -50.6764
0.506803 61.382 -51.0154
0.510475 61.357 -51.3625
0.514175 61.332 -51.7178
0.517900 61.306 -52.0813
0.521653 61.280 -52.4531
0.525434 61.254 -52.8334
0.529241 61.228 -53.2223
0.533076 61.202 -53.6198
0.536939 61.175 -54.0260
0.540830 61.149 -54.4410
0.544749 61.122 -54.8649
0.548696 61.094 -55.2977
0.552673 61.067 -55.7395
0.556677 61.040 -56.1903
0.560711 61.012 -56.6502
0.564774 60.984 -57.1192
0.568867 60.956 -57.5974
0.572989 60.928 -58.0846
0.577141 60.899 -58.5811
0.581324 60.870 -59.0867
0.585536 60.841 -59.6014
0.589779 60.812 -60.1251
0.594053 60.783 -60.6579
0.598358 60.753 -61.1997
0.602694 60.724 -61.7504
0.607061 60.694 -62.3098
0.611460 60.663 -62.8779
0.615891 60.633 -63.4545
0.620354 60.602 -64.0394
0.624849 60.571 -64.6326
0.629377 60.540 -65.2338
0.633938 60.509 -65.8427
0.638532 60.478 -66.4592
0.643159 60.446 -67.0829
0.647819 60.414 -67.7136
0.652514 60.381 -68.3509
0.657242 60.349 -68.9946
0.662005 60.316 -69.6441
0.666802 60.283 -70.2993
0.671634 60.250 -70.9596
0.676501 60.217 -71.6245
0.681403 60.183 -72.2936
0.686341 60.149 -72.9663
0.691314 60.115 -73.6421
0.696324 60.080 -74.3203
0.701370 60.045 -75.0001
0.706452 60.010 -75.6807
0.711571 59.974 -76.3611
0.716728 59.937 -77.0403
0.721921 59.898 -77.7176
0.727153 59.857 -78.3927
0.732422 59.814 -79.0668
0.737729 59.767 -79.7433
0.743075 59.716 -80.4277
0.748460 59.661 -81.1259
0.753883 59.602 -81.8432
0.759346 59.540 -82.5834
0.764849 59.474 -83.3495
0.770391 59.405 -84.1435
0.775974 59.333 -84.9670
0.781597 59.258 -85.8212
0.787261 59.179 -86.7071
0.792966 59.098 -87.6258
0.798712 59.014 -88.5782
0.804500 58.928 -89.5653
0.810329 58.838 -90.5880
0.816201 58.747 -91.6473
0.822116 58.653 -92.7440
0.828073 58.557 -93.8792
0.834074 58.459 -95.0537
0.840118 58.360 -96.2686
0.846206 58.258 -97.5246
0.852338 58.156 -98.8227
0.858514 58.052 -100.1638
0.864735 57.947 -101.5486
0.871001 57.841 -102.9778
0.877313 57.734 -104.4523
0.883670 57.628 -105.9727
0.890074 57.521 -107.5394
0.896524 57.414 -109.1531
0.903020 57.307 -110.8140
0.909564 57.201 -112.5226
0.916155 57.096 -114.2790
0.922794 56.992 -116.0834
0.929481 56.889 -117.9355
0.936216 56.788 -119.8355
0.943000 56.690 -121.7829
0.949834 56.594 -123.7774
0.956717 56.500 -125.8185
0.963649 56.410 -127.9056
0.970632 56.324 -130.0381
0.977666 56.241 -132.2151
0.984750 56.163 -134.4358
0.991886 56.090 -136.6994
0.999074 56.022 -139.0048
1.006314 55.960 -141.3511
1.013606 55.905 -143.7375
1.020951 55.856 -146.1630
1.028349 55.814 -148.6269
1.035801 55.780 -151.1284
1.043307 55.755 -153.6670
1.050867 55.739 -156.2424
1.058482 55.733 -158.8547
1.066152 55.737 -161.5041
1.073878 55.752 -164.1916
1.081660 55.778 -166.9185
1.089498 55.816 -169.6863
1.097393 55.868 -172.4967
1.105345 55.932 -175.3501
1.113355 56.009 -178.2446
1.121423 56.099 178.8250
1.129549 56.203 175.8669
1.137734 56.320 172.8919
1.145979 56.449 169.9124
1.154283 56.592 166.9413
1.162647 56.746 163.9917
1.171072 56.913 161.0762
1.179558 57.092 158.2062
1.188106 57.281 155.3919
1.196715 57.482 152.6418
1.205387 57.693 149.9630
1.214122 57.914 147.3608
1.222920 58.145 144.8392
1.231782 58.384 142.4003
1.240708 58.632 140.0453
1.249699 58.889 137.7743
1.258754 59.152 135.5860
1.267876 59.422 133.4787
1.277063 59.699 131.4498
1.286318 59.980 129.4967
1.295639 60.267 127.6158
1.305027 60.558 125.8036
1.314484 60.852 124.0565
1.324009 61.148 122.3707
1.333604 61.446 120.7424
1.343268 61.745 119.1678
1.353002 62.044 117.6432
1.362806 62.342 116.1649
1.372681 62.638 114.7296
1.382628 62.931 113.3336
1.392647 63.221 111.9739
1.402739 63.506 110.6474
1.412904 63.785 109.3510
1.423142 64.058 108.0823
1.433455 64.325 106.8387
1.443843 64.585 105.6183
1.454305 64.838 104.4197
1.464844 65.086 103.2419
1.475459 65.330 102.0849
1.486150 65.571 100.9485
1.496920 65.809 99.8329
1.507767 66.047 98.7381
1.518693 66.283 97.6637
1.529698 66.519 96.6093
1.540783 66.755 95.5740
1.551948 66.990 94.5572
1.563194 67.225 93.5577
1.574521 67.459 92.5746
1.585931 67.694 91.6068
1.597423 67.927 90.6534
1.608999 68.161 89.7130
1.620658 68.394 88.7847
1.632402 68.626 87.8672
1.644232 68.858 86.9596
1.656146 69.089 86.0607
1.668147 69.319 85.1694
1.680235 69.549 84.2847
1.692411 69.778 83.4053
1.704675 70.006 82.5304
1.717028 70.233 81.6588
1.729470 70.459 80.7895
1.742003 70.684 79.9215
1.754626 70.908 79.0540
1.767341 71.131 78.1859
1.780147 71.352 77.3167
1.793047 71.573 76.4455
1.806040 71.791 75.5723
1.819128 72.008 74.6969
1.832310 72.223 73.8199
1.845587 72.436 72.9421
1.858961 72.647 72.0648
1.872432 72.856 71.1890
1.886001 73.062 70.3156
1.899667 73.267 69.4456
1.913433 73.469 68.5794
1.927299 73.669 67.7176
1.941265 73.867 66.8603
1.955332 74.063 66.0077
1.969501 74.257 65.1599
1.983773 74.450 64.3167
1.998148 74.641 63.4781
2.012627 74.830 62.6437
2.027212 75.019 61.8134
2.041902 75.206 60.9866
2.056698 75.392 60.1630
2.071602 75.577 59.3422
2.086614 75.761 58.5235
2.101734 75.945 57.7064
2.116964 76.129 56.8904
2.132304 76.312 56.0746
2.147756 76.495 55.2587
2.163320 76.678 54.4420
2.178996 76.861 53.6240
2.194786 77.043 52.8045
2.210690 77.224 51.9835
2.226710 77.405 51.1612
2.242845 77.584 50.3380
2.259098 77.762 49.5143
2.275468 77.939 48.6909
2.291957 78.114 47.8680
2.308566 78.288 47.0461
2.325295 78.460 46.2256
2.342145 78.632 45.4066
2.359117 78.802 44.5894
2.376212 78.971 43.7740
2.393431 79.139 42.9605
2.410775 79.306 42.1487
2.428244 79.473 41.3386
2.445840 79.638 40.5298
2.463564 79.804 39.7222
2.481416 79.968 38.9153
2.499397 80.132 38.1086
2.517509 80.296 37.3018
2.535752 80.459 36.4942
2.554127 80.621 35.6852
2.572635 80.783 34.8745
2.591277 80.944 34.0616
2.610055 81.104 33.2466
2.628968 81.263 32.4297
2.648019 81.421 31.6111
2.667208 81.578 30.7914
2.686535 81.733 29.9711
2.706003 81.888 29.1506
2.725612 82.041 28.3304
2.745363 82.194 27.5109
2.765257 82.345 26.6923
2.785295 82.496 25.8747
2.805478 82.646 25.0584
2.825808 82.796 24.2433
2.846285 82.945 23.4294
2.866910 83.093 22.6165
2.887685 83.240 21.8039
2.908611 83.387 20.9913
2.929688 83.534 20.1780
2.950917 83.679 19.3632
2.972301 83.824 18.5466
2.993839 83.967 17.7281
3.015534 84.110 16.9076
3.037386 84.251 16.0857
3.059396 84.392 15.2627
3.081565 84.531 14.4392
3.103896 84.670 13.6158
3.126388 84.808 12.7928
3.149043 84.945 11.9708
3.171862 85.081 11.1500
3.194847 85.216 10.3306
3.217998 85.351 9.5126
3.241317 85.485 8.6957
3.264805 85.618 7.8796
3.288463 85.751 7.0637
3.312293 85.883 6.2472
3.336295 86.014 5.4294
3.360471 86.144 4.6099
3.384822 86.273 3.7886
3.409350 86.401 2.9658
3.434056 86.528 2.1421
3.458940 86.654 1.3179
3.484005 86.780 0.4938
3.509252 86.904 -0.3295
3.534681 87.028 -1.1515
3.560295 87.151 -1.9719
3.586094 87.273 -2.7906
3.612081 87.395 -3.6077
3.638255 87.515 -4.4233
3.664620 87.635 -5.2383
3.691175 87.755 -6.0533
3.717923 87.873 -6.8689
3.744864 87.991 -7.6855
3.772001 88.107 -8.5031
3.799335 88.223 -9.3212
3.826866 88.337 -10.1395
3.854597 88.451 -10.9574
3.882529 88.564 -11.7743
3.910664 88.677 -12.5898
3.939002 88.788 -13.4036
3.967546 88.899 -14.2155
3.996296 89.009 -15.0256
4.025255 89.119 -15.8347
4.054423 89.227 -16.6431
4.083804 89.335 -17.4516
4.113396 89.442 -18.2604
4.143204 89.548 -19.0697
4.173227 89.653 -19.8790
4.203468 89.758 -20.6882
4.233928 89.861 -21.4965
4.264609 89.964 -22.3036
4.295512 90.066 -23.1089
4.326639 90.168 -23.9124
4.357992 90.268 -24.7139
4.389572 90.368 -25.5139
4.421380 90.468 -26.3129
4.453419 90.566 -27.1113
4.485691 90.664 -27.9095
4.518196 90.761 -28.7077
4.550936 90.857 -29.5054
4.583914 90.952 -30.3024
4.617131 91.046 -31.0983
4.650589 91.140 -31.8925
4.684289 91.233 -32.6848
4.718233 91.326 -33.4753
4.752424 91.417 -34.2642
4.786862 91.508 -35.0517
4.821549 91.598 -35.8384
4.856488 91.688 -36.6245
4.891680 91.776 -37.4102
4.927127 91.864 -38.1949
4.962831 91.952 -38.9788
4.998794 92.038 -39.7610
5.035017 92.124 -40.5416
5.071503 92.209 -41.3201
5.108253 92.293 -42.0968
5.145270 92.377 -42.8719
5.182555 92.460 -43.6459
5.220110 92.542 -44.4188
5.257937 92.623 -45.1908
5.296038 92.704 -45.9617
5.334415 92.784 -46.7313
5.373071 92.863 -47.4991
5.412006 92.942 -48.2649
5.451224 93.020 -49.0287
5.490725 93.097 -49.7904
5.530514 93.174 -50.5504
5.570590 93.250 -51.3088
5.610957 93.325 -52.0660
5.651616 93.399 -52.8217
5.692570 93.473 -53.5758
5.733821 93.546 -54.3280
5.775370 93.618 -55.0781
5.817221 93.690 -55.8258
5.859375 93.761 -56.5714
5.901834 93.832 -57.3148
5.944602 93.902 -58.0565
5.987679 93.971 -58.7964
6.031068 94.039 -59.5345
6.074771 94.107 -60.2707
6.118792 94.174 -61.0046
6.163131 94.241 -61.7363
6.207792 94.307 -62.4655
6.252776 94.373 -63.1924
6.298086 94.438 -63.9172
6.343725 94.502 -64.6401
6.389694 94.566 -65.3610
6.435996 94.629 -66.0798
6.482634 94.692 -66.7966
6.529610 94.754 -67.5111
6.576926 94.816 -68.2234
6.624585 94.877 -68.9336
6.672590 94.938 -69.6418
6.720942 94.998 -70.3481
6.769645 95.058 -71.0526
6.818700 95.117 -71.7552
6.868111 95.175 -72.4561
6.917881 95.234 -73.1549
6.968010 95.291 -73.8520
7.018504 95.349 -74.5474
7.069362 95.405 -75.2411
7.120590 95.462 -75.9333
7.172189 95.517 -76.6240
7.224161 95.573 -77.3131
7.276511 95.627 -78.0007
7.329239 95.682 -78.6868
7.382350 95.735 -79.3713
7.435845 95.788 -80.0546
7.489729 95.841 -80.7365
7.544002 95.893 -81.4170
7.598669 95.945 -82.0959
7.653732 95.996 -82.7733
7.709194 96.046 -83.4491
7.765058 96.096 -84.1234
7.821327 96.145 -84.7961
7.878004 96.193 -85.4672
7.935091 96.241 -86.1364
7.992592 96.289 -86.8036
8.050510 96.335 -87.4688
8.108847 96.381 -88.1317
8.167607 96.427 -88.7925
8.226793 96.471 -89.4510
8.286408 96.515 -90.1070
8.346454 96.559 -90.7603
8.406936 96.602 -91.4106
8.467856 96.644 -92.0581
8.529218 96.686 -92.7025
8.591024 96.727 -93.3439
8.653278 96.768 -93.9821
8.715983 96.808 -94.6169
8.779143 96.847 -95.2483
8.842760 96.886 -95.8762
8.906839 96.925 -96.5007
8.971381 96.963 -97.1218
9.036392 97.001 -97.7395
9.101873 97.039 -98.3539
9.167829 97.076 -98.9651
9.234263 97.113 -99.5731
9.301178 97.150 -100.1781
9.368578 97.186 -100.7803
9.436467 97.223 -101.3798
9.504847 97.259 -101.9769
9.573723 97.295 -102.5717
9.643099 97.330 -103.1645
9.712976 97.366 -103.7555
9.783361 97.401 -104.3448
9.854255 97.436 -104.9328
9.925663 97.471 -105.5197
9.997588 97.506 -106.1053
10.070035 97.540 -106.6902
10.143007 97.574 -107.2743
10.216507 97.608 -107.8577
10.290540 97.641 -108.4404
10.365109 97.674 -109.0224
10.440219 97.706 -109.6038
10.515873 97.738 -110.1843
10.592076 97.769 -110.7639
10.668830 97.800 -111.3423
10.746141 97.830 -111.9196
10.824012 97.859 -112.4954
10.902447 97.888 -113.0695
10.981451 97.917 -113.6415
11.061027 97.944 -114.2114
11.141180 97.972 -114.7789
11.221913 97.998 -115.3438
11.303232 98.024 -115.9058
11.385140 98.050 -116.4647
11.467641 98.075 -117.0205
11.550741 98.100 -117.5732
11.634442 98.124 -118.1227
11.718750 98.148 -118.6691
11.803669 98.172 -119.2123
11.889203 98.195 -119.7526
11.975357 98.219 -120.2902
12.062136 98.242 -120.8253
12.149543 98.265 -121.3580
12.237583 98.288 -121.8889
12.326262 98.310 -122.4180
12.415583 98.333 -122.9457
12.505552 98.355 -123.4722
12.596172 98.377 -123.9978
12.687449 98.399 -124.5226
12.779387 98.421 -125.0468
12.871992 98.442 -125.5704
12.965268 98.463 -126.0934
13.059220 98.483 -126.6159
13.153852 98.504 -127.1376
13.249170 98.523 -127.6585
13.345179 98.543 -128.1783
13.441884 98.561 -128.6968
13.539289 98.579 -129.2137
13.637401 98.597 -129.7288
13.736223 98.614 -130.2418
13.835761 98.631 -130.7526
13.936021 98.647 -131.2607
14.037007 98.663 -131.7664
14.138725 98.679 -132.2693
14.241180 98.694 -132.7695
14.344377 98.709 -133.2669
14.448323 98.724 -133.7617
14.553021 98.739 -134.2540
14.658478 98.753 -134.7439
14.764700 98.767 -135.2315
14.871691 98.781 -135.7170
14.979457 98.795 -136.2007
15.088005 98.809 -136.6825
15.197339 98.823 -137.1627
15.307465 98.837 -137.6412
15.418389 98.850 -138.1183
15.530117 98.863 -138.5939
15.642655 98.877 -139.0681
15.756008 98.890 -139.5410
15.870182 98.902 -140.0126
15.985184 98.915 -140.4831
16.101019 98.928 -140.9526
16.217694 98.941 -141.4215
16.335214 98.953 -141.8900
16.453586 98.966 -142.3584
16.572815 98.978 -142.8271
16.692909 98.990 -143.2965
16.813872 99.002 -143.7668
16.935713 99.014 -144.2385
17.058436 99.025 -144.7114
17.182048 99.036 -145.1858
17.306556 99.047 -145.6614
17.431967 99.056 -146.1378
17.558286 99.065 -146.6146
17.685521 99.073 -147.0909
17.813677 99.080 -147.5660
17.942762 99.085 -148.0388
18.072783 99.090 -148.5084
18.203746 99.094 -148.9737
18.335658 99.097 -149.4338
18.468526 99.100 -149.8879
18.602356 99.102 -150.3356
18.737156 99.103 -150.7764
18.872934 99.105 -151.2103
19.009695 99.106 -151.6377
19.147447 99.108 -152.0590
19.286197 99.110 -152.4750
19.425953 99.112 -152.8865
19.566721 99.115 -153.2947
19.708510 99.119 -153.7007
19.851326 99.123 -154.1057
19.995177 99.128 -154.5106
20.140070 99.133 -154.9166
20.286013 99.139 -155.3246
20.433014 99.144 -155.7354
20.581080 99.150 -156.1495
20.730219 99.156 -156.5676
20.880439 99.162 -156.9900
21.031747 99.168 -157.4167
21.184152 99.173 -157.8476
21.337661 99.177 -158.2823
21.492282 99.181 -158.7203
21.648024 99.183 -159.1603
21.804895 99.185 -159.6011
21.962902 99.185 -160.0413
22.122054 99.184 -160.4791
22.282360 99.182 -160.9130
22.443827 99.179 -161.3412
22.606464 99.175 -161.7627
22.770280 99.171 -162.1768
22.935283 99.167 -162.5834
23.101481 99.163 -162.9831
23.268884 99.160 -163.3772
23.437500 99.157 -163.7676
23.607338 99.156 -164.1564
23.778406 99.155 -164.5459
23.950714 99.155 -164.9382
24.124271 99.156 -165.3348
24.299086 99.157 -165.7368
24.475167 99.157 -166.1441
24.652524 99.157 -166.5562
24.831166 99.156 -166.9714
25.011103 99.154 -167.3882
25.192344 99.151 -167.8044
25.374898 99.146 -168.2184
25.558775 99.142 -168.6286
25.743984 99.136 -169.0344
25.930536 99.131 -169.4357
26.118439 99.125 -169.8331
26.307704 99.120 -170.2278
26.498341 99.115 -170.6208
26.690359 99.110 -171.0138
26.883768 99.104 -171.4073
27.078579 99.099 -171.8021
27.274801 99.093 -172.1981
27.472446 99.087 -172.5948
27.671522 99.080 -172.9912
27.872042 99.072 -173.3865
28.074014 99.063 -173.7797
28.277450 99.054 -174.1701
28.482360 99.044 -174.5572
28.688755 99.033 -174.9408
28.896645 99.022 -175.3210
29.106042 99.011 -175.6979
29.316957 98.999 -176.0714
29.529400 98.987 -176.4414
29.743382 98.975 -176.8074
29.958915 98.962 -177.1686
30.176009 98.949 -177.5247
30.394677 98.935 -177.8748
30.614929 98.922 -178.2191
30.836778 98.909 -178.5577
31.060234 98.897 -178.8917
31.285309 98.886 -179.2227
31.512015 98.875 -179.5527
31.740364 98.866 -179.8839
31.970368 98.857 179.7817
32.202039 98.849 179.4425
32.435388 98.841 179.0976
32.670428 98.833 178.7465
32.907171 98.824 178.3897
33.145630 98.816 178.0280
33.385817 98.806 177.6622
33.627745 98.796 177.2933
33.871425 98.785 176.9222
34.116871 98.774 176.5496
34.364096 98.761 176.1758
34.613113 98.748 175.8018
34.863934 98.734 175.4283
35.116572 98.719 175.0567
35.371041 98.703 174.6882
35.627354 98.687 174.3242
35.885525 98.670 173.9656
36.145566 98.653 173.6127
36.407492 98.636 173.2649
36.671316 98.620 172.9208
36.937051 98.604 172.5781
37.204712 98.589 172.2344
37.474313 98.574 171.8871
37.745867 98.560 171.5344
38.019389 98.545 171.1752
38.294893 98.530 170.8094
38.572394 98.514 170.4382
38.851905 98.497 170.0637
39.133442 98.478 169.6882
39.417019 98.458 169.3143
39.702651 98.437 168.9441
39.990353 98.415 168.5787
40.280140 98.393 168.2184
40.572026 98.370 167.8628
40.866028 98.348 167.5107
41.162160 98.325 167.1609
41.460438 98.303 166.8123
41.760877 98.280 166.4639
42.063494 98.257 166.1151
42.368303 98.234 165.7656
42.675322 98.211 165.4159
42.984565 98.187 165.0670
43.296048 98.162 164.7206
43.609789 98.137 164.3784
43.925804 98.111 164.0420
44.244108 98.085 163.7115
44.564719 98.060 163.3856
44.887654 98.036 163.0616
45.212928 98.012 162.7367
45.540560 97.989 162.4084
45.870565 97.966 162.0764
46.202962 97.942 161.7415
46.537768 97.918 161.4055
46.875000 97.893 161.0696
47.214676 97.867 160.7338
47.556813 97.842 160.3972
47.901429 97.816 160.0588
48.248542 97.789 159.7192
48.598171 97.761 159.3799
48.950334 97.732 159.0437
49.305048 97.702 158.7123
49.662333 97.672 158.3859
50.022206 97.642 158.0624
50.384688 97.612 157.7390
50.749796 97.581 157.4136
51.117550 97.550 157.0861
51.487969 97.518 156.7582
51.861072 97.485 156.4322
52.236879 97.452 156.1099
52.615409 97.418 155.7913
52.996681 97.384 155.4753
53.380717 97.350 155.1597
53.767536 97.316 154.8433
54.157158 97.282 154.5256
54.549603 97.248 154.2070
54.944892 97.214 153.8885
55.343045 97.180 153.5701
55.744084 97.146 153.2506
56.148028 97.111 152.9280
56.554900 97.077 152.6010
56.964720 97.041 152.2708
57.377510 97.004 151.9417
57.793291 96.965 151.6202
58.212085 96.925 151.3121
58.633914 96.884 151.0190
59.058799 96.844 150.7383
59.486764 96.806 150.4646
59.917829 96.767 150.1928
60.352019 96.729 149.9204
60.789354 96.691 149.6471
61.229859 96.652 149.3734
61.673556 96.612 149.0993
62.120468 96.572 148.8241
62.570618 96.531 148.5472
63.024031 96.488 148.2688
63.480729 96.445 147.9894
63.940736 96.401 147.7097
64.404077 96.357 147.4292
64.870776 96.313 147.1462
65.340856 96.269 146.8586
65.814343 96.225 146.5640
66.291261 96.181 146.2620
66.771635 96.137 145.9530
67.255489 96.092 145.6381
67.742850 96.046 145.3189
68.233743 95.998 144.9994
68.728193 95.948 144.6877
69.226226 95.896 144.3936
69.727867 95.844 144.1228
70.233144 95.793 143.8739
70.742083 95.744 143.6395
71.254709 95.696 143.4128
71.771050 95.648 143.1908
72.291132 95.601 142.9722
72.814984 95.555 142.7549
73.342631 95.509 142.5348
73.874102 95.462 142.3096
74.409424 95.414 142.0796
74.948626 95.365 141.8467
75.491734 95.315 141.6131
76.038779 95.263 141.3816
76.589787 95.210 141.1553
77.144788 95.157 140.9363
77.703811 95.104 140.7235
78.266885 95.053 140.5134
78.834039 95.002 140.3024
79.405303 94.952 140.0895
79.980706 94.902 139.8749
80.560280 94.853 139.6592
81.144053 94.803 139.4417
81.732056 94.753 139.2211
82.324320 94.702 138.9979
82.920876 94.650 138.7747
83.521755 94.595 138.5562
84.126988 94.539 138.3469
84.736607 94.481 138.1500
85.350643 94.422 137.9650
85.969129 94.364 137.7888
86.592097 94.306 137.6165
87.219579 94.248 137.4437
87.851608 94.191 137.2673
88.488217 94.133 137.0869
89.129439 94.074 136.9037
89.775308 94.015 136.7200
90.425856 93.955 136.5382
91.081119 93.894 136.3607
91.741131 93.833 136.1897
92.405925 93.772 136.0260
93.075536 93.711 135.8683
93.750000 93.650 135.7130
94.429351 93.590 135.5574
95.113625 93.529 135.4008
95.802858 93.467 135.2440
96.497085 93.405 135.0878
97.196342 93.343 134.9324
97.900667 93.280 134.7773
98.610096 93.217 134.6219
99.324665 93.154 134.4666
100.044413 93.090 134.3138
100.769376 93.026 134.1671
101.499592 92.961 134.0300
102.235100 92.896 133.9057
102.975938 92.831 133.7971
103.722144 92.767 133.7044
104.473757 92.704 133.6240
105.230817 92.641 133.5500
105.993363 92.579 133.4782
106.761435 92.516 133.4072
107.535072 92.453 133.3369
108.314315 92.390 133.2675
109.099206 92.325 133.1996
109.889783 92.259 133.1335
110.686090 92.193 133.0687
111.488167 92.126 133.0051
112.296056 92.059 132.9428
113.109800 91.992 132.8827
113.929440 91.926 132.8246
114.755020 91.862 132.7661
115.586582 91.799 132.7021
116.424170 91.738 132.6274
117.267827 91.676 132.5399
118.117598 91.614 132.4436
118.973527 91.548 132.3494
119.835658 91.478 132.2729
120.704037 91.405 132.2294
121.578708 91.330 132.2227
122.459718 91.256 132.2422
123.347111 91.183 132.2728
124.240935 91.110 132.3049
125.141236 91.036 132.3372
126.048061 90.961 132.3727
126.961458 90.887 132.4141
127.881473 90.813 132.4609
128.808154 90.742 132.5090
129.741551 90.672 132.5520
130.681712 90.605 132.5861
131.628686 90.538 132.6121
132.582521 90.471 132.6351
133.543269 90.402 132.6653
134.510979 90.330 132.7167
135.485701 90.255 132.7997
136.467486 90.179 132.9147
137.456386 90.100 133.0558
138.452451 90.019 133.2191
139.455735 89.936 133.4050
140.466288 89.854 133.6133
141.484165 89.773 133.8402
142.509418 89.697 134.0852
143.542100 89.627 134.3527
144.582265 89.565 134.6454
145.629968 89.512 134.9587
146.685262 89.468 135.2809
147.748204 89.432 135.5969
148.818849 89.402 135.8903
149.897251 89.377 136.1465
150.983469 89.354 136.3558
152.077557 89.332 136.5127
153.179574 89.310 136.6160
154.289576 89.286 136.6705
155.407622 89.258 136.6870
156.533770 89.225 136.6790
157.668078 89.186 136.6589
158.810606 89.143 136.6357
159.961413 89.094 136.6161
161.120559 89.043 136.6060
162.288105 88.990 136.6111
163.464112 88.936 136.6354
164.648640 88.882 136.6786
165.841752 88.828 136.7371
167.043510 88.775 136.8055
168.253976 88.721 136.8792
169.473213 88.665 136.9567
170.701286 88.609 137.0404
171.938258 88.553 137.1337
173.184194 88.496 137.2385
174.439158 88.441 137.3552
175.703216 88.386 137.4827
176.976434 88.332 137.6196
178.258878 88.278 137.7645
179.550615 88.224 137.9155
180.851713 88.170 138.0714
182.162239 88.116 138.2313
183.482262 88.063 138.3938
184.811850 88.011 138.5574
186.151073 87.960 138.7210
187.500000 87.909 138.8842
188.858702 87.860 139.0470
190.227250 87.810 139.2094
191.605715 87.761 139.3715
192.994169 87.712 139.5350
194.392685 87.664 139.7022
195.801334 87.615 139.8747
197.220191 87.567 140.0522
198.649330 87.520 140.2335
200.088825 87.474 140.4169
201.538751 87.428 140.6008
202.999184 87.382 140.7841
204.470200 87.335 140.9658
205.951875 87.289 141.1462
207.444287 87.243 141.3268
208.947514 87.198 141.5101
210.461634 87.152 141.6994
211.986726 87.107 141.8961
213.522869 87.062 142.0997
215.070144 87.017 142.3099
216.628631 86.972 142.5260
218.198411 86.928 142.7468
219.779567 86.886 142.9703
221.372180 86.846 143.1946
222.976334 86.807 143.4184
224.592112 86.768 143.6409
226.219600 86.727 143.8627
227.858880 86.684 144.0866
229.510039 86.641 144.3152
231.173164 86.598 144.5486
232.848340 86.557 144.7842
234.535655 86.520 145.0155
236.235197 86.485 145.2349
237.947054 86.454 145.4388
239.671317 86.426 145.6307
241.408074 86.401 145.8178
243.157416 86.378 146.0071
244.919435 86.353 146.2015
246.694223 86.325 146.3979
248.481871 86.293 146.5918
250.282473 86.258 146.7818
252.096123 86.221 146.9702
253.922915 86.185 147.1602
255.762945 86.150 147.3533
257.616309 86.115 147.5490
259.483103 86.081 147.7461
261.363424 86.048 147.9438
263.257372 86.016 148.1412
265.165043 85.985 148.3373
267.086538 85.954 148.5321
269.021957 85.924 148.7258
270.971401 85.893 148.9189
272.934972 85.861 149.1124
274.912771 85.828 149.3062
276.904902 85.795 149.4993
278.911469 85.762 149.6909
280.932577 85.731 149.8793
282.968330 85.700 150.0623
285.018835 85.669 150.2393
287.084199 85.638 150.4116
289.164530 85.609 150.5820
291.259935 85.579 150.7529
293.370525 85.549 150.9268
295.496408 85.518 151.1045
297.637697 85.486 151.2848
299.794503 85.454 151.4658
301.966937 85.420 151.6461
304.155114 85.387 151.8254
306.359147 85.353 152.0042
308.579152 85.318 152.1836
310.815244 85.283 152.3652
313.067539 85.247 152.5500
315.336156 85.210 152.7381
317.621211 85.173 152.9283
319.922826 85.136 153.1192
322.241118 85.099 153.3098
324.576210 85.062 153.5002
326.928223 85.025 153.6912
329.297280 84.989 153.8838
331.683504 84.953 154.0786
334.087019 84.917 154.2761
336.507952 84.882 154.4769
338.946427 84.847 154.6809
341.402572 84.812 154.8879
343.876516 84.776 155.0975
346.368387 84.740 155.3099
348.878315 84.703 155.5251
351.406431 84.665 155.7433
353.952867 84.627 155.9647
356.517756 84.589 156.1896
359.101230 84.551 156.4180
361.703426 84.513 156.6500
364.324478 84.475 156.8857
366.964523 84.437 157.1251
369.623699 84.399 157.3682
372.302145 84.361 157.6140
375.000000 84.322 157.8619
377.717405 84.283 158.1125
380.454501 84.245 158.3684
383.211431 84.207 158.6315
385.988339 84.170 158.9024
388.785369 84.133 159.1804
391.602668 84.095 159.4644
394.440383 84.058 159.7537
397.298660 84.021 160.0479
400.177650 83.983 160.3474
403.077502 83.946 160.6524
405.998368 83.909 160.9629
408.940400 83.872 161.2783
411.903750 83.836 161.5977
414.888575 83.799 161.9202
417.895028 83.763 162.2452
420.923268 83.728 162.5731
423.973452 83.693 162.9052
427.045738 83.658 163.2432
430.140287 83.623 163.5872
433.257261 83.589 163.9371
436.396822 83.555 164.2930
439.559133 83.521 164.6545
442.744360 83.489 165.0212
445.952668 83.457 165.3924
449.184225 83.426 165.7681
452.439199 83.396 166.1490
455.717760 83.367 166.5361
459.020079 83.339 166.9298
462.346327 83.311 167.3295
465.696680 83.284 167.7342
469.071310 83.258 168.1427
472.470394 83.232 168.5539
475.894109 83.206 168.9667
479.342634 83.182 169.3806
482.816148 83.158 169.7955
486.314833 83.136 170.2119
489.838871 83.114 170.6301
493.388445 83.095 171.0511
496.963741 83.076 171.4753
500.564945 83.059 171.9032
504.192245 83.042 172.3346
507.845830 83.027 172.7690
511.525890 83.013 173.2057
515.232618 83.000 173.6439
518.966206 82.987 174.0828
522.726849 82.975 174.5214
526.514743 82.964 174.9591
530.330086 82.953 175.3956
534.173076 82.943 175.8309
538.043915 82.934 176.2649
541.942803 82.925 176.6978
545.869944 82.917 177.1295
549.825542 82.910 177.5603
553.809805 82.904 177.9902
557.822939 82.899 178.4203
561.865154 82.894 178.8520
565.936660 82.890 179.2856
570.037671 82.887 179.7200
574.168399 82.884 -179.8465
578.329060 82.882 -179.4150
582.519870 82.880 -178.9860
586.741049 82.878 -178.5593
590.992817 82.877 -178.1346
595.275394 82.875 -177.7122
599.589005 82.874 -177.2921
603.933874 82.873 -176.8744
608.310228 82.873 -176.4576
612.718295 82.872 -176.0399
617.158304 82.872 -175.6191
621.630488 82.871 -175.1937
626.135079 82.871 -174.7628
630.672311 82.870 -174.3273
635.242423 82.870 -173.8882
639.845651 82.870 -173.4458
644.482237 82.870 -172.9993
649.152421 82.872 -172.5469
653.856447 82.874 -172.0870
658.594560 82.876 -171.6180
663.367008 82.880 -171.1394
668.174039 82.884 -170.6520
673.015903 82.889 -170.1572
677.892854 82.896 -169.6569
682.805145 82.905 -169.1525
687.753032 82.915 -168.6448
692.736774 82.928 -168.1344
697.756631 82.942 -167.6223
702.812863 82.959 -167.1097
707.905735 82.977 -166.5983
713.035511 82.998 -166.0885
718.202461 83.020 -165.5806
723.406852 83.043 -165.0741
728.648956 83.068 -164.5693
733.929047 83.095 -164.0676
739.247399 83.123 -163.5709
744.604290 83.152 -163.0815
750.000000 83.182 -162.6011
755.434809 83.212 -162.1306
760.909001 83.244 -161.6697
766.422861 83.276 -161.2173
771.976677 83.309 -160.7715
777.570739 83.342 -160.3302
783.205337 83.376 -159.8916
788.880766 83.410 -159.4543
794.597321 83.444 -159.0173
800.355301 83.479 -158.5806
806.155005 83.515 -158.1445
811.996736 83.551 -157.7090
817.880799 83.587 -157.2738
823.807501 83.624 -156.8391
829.777150 83.662 -156.4052
835.790057 83.700 -155.9724
841.846536 83.738 -155.5404
847.946903 83.778 -155.1086
854.091476 83.819 -154.6771
860.280575 83.862 -154.2460
866.514523 83.905 -153.8151
872.793644 83.949 -153.3845
879.118267 83.993 -152.9540
885.488720 84.039 -152.5234
891.905336 84.085 -152.0925
898.368450 84.133 -151.6620
904.878398 84.183 -151.2338
911.435520 84.234 -150.8094
918.040157 84.287 -150.3893
924.692655 84.341 -149.9737
931.393359 84.397 -149.5630
938.142619 84.454 -149.1570
944.940787 84.513 -148.7551
951.788218 84.572 -148.3568
958.685268 84.633 -147.9611
965.632296 84.695 -147.5678
972.629666 84.757 -147.1774
979.677741 84.820 -146.7914
986.776890 84.885 -146.4114
993.927482 84.950 -146.0391
1001.129891 85.016 -145.6750
1008.384491 85.084 -145.3198
1015.691660 85.152 -144.9731
1023.051781 85.221 -144.6349
1030.465236 85.292 -144.3048
1037.932411 85.363 -143.9826
1045.453698 85.435 -143.6683
1053.029486 85.508 -143.3623
1060.660172 85.581 -143.0651
1068.346153 85.656 -142.7774
1076.087829 85.731 -142.4996
1083.885605 85.807 -142.2319
1091.739887 85.884 -141.9744
1099.651084 85.961 -141.7271
1107.619609 86.038 -141.4899
1115.645878 86.116 -141.2625
1123.730308 86.194 -141.0444
1131.873321 86.272 -140.8353
1140.075341 86.350 -140.6349
1148.336797 86.429 -140.4429
1156.658119 86.507 -140.2593
1165.039741 86.586 -140.0840
1173.482099 86.664 -139.9173
1181.985634 86.743 -139.7599
1190.550789 86.821 -139.6123
1199.178011 86.899 -139.4747
1207.867749 86.977 -139.3466
1216.620457 87.055 -139.2270
1225.436590 87.132 -139.1147
1234.316609 87.209 -139.0088
1243.260976 87.286 -138.9088
1252.270157 87.363 -138.8141
1261.344623 87.440 -138.7246
1270.484846 87.516 -138.6400
1279.691303 87.592 -138.5604
1288.964474 87.667 -138.4861
1298.304842 87.743 -138.4170
1307.712894 87.818 -138.3530
1317.189120 87.892 -138.2941
1326.734016 87.967 -138.2401
1336.348077 88.041 -138.1909
1346.031806 88.115 -138.1460
1355.785708 88.188 -138.1050
1365.610290 88.261 -138.0672
1375.506065 88.334 -138.0325
1385.473549 88.407 -138.0011
1395.513261 88.480 -137.9729
1405.625726 88.553 -137.9482
1415.811469 88.626 -137.9270
1426.071023 88.699 -137.9093
1436.404921 88.771 -137.8947
1446.813703 88.844 -137.8831
1457.297912 88.917 -137.8741
1467.858093 88.989 -137.8678
1478.494798 89.062 -137.8638
1489.208581 89.135 -137.8624
1500.000000 89.208 -137.8635
1510.869618 89.281 -137.8672
1521.818002 89.355 -137.8738
1532.845723 89.428 -137.8832
1543.953355 89.502 -137.8956
1555.141477 89.576 -137.9114
1566.410674 89.651 -137.9305
1577.761531 89.725 -137.9532
1589.194642 89.800 -137.9797
1600.710601 89.876 -138.0103
1612.310010 89.952 -138.0449
1623.993473 90.028 -138.0837
1635.761599 90.105 -138.1270
1647.615002 90.182 -138.1745
1659.554299 90.260 -138.2266
1671.580114 90.338 -138.2834
1683.693072 90.416 -138.3450
1695.893807 90.495 -138.4116
1708.182952 90.575 -138.4837
1720.561150 90.655 -138.5615
1733.029045 90.736 -138.6454
1745.587288 90.817 -138.7358
1758.236533 90.898 -138.8329
1770.977440 90.980 -138.9369
1783.810673 91.063 -139.0481
1796.736900 91.147 -139.1667
1809.756796 91.231 -139.2931
1822.871040 91.315 -139.4277
1836.080315 91.400 -139.5707
1849.385310 91.485 -139.7228
1862.786718 91.571 -139.8840
1876.285239 91.658 -140.0550
1889.881575 91.745 -140.2360
1903.576436 91.832 -140.4274
1917.370535 91.920 -140.6295
1931.264593 92.008 -140.8428
1945.259332 92.097 -141.0676
1959.355483 92.186 -141.3043
1973.553781 92.275 -141.5532
1987.854965 92.364 -141.8147
2002.259781 92.454 -142.0891
2016.768981 92.544 -142.3768
2031.383320 92.633 -142.6782
2046.103561 92.723 -142.9935
2060.930471 92.813 -143.3231
2075.864823 92.903 -143.6673
2090.907395 92.992 -144.0266
2106.058972 93.082 -144.4016
2121.320344 93.171 -144.7924
2136.692305 93.259 -145.1998
2152.175658 93.348 -145.6238
2167.771210 93.435 -146.0649
2183.479774 93.522 -146.5235
2199.302169 93.608 -146.9996
2215.239219 93.692 -147.4938
2231.291755 93.776 -148.0060
2247.460615 93.859 -148.5366
2263.746641 93.940 -149.0854
2280.150683 94.019 -149.6524
2296.673595 94.097 -150.2375
2313.316238 94.173 -150.8406
2330.079481 94.248 -151.4614
2346.964198 94.320 -152.0997
2363.971268 94.389 -152.7552
2381.101578 94.457 -153.4274
2398.356022 94.521 -154.1158
2415.735498 94.583 -154.8199
2433.240913 94.642 -155.5391
2450.873180 94.698 -156.2727
2468.633217 94.750 -157.0199
2486.521951 94.800 -157.7800
2504.540314 94.846 -158.5522
2522.689246 94.888 -159.3359
2540.969692 94.926 -160.1299
2559.382606 94.961 -160.9332
2577.928947 94.992 -161.7449
2596.609683 95.018 -162.5634
2615.425787 95.041 -163.3877
2634.378241 95.060 -164.2164
2653.468031 95.074 -165.0481
2672.696154 95.084 -165.8812
2692.063613 95.090 -166.7144
2711.571415 95.091 -167.5463
2731.220579 95.088 -168.3754
2751.012130 95.081 -169.2004
2770.947098 95.069 -170.0197
2791.026522 95.053 -170.8318
2811.251451 95.033 -171.6352
2831.622938 95.009 -172.4284
2852.142045 94.980 -173.2098
2872.809842 94.948 -173.9778
2893.627406 94.911 -174.7308
2914.595823 94.871 -175.4673
2935.716186 94.826 -176.1857
2956.989596 94.779 -176.8842
2978.417161 94.728 -177.5612
3000.000000 94.673 -178.2145
3021.739237 94.616 -178.8422
3043.636005 94.556 -179.4423
3065.691446 94.494 179.9872
3087.906710 94.431 179.4477
3110.282955 94.366 178.9401
3132.821347 94.302 178.4646
3155.523062 94.237 178.0201
3178.389283 94.175 177.6041
3201.421202 94.114 177.2125
3224.620020 94.056 176.8396
3247.986946 94.000 176.4784
3271.523198 93.948 176.1218
3295.230004 93.897 175.7640
3319.108599 93.848 175.4011
3343.160228 93.798 175.0320
3367.386145 93.748 174.6581
3391.787613 93.697 174.2830
3416.365904 93.644 173.9110
3441.122300 93.589 173.5468
3466.058091 93.533 173.1938
3491.174576 93.476 172.8542
3516.473066 93.419 172.5286
3541.954880 93.362 172.2155
3567.621345 93.305 171.9127
3593.473800 93.249 171.6168
3619.513592 93.193 171.3246
3645.742080 93.138 171.0334
3672.160630 93.083 170.7412
3698.770620 93.026 170.4474
3725.573436 92.969 170.1530
3752.570477 92.910 169.8601
3779.763150 92.849 169.5724
3807.152872 92.785 169.2947
3834.741071 92.719 169.0325
3862.529185 92.651 168.7911
3890.518664 92.581 168.5751
3918.710966 92.511 168.3871
3947.107561 92.442 168.2277
3975.709929 92.374 168.0945
4004.519563 92.308 167.9829
4033.537962 92.246 167.8868
4062.766641 92.187 167.7998
4092.207123 92.131 167.7156
4121.860942 92.077 167.6292
4151.729646 92.027 167.5367
4181.814790 91.977 167.4359
4212.117944 91.929 167.3257
4242.640687 91.882 167.2057
4273.384610 91.835 167.0762
4304.351317 91.787 166.9380
4335.542421 91.739 166.7922
4366.959549 91.690 166.6403
4398.604338 91.639 166.4837
4430.478438 91.588 166.3238
4462.583511 91.535 166.1620
4494.921231 91.482 165.9994
4527.493283 91.426 165.8372
4560.301365 91.370 165.6759
4593.347189 91.312 165.5165
4626.632476 91.253 165.3597
4660.158962 91.193 165.2062
4693.928395 91.131 165.0569
4727.942535 91.068 164.9126
4762.203156 91.004 164.7738
4796.712043 90.938 164.6413
4831.470996 90.872 164.5153
4866.481826 90.804 164.3958
4901.746360 90.735 164.2830
4937.266434 90.665 164.1769
4973.043902 90.593 164.0776
5009.080628 90.521 163.9856
5045.378492 90.448 163.9012
5081.939384 90.373 163.8254
5118.765212 90.297 163.7593
5155.857894 90.219 163.7040
5193.219366 90.140 163.6606
5230.851574 90.060 163.6306
5268.756481 89.978 163.6154
5306.936062 89.895 163.6167
5345.392309 89.810 163.6361
5384.127225 89.725 163.6755
5423.142830 89.638 163.7365
5462.441159 89.551 163.8204
5502.024259 89.464 163.9283
5541.894195 89.376 164.0610
5582.053045 89.289 164.2188
5622.502902 89.202 164.4017
5663.245876 89.116 164.6096
5704.284090 89.031 164.8424
5745.619684 88.947 165.0999
5787.254813 88.865 165.3816
5829.191647 88.784 165.6871
5871.432373 88.705 166.0162
5913.979192 88.628 166.3680
5956.834323 88.554 166.7419
6000.000000 88.482 167.1370
6043.478473 88.413 167.5519
6087.272010 88.346 167.9857
6131.382892 88.283 168.4371
6175.813420 88.223 168.9050
6220.565910 88.166 169.3883
6265.642695 88.112 169.8862
6311.046124 88.062 170.3977
6356.778566 88.016 170.9223
6402.842404 87.973 171.4592
6449.240040 87.934 172.0083
6495.973891 87.898 172.5692
6543.046396 87.867 173.1422
6590.460007 87.840 173.7273
6638.217197 87.817 174.3251
6686.320456 87.799 174.9358
6734.772290 87.787 175.5599
6783.575226 87.780 176.1973
6832.731809 87.780 176.8479
6882.244600 87.787 177.5109
6932.116181 87.802 178.1844
6982.349153 87.826 178.8657
7032.946133 87.860 179.5504
7083.909760 87.904 -179.7675
7135.242690 87.961 -179.0958
7186.947600 88.030 -178.4438
7239.027185 88.112 -177.8223
7291.484160 88.207 -177.2430
7344.321260 88.316 -176.7184
7397.541239 88.437 -176.2613
7451.146872 88.571 -175.8843
7505.140954 88.717 -175.5999
7559.526299 88.875 -175.4210
7614.305743 89.042 -175.3607
7669.482141 89.218 -175.4323
7725.058371 89.402 -175.6496
7781.037328 89.591 -176.0267
7837.421932 89.783 -176.5773
7894.215122 89.974 -177.3140
7951.419859 90.162 -178.2472
8009.039125 90.342 -179.3842
8067.075924 90.510 179.2725
8125.533282 90.660 177.7249
8184.414245 90.788 175.9812
8243.721885 90.889 174.0561
8303.459292 90.958 171.9707
8363.629581 90.991 169.7526
8424.235888 90.983 167.4350
8485.281374 90.934 165.0558
8546.769221 90.840 162.6556
8608.702634 90.703 160.2758
8671.084842 90.522 157.9561
8733.919097 90.300 155.7336
8797.208675 90.039 153.6414
8860.956876 89.742 151.7075
8925.167022 89.415 149.9551
8989.842461 89.059 148.4023
9054.986566 88.680 147.0629
9120.602731 88.281 145.9468
9186.694378 87.866 145.0612
9253.264952 87.438 144.4113
9320.317925 87.001 144.0007
9387.856790 86.558 143.8314
9455.885071 86.113 143.9023
9524.406312 85.670 144.2101
9593.424086 85.232 144.7473
9662.941992 84.802 145.5034
9732.963653 84.383 146.4645
9803.492719 83.979 147.6144
9874.532869 83.590 148.9353
9946.087805 83.220 150.4089
10018.161257 82.870 152.0184
10090.756983 82.540 153.7476
10163.878768 82.231 155.5820
10237.530423 81.942 157.5089
10311.715789 81.674 159.5173
10386.438732 81.426 161.5983
10461.703149 81.198 163.7438
10537.512962 80.990 165.9468
10613.872125 80.802 168.2008
10690.784618 80.634 170.5002
10768.254450 80.485 172.8400
10846.285661 80.355 175.2155
10924.882318 80.246 177.6227
11004.048518 80.156 -179.9423
11083.788390 80.085 -177.4831
11164.106090 80.035 -175.0034
11245.005805 80.005 -172.5077
11326.491752 79.996 -170.0002
11408.568180 80.008 -167.4852
11491.239368 80.043 -164.9671
11574.509626 80.101 -162.4503
11658.383294 80.182 -159.9397
11742.864745 80.289 -157.4412
11827.958384 80.423 -154.9620
11913.668646 80.585 -152.5104
12000.000000 80.777 -150.0964
12086.956947 81.000 -147.7313
12174.544019 81.257 -145.4294
12262.765784 81.550 -143.2075
12351.626840 81.880 -141.0869
12441.131819 82.252 -139.0936
12531.285389 82.666 -137.2596
12622.092249 83.125 -135.6241
12713.557132 83.631 -134.2350
12805.684808 84.185 -133.1497
12898.480079 84.785 -132.4371
12991.947783 85.429 -132.1768
13086.092792 86.109 -132.4564
13180.920015 86.812 -133.3652
13276.434395 87.522 -134.9861
13372.640911 88.217 -137.3854
13469.544580 88.869 -140.6004
13567.150452 89.449 -144.6268
13665.463617 89.927 -149.4064
13764.489200 90.270 -154.8181
13864.232362 90.456 -160.6770
13964.698305 90.465 -166.7431
14065.892266 90.293 -172.7448
14167.819519 89.948 -178.4104
14270.485380 89.447 176.4976
14373.895200 88.818 172.1606
14478.054370 88.094 168.6936
14582.968320 87.309 166.1451
14688.642520 86.497 164.5050
14795.082478 85.689 163.7147
14902.293745 84.909 163.6808
15010.281908 84.177 164.2889
15119.052599 83.507 165.4173
15228.611486 82.907 166.9481
15338.964283 82.378 168.7755
15450.116741 81.921 170.8105
15562.074656 81.533 172.9807
15674.843864 81.209 175.2286
15788.430244 80.944 177.5090
15902.839718 80.734 179.7855
16018.078250 80.575 -177.9715
16134.151848 80.462 -175.7866
16251.066563 80.392 -173.6822
16368.828491 80.364 -171.6797
16487.443769 80.375 -169.8018
16606.918584 80.424 -168.0741
16727.259161 80.509 -166.5258
16848.471777 80.628 -165.1902
16970.562748 80.780 -164.1046
17093.538442 80.960 -163.3079
17217.405268 81.163 -162.8386
17342.169684 81.382 -162.7314
17467.838194 81.609 -163.0134
17594.417350 81.835 -163.7004
17721.913751 82.046 -164.7938
17850.334044 82.233 -166.2781
17979.684923 82.384 -168.1206
18109.973131 82.489 -170.2724
18241.205462 82.540 -172.6714
18373.388756 82.531 -175.2466
18506.529905 82.459 -177.9229
18640.635849 82.326 179.3727
18775.713581 82.132 176.7056
18911.770141 81.882 174.1281
19048.812624 81.583 171.6772
19186.848172 81.242 169.3746
19325.883983 80.869 167.2315
19465.927305 80.476 165.2587
19606.985439 80.087 163.4821
19749.065738 79.732 161.9634
19892.175609 79.457 160.8142
20036.322514 79.304 160.1815
