* Measurement data measured by REW V5.30.4
* Source: Headset (2- CX31993 HIFI AUDIO), MICROPHONE (Master Volume), L, volume: 0.500
* Format: 256k Log Swept Sine, 1 sweep at -12.0 dBFS with no timing reference
* Dated: 08 1, 24 3:33:47 PM
* REW Settings:
*  C-weighting compensation: Off
*  Target level: 75.0 dB
* Note: ; 
* Measurement: KZ Castor Bass DDDD L
* Smoothing: 1/12 octave
* Frequency Step: 96 ppo
* Start Frequency: 20.141602 Hz
*
* Freq(Hz) SPL(dB) Phase(degrees)
20.141602 92.073 -156.9965
20.287556 92.082 -156.9634
20.434568 92.096 -156.9612
20.582645 92.112 -156.9808
20.731796 92.131 -157.0153
20.882027 92.150 -157.0604
21.033346 92.171 -157.1164
21.185762 92.193 -157.1886
21.339283 92.215 -157.2703
21.493916 92.238 -157.3623
21.649670 92.263 -157.4646
21.806553 92.288 -157.5768
21.964573 92.313 -157.6969
22.123737 92.339 -157.8290
22.284056 92.366 -157.9648
22.445536 92.393 -158.0983
22.608185 92.420 -158.2257
22.772013 92.448 -158.3434
22.937029 92.477 -158.4493
23.103241 92.507 -158.5471
23.270657 92.538 -158.6357
23.439285 92.571 -158.7141
23.609137 92.604 -158.7856
23.780218 92.638 -158.8542
23.952539 92.671 -158.9242
24.126110 92.704 -159.0051
24.300938 92.736 -159.0962
24.477032 92.765 -159.1972
24.654402 92.791 -159.3083
24.833057 92.814 -159.4286
25.013008 92.834 -159.5565
25.194263 92.851 -159.6955
25.376831 92.866 -159.8367
25.560722 92.880 -159.9778
25.745945 92.893 -160.1174
25.932510 92.907 -160.2548
26.120428 92.923 -160.3951
26.309708 92.940 -160.5369
26.500359 92.960 -160.6785
26.692390 92.982 -160.8206
26.885815 93.006 -160.9633
27.080641 93.032 -161.1090
27.276878 93.060 -161.2577
27.474539 93.088 -161.4041
27.673630 93.115 -161.5468
27.874165 93.143 -161.6844
28.076153 93.170 -161.8183
28.279604 93.196 -161.9501
28.484529 93.222 -162.0775
28.690941 93.247 -162.2023
28.898848 93.271 -162.3266
29.108261 93.294 -162.4553
29.319191 93.317 -162.5901
29.531651 93.340 -162.7299
29.745649 93.362 -162.8750
29.961199 93.384 -163.0250
30.178310 93.406 -163.1826
30.396996 93.428 -163.3429
30.617264 93.449 -163.5027
30.839128 93.470 -163.6602
31.062601 93.492 -163.8150
31.287693 93.512 -163.9681
31.514416 93.533 -164.1162
31.742783 93.554 -164.2601
31.972803 93.575 -164.4011
32.204491 93.595 -164.5443
32.437859 93.616 -164.6891
32.672916 93.637 -164.8365
32.909679 93.658 -164.9879
33.148155 93.680 -165.1467
33.388359 93.702 -165.3116
33.630306 93.724 -165.4804
33.874004 93.747 -165.6520
34.119469 93.771 -165.8276
34.366711 93.796 -166.0064
34.615746 93.821 -166.1861
34.866585 93.846 -166.3663
35.119244 93.872 -166.5487
35.373734 93.897 -166.7333
35.630066 93.921 -166.9187
35.888256 93.945 -167.1050
36.148315 93.968 -167.2957
36.410259 93.990 -167.4910
36.674103 94.011 -167.6898
36.939857 94.033 -167.8927
37.207539 94.053 -168.1013
37.477161 94.073 -168.3127
37.748737 94.092 -168.5241
38.022282 94.110 -168.7329
38.297806 94.127 -168.9397
38.575329 94.144 -169.1395
38.854862 94.160 -169.3322
39.136421 94.177 -169.5207
39.420021 94.194 -169.7080
39.705673 94.211 -169.8961
39.993397 94.229 -170.0874
40.283207 94.247 -170.2852
40.575115 94.265 -170.4866
40.869141 94.284 -170.6898
41.165295 94.303 -170.8954
41.463596 94.322 -171.1024
41.764057 94.342 -171.3094
42.066696 94.363 -171.5185
42.371529 94.384 -171.7322
42.678570 94.403 -171.9506
42.987835 94.422 -172.1739
43.299343 94.439 -172.4041
43.613110 94.455 -172.6372
43.929150 94.469 -172.8719
44.247478 94.482 -173.1101
44.568115 94.495 -173.3498
44.891075 94.507 -173.5904
45.216373 94.520 -173.8329
45.544029 94.533 -174.0767
45.874062 94.547 -174.3206
46.206486 94.561 -174.5653
46.541317 94.576 -174.8095
46.878574 94.592 -175.0514
47.218277 94.607 -175.2914
47.560440 94.623 -175.5276
47.905083 94.639 -175.7591
48.252224 94.655 -175.9881
48.601879 94.671 -176.2169
48.954067 94.686 -176.4490
49.308807 94.700 -176.6889
49.666119 94.713 -176.9382
50.026020 94.723 -177.1964
50.388531 94.731 -177.4630
50.753666 94.737 -177.7322
51.121449 94.743 -178.0021
51.491894 94.749 -178.2725
51.865025 94.756 -178.5427
52.240860 94.765 -178.8145
52.619419 94.774 -179.0881
53.000721 94.784 -179.3619
53.384785 94.793 -179.6367
53.771633 94.802 -179.9093
54.161285 94.810 179.8201
54.553761 94.817 179.5508
54.949081 94.824 179.2824
55.347263 94.832 179.0120
55.748333 94.840 178.7390
56.152309 94.848 178.4614
56.559212 94.857 178.1773
56.969063 94.866 177.8872
57.381886 94.875 177.5909
57.797699 94.881 177.2950
58.216526 94.886 177.0051
58.638386 94.890 176.7243
59.063305 94.892 176.4524
59.491302 94.894 176.1846
59.922401 94.896 175.9172
60.356625 94.898 175.6442
60.793995 94.899 175.3646
61.234531 94.901 175.0793
61.678261 94.904 174.7911
62.125206 94.906 174.5040
62.575390 94.909 174.2198
63.028835 94.911 173.9388
63.485569 94.914 173.6577
63.945610 94.916 173.3763
64.408989 94.917 173.0919
64.875725 94.918 172.8045
65.345840 94.917 172.5140
65.819366 94.916 172.2212
66.296318 94.915 171.9256
66.776726 94.914 171.6283
67.260620 94.912 171.3313
67.748016 94.910 171.0346
68.238945 94.908 170.7359
68.733429 94.906 170.4349
69.231499 94.903 170.1331
69.733177 94.901 169.8305
70.238495 94.898 169.5270
70.747475 94.894 169.2222
71.260139 94.890 168.9153
71.776520 94.885 168.6071
72.296638 94.879 168.2997
72.820526 94.872 167.9937
73.348213 94.864 167.6884
73.879723 94.856 167.3828
74.415085 94.848 167.0746
74.954330 94.841 166.7644
75.497482 94.833 166.4532
76.044571 94.825 166.1414
76.595619 94.817 165.8296
77.150665 94.808 165.5179
77.709732 94.799 165.2061
78.272850 94.789 164.8937
78.840050 94.778 164.5809
79.411354 94.768 164.2685
79.986801 94.757 163.9562
80.566422 94.746 163.6430
81.150238 94.734 163.3290
81.738289 94.722 163.0143
82.330597 94.709 162.6974
82.927200 94.695 162.3796
83.528122 94.681 162.0640
84.133400 94.667 161.7492
84.743065 94.653 161.4331
85.357147 94.638 161.1153
85.975677 94.623 160.7953
86.598694 94.607 160.4754
87.226227 94.591 160.1531
87.858307 94.574 159.8284
88.494965 94.557 159.5053
89.136238 94.539 159.1846
89.782158 94.520 158.8662
90.432755 94.502 158.5478
91.088066 94.482 158.2292
91.748131 94.462 157.9113
92.412979 94.441 157.5938
93.082642 94.420 157.2778
93.757156 94.398 156.9633
94.436562 94.376 156.6509
95.120888 94.354 156.3390
95.810173 94.331 156.0259
96.504456 94.308 155.7133
97.203766 94.285 155.3995
97.908142 94.260 155.0831
98.617622 94.235 154.7686
99.332245 94.209 154.4548
100.052048 94.183 154.1422
100.777069 94.156 153.8304
101.507339 94.129 153.5228
102.242905 94.101 153.2191
102.983795 94.074 152.9171
103.730057 94.046 152.6115
104.481728 94.017 152.3056
105.238846 93.989 152.0003
106.001450 93.959 151.6964
106.769577 93.930 151.3911
107.543274 93.900 151.0864
108.322578 93.870 150.7825
109.107529 93.839 150.4791
109.898170 93.807 150.1732
110.694534 93.774 149.8670
111.496674 93.740 149.5635
112.304626 93.706 149.2634
113.118431 93.671 148.9656
113.938133 93.635 148.6690
114.763779 93.599 148.3706
115.595406 93.563 148.0714
116.433060 93.526 147.7693
117.276779 93.488 147.4677
118.126617 93.448 147.1735
118.982613 93.408 146.8843
119.844810 93.368 146.6085
120.713257 93.330 146.3496
121.587997 93.293 146.1029
122.469070 93.257 145.8605
123.356529 93.221 145.6165
124.250420 93.184 145.3668
125.150787 93.147 145.1068
126.057678 93.109 144.8366
126.971146 93.071 144.5567
127.891228 93.033 144.2648
128.817978 92.995 143.9684
129.751450 92.955 143.6695
130.691681 92.914 143.3691
131.638733 92.871 143.0699
132.592636 92.827 142.7747
133.553452 92.782 142.4830
134.521240 92.736 142.1952
135.496033 92.690 141.9139
136.477890 92.642 141.6399
137.466858 92.593 141.3737
138.462997 92.543 141.1129
139.466354 92.491 140.8546
140.476990 92.439 140.6001
141.494949 92.387 140.3470
142.520279 92.334 140.0955
143.553040 92.282 139.8475
144.593277 92.229 139.6036
145.641052 92.177 139.3642
146.696426 92.123 139.1284
147.759445 92.070 138.8961
148.830170 92.015 138.6633
149.908661 91.960 138.4315
150.994965 91.904 138.2040
152.089142 91.848 137.9784
153.191238 91.791 137.7587
154.301331 91.734 137.5442
155.419464 91.676 137.3329
156.545700 91.617 137.1291
157.680099 91.557 136.9332
158.822708 91.497 136.7419
159.973602 91.436 136.5568
161.132843 91.374 136.3729
162.300476 91.312 136.1921
163.476578 91.249 136.0156
164.661194 91.185 135.8439
165.854401 91.120 135.6782
167.056244 91.054 135.5210
168.266800 90.988 135.3702
169.486130 90.920 135.2279
170.714294 90.852 135.0965
171.951355 90.782 134.9773
173.197388 90.711 134.8738
174.452454 90.639 134.7870
175.716614 90.567 134.7193
176.989929 90.495 134.6761
178.272476 90.422 134.6544
179.564316 90.349 134.6582
180.865509 90.277 134.6920
182.176132 90.206 134.7502
183.496262 90.137 134.8439
184.825958 90.072 134.9719
186.165283 90.011 135.1322
187.514313 89.956 135.3152
188.873123 89.908 135.5002
190.241776 89.868 135.6794
191.620346 89.837 135.8270
193.008911 89.817 135.9425
194.407532 89.805 136.0015
195.816284 89.797 136.0060
197.235245 89.792 135.9407
198.664490 89.784 135.8089
200.104095 89.772 135.6206
201.554138 89.753 135.3885
203.014679 89.727 135.1275
204.485809 89.694 134.8505
205.967590 89.653 134.5703
207.460114 89.606 134.2948
208.963455 89.553 134.0364
210.477692 89.496 133.7961
212.002899 89.436 133.5752
213.539154 89.373 133.3758
215.086548 89.308 133.1976
216.645157 89.242 133.0448
218.215057 89.176 132.9096
219.796341 89.109 132.7946
221.389069 89.041 132.7019
222.993347 88.973 132.6260
224.609253 88.905 132.5645
226.236862 88.838 132.5135
227.876266 88.770 132.4705
229.527557 88.702 132.4343
231.190811 88.634 132.4021
232.866119 88.565 132.3747
234.553558 88.496 132.3486
236.253235 88.427 132.3342
237.965225 88.359 132.3334
239.689621 88.292 132.3406
241.426514 88.225 132.3580
243.175995 88.160 132.3823
244.938141 88.096 132.4102
246.713058 88.032 132.4378
248.500839 87.969 132.4679
250.301575 87.905 132.4937
252.115356 87.842 132.5203
253.942291 87.780 132.5533
255.782455 87.718 132.5942
257.635956 87.657 132.6523
259.502899 87.597 132.7220
261.383362 87.537 132.8022
263.277466 87.478 132.8964
265.185272 87.419 132.9907
267.106903 87.361 133.0831
269.042480 87.304 133.1702
270.992065 87.246 133.2607
272.955780 87.190 133.3539
274.933716 87.133 133.4528
276.925995 87.077 133.5613
278.932709 87.020 133.6697
280.953979 86.965 133.7839
282.989899 86.910 133.9048
285.040558 86.855 134.0215
287.106079 86.802 134.1385
289.186554 86.750 134.2564
291.282104 86.698 134.3766
293.392853 86.647 134.4991
295.518890 86.597 134.6266
297.660339 86.547 134.7560
299.817322 86.498 134.8881
301.989929 86.449 135.0270
304.178284 86.401 135.1675
306.382477 86.354 135.3101
308.602661 86.307 135.4586
310.838928 86.260 135.6113
313.091400 86.215 135.7661
315.360199 86.170 135.9236
317.645416 86.125 136.0796
319.947205 86.081 136.2386
322.265686 86.038 136.3964
324.600952 85.995 136.5540
326.953156 85.953 136.7134
329.322388 85.911 136.8718
331.708801 85.870 137.0305
334.112488 85.830 137.1920
336.533600 85.791 137.3586
338.972260 85.752 137.5280
341.428589 85.714 137.6994
343.902710 85.676 137.8699
346.394775 85.639 138.0408
348.904907 85.602 138.2105
351.433228 85.566 138.3826
353.979858 85.531 138.5521
356.544952 85.496 138.7221
359.128632 85.462 138.8919
361.731018 85.427 139.0595
364.352264 85.393 139.2278
366.992523 85.359 139.3946
369.651917 85.326 139.5658
372.330566 85.293 139.7297
375.028625 85.260 139.9011
377.746246 85.228 140.0689
380.483551 85.197 140.2390
383.240692 85.166 140.4072
386.017822 85.135 140.5776
388.815063 85.106 140.7522
391.632568 85.078 140.9215
394.470490 85.051 141.0912
397.328979 85.025 141.2596
400.208191 84.999 141.4243
403.108276 84.974 141.5939
406.029358 84.948 141.7599
408.971619 84.924 141.9236
411.935181 84.899 142.0866
414.920227 84.875 142.2538
417.926910 84.850 142.4164
420.955383 84.826 142.5820
424.005798 84.803 142.7422
427.078308 84.779 142.9030
430.173096 84.756 143.0633
433.290314 84.733 143.2225
436.430115 84.711 143.3857
439.592682 84.689 143.5463
442.778137 84.668 143.7047
445.986694 84.647 143.8611
449.218506 84.626 144.0201
452.473724 84.606 144.1766
455.752533 84.586 144.3308
459.055115 84.567 144.4817
462.381622 84.547 144.6366
465.732239 84.528 144.7858
469.107117 84.510 144.9323
472.506470 84.492 145.0831
475.930450 84.474 145.2278
479.379242 84.456 145.3731
482.853027 84.439 145.5190
486.351990 84.422 145.6632
489.876282 84.405 145.8129
493.426117 84.389 145.9627
497.001678 84.373 146.1046
500.603149 84.357 146.2517
504.230713 84.341 146.3954
507.884583 84.326 146.5387
511.564911 84.311 146.6785
515.271912 84.296 146.8190
519.005798 84.282 146.9603
522.766724 84.268 147.0951
526.554932 84.254 147.2366
530.370544 84.240 147.3714
534.213806 84.227 147.5135
538.084961 84.214 147.6501
541.984131 84.201 147.7854
545.911560 84.189 147.9263
549.867432 84.177 148.0629
553.851990 84.166 148.1980
557.865417 84.154 148.3337
561.907959 84.143 148.4719
565.979797 84.132 148.6064
570.081116 84.121 148.7397
574.212158 84.111 148.8722
578.373108 84.100 149.0048
582.564209 84.090 149.1389
586.785706 84.081 149.2757
591.037781 84.072 149.4095
595.320679 84.063 149.5439
599.634644 84.054 149.6807
603.979858 84.046 149.8163
608.356567 84.037 149.9528
612.764954 84.030 150.0912
617.205322 84.022 150.2260
621.677856 84.015 150.3639
626.182800 84.008 150.5009
630.720398 84.001 150.6402
635.290833 83.995 150.7784
639.894409 83.989 150.9169
644.531372 83.984 151.0570
649.201904 83.979 151.1969
653.906311 83.974 151.3352
658.644775 83.970 151.4768
663.417603 83.966 151.6170
668.224976 83.963 151.7586
673.067200 83.960 151.9009
677.944519 83.958 152.0437
682.857178 83.956 152.1859
687.805420 83.955 152.3282
692.789551 83.955 152.4763
697.809814 83.955 152.6197
702.866455 83.955 152.7676
707.959717 83.957 152.9166
713.089905 83.959 153.0641
718.257263 83.962 153.2095
723.462036 83.966 153.3632
728.704529 83.970 153.5118
733.985046 83.975 153.6588
739.303833 83.981 153.8107
744.661133 83.989 153.9617
750.057251 83.997 154.1102
755.492493 84.006 154.2597
760.967102 84.017 154.4057
766.481384 84.029 154.5497
772.035645 84.043 154.6881
777.630127 84.058 154.8223
783.265137 84.074 154.9425
788.940979 84.091 155.0548
794.657959 84.109 155.1442
800.416382 84.127 155.2109
806.216553 84.143 155.2575
812.058716 84.156 155.2783
817.943237 84.163 155.2892
823.870361 84.162 155.3060
829.840454 84.155 155.3542
835.853821 84.143 155.4711
841.910767 84.132 155.6698
848.011597 84.128 155.9475
854.156616 84.134 156.2654
860.346191 84.152 156.5939
866.580627 84.180 156.9036
872.860229 84.215 157.1787
879.185364 84.255 157.4089
885.556274 84.298 157.6044
891.973389 84.342 157.7592
898.437012 84.388 157.8904
904.947449 84.433 157.9916
911.505066 84.478 158.0615
918.110229 84.521 158.1130
924.763245 84.563 158.1391
931.464478 84.603 158.1545
938.214233 84.639 158.1537
945.012939 84.671 158.1494
951.860901 84.700 158.1486
958.758484 84.726 158.1733
965.706055 84.750 158.2218
972.703979 84.775 158.3089
979.752563 84.803 158.4307
986.852234 84.834 158.5718
994.003357 84.872 158.7312
1001.206299 84.915 158.8920
1008.461426 84.964 159.0457
1015.769165 85.017 159.1737
1023.129822 85.075 159.2841
1030.543823 85.136 159.3698
1038.011597 85.199 159.4272
1045.533447 85.263 159.4597
1053.109863 85.329 159.4714
1060.741089 85.395 159.4539
1068.427612 85.462 159.4174
1076.169922 85.528 159.3677
1083.968262 85.595 159.2966
1091.823120 85.662 159.2076
1099.734863 85.728 159.1057
1107.703979 85.794 158.9890
1115.730835 85.860 158.8543
1123.815918 85.925 158.7098
1131.959595 85.991 158.5538
1140.162231 86.056 158.3773
1148.424316 86.120 158.2007
1156.746216 86.184 158.0071
1165.128418 86.248 157.8053
1173.571411 86.311 157.5925
1182.075562 86.373 157.3673
1190.641357 86.435 157.1389
1199.269287 86.496 156.8939
1207.959717 86.557 156.6412
1216.713135 86.617 156.3835
1225.529907 86.676 156.1136
1234.410645 86.735 155.8410
1243.355713 86.793 155.5574
1252.365601 86.851 155.2707
1261.440796 86.908 154.9726
1270.581665 86.964 154.6782
1279.788818 87.020 154.3741
1289.062744 87.075 154.0631
1298.403809 87.130 153.7504
1307.812622 87.184 153.4348
1317.289551 87.238 153.1083
1326.835205 87.291 152.7862
1336.449951 87.344 152.4576
1346.134399 87.397 152.1259
1355.889038 87.449 151.7863
1365.714355 87.502 151.4479
1375.610840 87.554 151.1083
1385.579102 87.606 150.7693
1395.619629 87.659 150.4222
1405.732910 87.711 150.0756
1415.919434 87.764 149.7242
1426.179810 87.817 149.3744
1436.514526 87.871 149.0168
1446.924072 87.926 148.6651
1457.409058 87.981 148.2991
1467.970093 88.037 147.9326
1478.607666 88.093 147.5605
1489.322266 88.149 147.1963
1500.114502 88.205 146.8291
1510.984985 88.260 146.4597
1521.934204 88.316 146.0803
1532.962769 88.372 145.7071
1544.071289 88.427 145.3244
1555.260254 88.484 144.9397
1566.530273 88.541 144.5503
1577.881958 88.599 144.1659
1589.315918 88.657 143.7618
1600.832764 88.716 143.3590
1612.433105 88.776 142.9584
1624.117432 88.837 142.5462
1635.886475 88.898 142.1317
1647.740723 88.961 141.7090
1659.680908 89.024 141.2862
1671.707642 89.088 140.8531
1683.821533 89.153 140.4124
1696.023193 89.219 139.9641
1708.313232 89.286 139.5194
1720.692383 89.354 139.0623
1733.161255 89.423 138.5999
1745.720459 89.493 138.1216
1758.370728 89.564 137.6411
1771.112549 89.636 137.1468
1783.946777 89.709 136.6554
1796.874023 89.782 136.1573
1809.894897 89.857 135.6303
1823.010132 89.933 135.1055
1836.220459 90.010 134.5726
1849.526489 90.088 134.0249
1862.928955 90.167 133.4731
1876.428467 90.247 132.9018
1890.025879 90.328 132.3258
1903.721802 90.410 131.7319
1917.516968 90.493 131.1302
1931.412109 90.576 130.5115
1945.407959 90.661 129.8855
1959.505127 90.747 129.2437
1973.704468 90.833 128.5889
1988.006714 90.921 127.9246
2002.412598 91.009 127.2399
2016.922852 91.098 126.5432
2031.538330 91.188 125.8275
2046.259644 91.279 125.0974
2061.087646 91.371 124.3514
2076.023193 91.463 123.5958
2091.066895 91.556 122.8117
2106.219727 91.650 122.0183
2121.482178 91.745 121.1973
2136.855225 91.840 120.3736
2152.339844 91.936 119.5305
2167.936523 92.034 118.6760
2183.646240 92.132 117.7759
2199.469727 92.230 116.8651
2215.407959 92.329 115.9254
2231.461670 92.428 114.9632
2247.631836 92.527 113.9822
2263.919189 92.626 112.9803
2280.324463 92.724 111.9603
2296.848633 92.822 110.9082
2313.492432 92.920 109.8282
2330.256836 93.018 108.7237
2347.142822 93.115 107.5972
2364.151123 93.212 106.4505
2381.282715 93.308 105.2823
2398.538574 93.403 104.0793
2415.919434 93.497 102.8555
2433.426270 93.590 101.6118
2451.059814 93.681 100.3420
2468.821289 93.771 99.0400
2486.711426 93.859 97.7224
2504.731201 93.946 96.3592
2522.881592 94.030 94.9794
2541.163330 94.113 93.5846
2559.577637 94.193 92.1726
2578.125488 94.272 90.7549
2596.807617 94.349 89.2669
2615.625244 94.424 87.7804
2634.579102 94.498 86.2665
2653.670410 94.571 84.7410
2672.899902 94.641 83.1898
2692.268799 94.710 81.6010
2711.778076 94.777 79.9607
2731.428711 94.840 78.2918
2751.221680 94.900 76.5926
2771.158203 94.954 74.8559
2791.239258 95.002 73.0759
2811.465820 95.044 71.2779
2831.838867 95.079 69.4604
2852.359619 95.106 67.6131
2873.029053 95.125 65.7664
2893.848145 95.138 63.9108
2914.818115 95.143 62.0395
2935.940186 95.142 60.2087
2957.215332 95.135 58.3519
2978.644531 95.122 56.5121
3000.229004 95.104 54.6783
3021.969971 95.080 52.8742
3043.868408 95.052 51.0698
3065.925537 95.019 49.2649
3088.142578 94.982 47.4919
3110.520508 94.941 45.7417
3133.060547 94.897 43.9889
3155.763916 94.849 42.2521
3178.631836 94.798 40.5506
3201.665527 94.744 38.8613
3224.866211 94.688 37.1861
3248.234863 94.629 35.5266
3271.772949 94.568 33.8891
3295.481445 94.505 32.2715
3319.361816 94.441 30.6735
3343.415283 94.375 29.0905
3367.643066 94.310 27.5239
3392.046387 94.243 25.9858
3416.626465 94.177 24.4515
3441.384766 94.110 22.9208
3466.322510 94.043 21.4199
3491.440918 93.976 19.9099
3516.741455 93.908 18.4060
3542.225098 93.840 16.9195
3567.893555 93.772 15.4395
3593.748047 93.702 13.9435
3619.789795 93.632 12.4878
3646.020264 93.560 11.0339
3672.440918 93.488 9.5688
3699.052979 93.415 8.1294
3725.857910 93.341 6.7135
3752.856934 93.268 5.2999
3780.051758 93.195 3.9197
3807.443604 93.123 2.5427
3835.033936 93.052 1.1809
3862.824219 92.982 -0.1622
3890.815918 92.915 -1.5101
3919.010254 92.850 -2.8527
3947.408936 92.787 -4.1790
3976.013428 92.725 -5.5336
4004.825195 92.665 -6.8678
4033.845703 92.607 -8.2170
4063.076660 92.549 -9.5845
4092.519287 92.492 -10.9386
4122.175293 92.435 -12.3010
4152.046387 92.377 -13.6635
4182.133789 92.319 -15.0425
4212.439453 92.260 -16.4165
4242.964355 92.201 -17.7838
4273.710449 92.141 -19.1335
4304.679688 92.080 -20.4750
4335.873047 92.020 -21.8157
4367.292480 91.961 -23.1175
4398.939453 91.904 -24.4131
4430.815918 91.848 -25.6864
4462.923340 91.797 -26.9354
4495.263672 91.749 -28.1814
4527.838379 91.707 -29.4042
4560.648926 91.672 -30.6273
4593.697266 91.643 -31.8547
4626.984863 91.621 -33.0992
4660.513672 91.605 -34.3550
4694.285645 91.594 -35.6752
4728.302246 91.588 -36.9969
4762.565430 91.583 -38.3798
4797.077148 91.580 -39.7913
4831.838867 91.578 -41.2385
4866.852539 91.576 -42.6970
4902.119629 91.574 -44.1907
4937.642578 91.574 -45.6863
4973.422852 91.575 -47.2126
5009.462402 91.579 -48.7499
5045.763184 91.584 -50.3215
5082.326660 91.591 -51.9135
5119.155273 91.600 -53.5316
5156.250977 91.611 -55.1894
5193.615234 91.621 -56.8796
5231.250488 91.632 -58.5917
5269.158203 91.643 -60.3325
5307.340820 91.653 -62.1212
5345.799805 91.662 -63.9177
5384.537598 91.670 -65.7515
5423.556152 91.677 -67.6099
5462.857422 91.682 -69.4814
5502.443359 91.687 -71.3801
5542.316406 91.689 -73.2961
5582.478516 91.691 -75.2084
5622.931641 91.692 -77.1586
5663.677734 91.691 -79.1051
5704.719238 91.691 -81.0569
5746.058105 91.691 -83.0111
5787.696289 91.691 -84.9618
5829.636230 91.692 -86.9435
5871.880371 91.694 -88.9185
5914.430664 91.698 -90.9059
5957.289062 91.704 -92.9086
6000.458008 91.711 -94.9201
6043.939941 91.721 -96.9176
6087.736816 91.733 -98.9692
6131.851074 91.747 -100.9991
6176.285156 91.764 -103.0667
6221.041016 91.783 -105.1342
6266.121094 91.805 -107.2226
6311.527832 91.830 -109.3239
6357.263672 91.859 -111.4398
6403.331055 91.891 -113.5793
6449.732422 91.928 -115.7332
6496.469727 91.968 -117.9026
6543.545898 92.014 -120.0668
6590.962891 92.065 -122.2872
6638.723633 92.122 -124.5168
6686.830566 92.186 -126.7664
6735.286133 92.256 -129.0680
6784.092773 92.334 -131.4001
6833.252930 92.419 -133.7452
6882.769531 92.514 -136.1392
6932.645020 92.617 -138.5837
6982.881836 92.731 -141.1013
7033.482910 92.856 -143.6696
7084.450195 92.992 -146.3241
7135.787109 93.141 -149.0731
7187.496094 93.301 -151.9172
7239.579590 93.474 -154.8956
7292.040527 93.658 -158.0222
7344.881836 93.851 -161.3249
7398.105957 94.053 -164.7986
7451.715820 94.260 -168.4849
7505.713867 94.469 -172.4130
7560.103516 94.675 -176.5702
7614.887207 94.873 178.9925
7670.067871 95.057 174.2664
7725.648438 95.219 169.2781
7781.631836 95.352 164.0282
7838.020508 95.448 158.5239
7894.817871 95.500 152.8085
7952.026855 95.500 146.9019
8009.650391 95.442 140.8818
8067.691406 95.324 134.7704
8126.153320 95.142 128.6829
8185.038574 94.898 122.6678
8244.350586 94.594 116.7666
8304.092773 94.234 111.0753
8364.267578 93.824 105.6099
8424.878906 93.373 100.4187
8485.928711 92.886 95.5428
8547.420898 92.374 90.9744
8609.359375 91.844 86.7356
8671.746094 91.303 82.8055
8734.584961 90.758 79.1863
8797.878906 90.215 75.8535
8861.631836 89.679 72.7863
8925.846680 89.154 69.9493
8990.527344 88.643 67.3364
9055.676758 88.146 64.9040
9121.297852 87.667 62.6480
9187.394531 87.206 60.5536
9253.969727 86.764 58.5748
9321.027344 86.341 56.7232
9388.571289 85.939 54.9663
9456.604492 85.556 53.2896
9525.130859 85.194 51.6885
9594.154297 84.852 50.1255
9663.677734 84.529 48.6257
9733.705078 84.226 47.1733
9804.239258 83.942 45.7339
9875.285156 83.678 44.3319
9946.845703 83.433 42.9276
10018.924805 83.207 41.5075
10091.526367 82.999 40.0723
10164.653320 82.809 38.6033
10238.310547 82.635 37.0903
10312.501953 82.476 35.5144
10387.230469 82.330 33.8885
10462.500977 82.197 32.2087
10538.316406 82.075 30.4595
10614.681641 81.964 28.6449
10691.599609 81.863 26.7741
10769.075195 81.773 24.8228
10847.112305 81.691 22.7645
10925.714844 81.617 20.6287
11004.886719 81.550 18.3929
11084.632812 81.486 16.0621
11164.957031 81.425 13.6410
11245.863281 81.365 11.0935
11327.355469 81.304 8.4571
11409.438477 81.239 5.7614
11492.116211 81.171 2.9654
11575.392578 81.097 0.1340
11659.272461 81.017 -2.7308
11743.760742 80.933 -5.5969
11828.861328 80.846 -8.4540
11914.578125 80.760 -11.2932
12000.916016 80.678 -14.1092
12087.879883 80.600 -16.9129
12175.473633 80.526 -19.6887
12263.702148 80.458 -22.3906
12352.570312 80.402 -24.9852
12442.082031 80.369 -27.4478
12532.242188 80.370 -29.7752
12623.055664 80.418 -32.0682
12714.527344 80.518 -34.3433
12806.662109 80.675 -36.7438
12899.464844 80.887 -39.3156
12992.939453 81.150 -42.1456
13087.091797 81.458 -45.3150
13181.925781 81.803 -48.8475
13277.447266 82.173 -52.7955
13373.661133 82.559 -57.1732
13470.572266 82.952 -61.9821
13568.185547 83.340 -67.2218
13666.505859 83.714 -72.8665
13765.539062 84.067 -78.8822
13865.290039 84.390 -85.2397
13965.763672 84.680 -91.8677
14066.965820 84.933 -98.7321
14168.900391 85.147 -105.7950
14271.574219 85.323 -112.9902
14374.992188 85.464 -120.2977
14479.159180 85.570 -127.6465
14584.081055 85.646 -135.0730
14689.763672 85.697 -142.5360
14796.211914 85.725 -150.0398
14903.431641 85.734 -157.5923
15011.427734 85.725 -165.2493
15120.207031 85.696 -173.0322
15229.774414 85.642 179.0320
15340.135742 85.556 170.9070
15451.296875 85.427 162.6249
15563.263672 85.244 154.1458
15676.041016 84.993 145.5510
15789.635742 84.666 136.8801
15904.053711 84.254 128.2756
16019.300781 83.753 119.7870
16135.382812 83.164 111.5508
16252.306641 82.491 103.6597
16370.077148 81.743 96.2052
16488.701172 80.931 89.2788
16608.185547 80.067 82.8745
16728.535156 79.166 77.0361
16849.757812 78.242 71.7690
16971.857422 77.308 67.0378
17094.841797 76.377 62.8264
17218.718750 75.460 59.0446
17343.492188 74.565 55.6711
17469.169922 73.702 52.6113
17595.757812 72.876 49.8063
17723.263672 72.092 47.1541
17851.693359 71.356 44.6107
17981.054688 70.672 42.0626
18111.353516 70.045 39.4342
18242.595703 69.480 36.6256
18374.789062 68.984 33.5142
18507.939453 68.562 29.9840
18642.054688 68.221 25.9188
18777.142578 67.965 21.1354
18913.208984 67.797 15.5493
19050.261719 67.713 9.0060
19188.308594 67.704 1.4766
19327.355469 67.753 -7.0798
19467.410156 67.837 -16.4926
19608.478516 67.933 -26.5186
19750.570312 68.019 -36.6971
19893.691406 68.081 -46.3921
20037.849609 0.000 305.0768
