* Measurement data measured by REW V5.31.3
* Source: Headset (CX31993 HIFI AUDIO), MICROPHONE (Master Volume), R, volume: 0.250
* Format: 256k Log Swept Sine, 1 sweep at -12.0 dBFS with no timing reference
* Dated: 01 24, 25 8:00:39 PM
* REW Settings:
*  C-weighting compensation: Off
*  Target level: 75.0 dB
* Note: ; 
* Measurement: KZ Libra X +500 R
* Smoothing: 1/12 octave
* Frequency Step: 96 ppo
* Start Frequency: 0.36621094 Hz
*
* Freq(Hz) SPL(dB) Phase(degrees)
0.366211 47.232 -82.0554
0.368865 47.252 -82.1725
0.371538 47.282 -82.3465
0.374230 47.319 -82.5626
0.376942 47.360 -82.8080
0.379673 47.405 -83.0733
0.382424 47.451 -83.3524
0.385196 47.499 -83.6413
0.387987 47.547 -83.9379
0.390798 47.596 -84.2410
0.393630 47.646 -84.5497
0.396483 47.696 -84.8637
0.399356 47.746 -85.1829
0.402250 47.797 -85.5069
0.405165 47.848 -85.8358
0.408101 47.899 -86.1695
0.411058 47.951 -86.5079
0.414037 48.003 -86.8509
0.417037 48.055 -87.1984
0.420059 48.108 -87.5505
0.423103 48.162 -87.9069
0.426169 48.215 -88.2677
0.429257 48.269 -88.6328
0.432368 48.324 -89.0021
0.435501 48.379 -89.3754
0.438656 48.434 -89.7528
0.441835 48.490 -90.1342
0.445037 48.546 -90.5193
0.448262 48.602 -90.9083
0.451510 48.659 -91.3008
0.454782 48.716 -91.6970
0.458077 48.774 -92.0967
0.461397 48.832 -92.4997
0.464740 48.891 -92.9061
0.468108 48.950 -93.3157
0.471500 49.009 -93.7283
0.474917 49.069 -94.1440
0.478358 49.129 -94.5626
0.481825 49.190 -94.9841
0.485316 49.251 -95.4082
0.488833 49.312 -95.8351
0.492375 49.374 -96.2644
0.495943 49.437 -96.6963
0.499537 49.500 -97.1305
0.503157 49.563 -97.5670
0.506803 49.627 -98.0058
0.510475 49.691 -98.4466
0.514175 49.756 -98.8895
0.517900 49.821 -99.3344
0.521653 49.887 -99.7812
0.525434 49.953 -100.2298
0.529241 50.020 -100.6802
0.533076 50.087 -101.1322
0.536939 50.155 -101.5860
0.540830 50.223 -102.0413
0.544749 50.292 -102.4981
0.548696 50.361 -102.9564
0.552673 50.430 -103.4162
0.556677 50.500 -103.8773
0.560711 50.571 -104.3399
0.564774 50.642 -104.8037
0.568867 50.714 -105.2689
0.572989 50.786 -105.7353
0.577141 50.859 -106.2030
0.581324 50.932 -106.6720
0.585536 51.006 -107.1422
0.589779 51.080 -107.6136
0.594053 51.155 -108.0863
0.598358 51.230 -108.5602
0.602694 51.306 -109.0355
0.607061 51.383 -109.5120
0.611460 51.460 -109.9898
0.615891 51.537 -110.4689
0.620354 51.616 -110.9494
0.624849 51.694 -111.4313
0.629377 51.774 -111.9147
0.633938 51.854 -112.3996
0.638532 51.934 -112.8860
0.643159 52.015 -113.3741
0.647819 52.097 -113.8639
0.652514 52.179 -114.3554
0.657242 52.262 -114.8487
0.662005 52.345 -115.3440
0.666802 52.429 -115.8413
0.671634 52.514 -116.3406
0.676501 52.599 -116.8422
0.681403 52.685 -117.3461
0.686341 52.771 -117.8524
0.691314 52.858 -118.3612
0.696324 52.946 -118.8726
0.701370 53.034 -119.3867
0.706452 53.123 -119.9037
0.711571 53.213 -120.4234
0.716728 53.302 -120.9460
0.721921 53.392 -121.4712
0.727153 53.483 -121.9987
0.732422 53.573 -122.5282
0.737729 53.663 -123.0590
0.743075 53.753 -123.5904
0.748460 53.844 -124.1219
0.753883 53.935 -124.6529
0.759346 54.026 -125.1830
0.764849 54.118 -125.7120
0.770391 54.210 -126.2396
0.775974 54.303 -126.7657
0.781597 54.396 -127.2901
0.787261 54.490 -127.8127
0.792966 54.585 -128.3334
0.798712 54.680 -128.8522
0.804500 54.775 -129.3690
0.810329 54.872 -129.8837
0.816201 54.969 -130.3964
0.822116 55.066 -130.9069
0.828073 55.164 -131.4154
0.834074 55.263 -131.9218
0.840118 55.362 -132.4261
0.846206 55.462 -132.9284
0.852338 55.562 -133.4286
0.858514 55.663 -133.9270
0.864735 55.765 -134.4234
0.871001 55.867 -134.9181
0.877313 55.969 -135.4110
0.883670 56.073 -135.9023
0.890074 56.176 -136.3921
0.896524 56.280 -136.8804
0.903020 56.385 -137.3675
0.909564 56.490 -137.8534
0.916155 56.596 -138.3383
0.922794 56.702 -138.8223
0.929481 56.808 -139.3056
0.936216 56.915 -139.7883
0.943000 57.023 -140.2706
0.949834 57.130 -140.7527
0.956717 57.239 -141.2347
0.963649 57.348 -141.7169
0.970632 57.457 -142.1994
0.977666 57.566 -142.6825
0.984750 57.676 -143.1663
0.991886 57.786 -143.6511
0.999074 57.897 -144.1370
1.006314 58.008 -144.6244
1.013606 58.119 -145.1134
1.020951 58.230 -145.6043
1.028349 58.342 -146.0973
1.035801 58.454 -146.5926
1.043307 58.566 -147.0906
1.050867 58.679 -147.5914
1.058482 58.791 -148.0952
1.066152 58.904 -148.6023
1.073878 59.017 -149.1128
1.081660 59.130 -149.6266
1.089498 59.243 -150.1438
1.097393 59.357 -150.6641
1.105345 59.470 -151.1870
1.113355 59.584 -151.7120
1.121423 59.698 -152.2387
1.129549 59.812 -152.7667
1.137734 59.927 -153.2955
1.145979 60.041 -153.8250
1.154283 60.156 -154.3550
1.162647 60.271 -154.8853
1.171072 60.386 -155.4157
1.179558 60.502 -155.9462
1.188106 60.617 -156.4766
1.196715 60.733 -157.0070
1.205387 60.849 -157.5372
1.214122 60.965 -158.0671
1.222920 61.081 -158.5968
1.231782 61.198 -159.1262
1.240708 61.315 -159.6553
1.249699 61.432 -160.1840
1.258754 61.549 -160.7125
1.267876 61.666 -161.2406
1.277063 61.783 -161.7684
1.286318 61.901 -162.2959
1.295639 62.019 -162.8233
1.305027 62.137 -163.3504
1.314484 62.255 -163.8774
1.324009 62.374 -164.4044
1.333604 62.492 -164.9314
1.343268 62.611 -165.4585
1.353002 62.730 -165.9857
1.362806 62.849 -166.5133
1.372681 62.968 -167.0412
1.382628 63.088 -167.5697
1.392647 63.208 -168.0988
1.402739 63.327 -168.6286
1.412904 63.447 -169.1593
1.423142 63.568 -169.6910
1.433455 63.688 -170.2236
1.443843 63.808 -170.7573
1.454305 63.929 -171.2918
1.464844 64.050 -171.8271
1.475459 64.171 -172.3628
1.486150 64.291 -172.8986
1.496920 64.412 -173.4344
1.507767 64.533 -173.9698
1.518693 64.653 -174.5048
1.529698 64.774 -175.0394
1.540783 64.894 -175.5735
1.551948 65.015 -176.1073
1.563194 65.135 -176.6408
1.574521 65.255 -177.1741
1.585931 65.376 -177.7073
1.597423 65.496 -178.2407
1.608999 65.616 -178.7743
1.620658 65.736 -179.3083
1.632402 65.856 -179.8429
1.644232 65.976 179.6216
1.656146 66.095 179.0850
1.668147 66.215 178.5472
1.680235 66.335 178.0078
1.692411 66.454 177.4667
1.704675 66.574 176.9235
1.717028 66.693 176.3779
1.729470 66.813 175.8297
1.742003 66.932 175.2785
1.754626 67.052 174.7241
1.767341 67.171 174.1661
1.780147 67.291 173.6042
1.793047 67.410 173.0381
1.806040 67.530 172.4675
1.819128 67.649 171.8923
1.832310 67.768 171.3124
1.845587 67.887 170.7278
1.858961 68.006 170.1388
1.872432 68.125 169.5455
1.886001 68.243 168.9484
1.899667 68.361 168.3479
1.913433 68.478 167.7443
1.927299 68.596 167.1381
1.941265 68.712 166.5295
1.955332 68.829 165.9190
1.969501 68.945 165.3068
1.983773 69.061 164.6932
1.998148 69.177 164.0784
2.012627 69.292 163.4626
2.027212 69.407 162.8461
2.041902 69.522 162.2288
2.056698 69.637 161.6110
2.071602 69.751 160.9927
2.086614 69.865 160.3738
2.101734 69.978 159.7545
2.116964 70.092 159.1346
2.132304 70.205 158.5139
2.147756 70.318 157.8922
2.163320 70.431 157.2691
2.178996 70.543 156.6442
2.194786 70.655 156.0169
2.210690 70.767 155.3865
2.226710 70.878 154.7526
2.242845 70.989 154.1150
2.259098 71.099 153.4736
2.275468 71.208 152.8287
2.291957 71.317 152.1806
2.308566 71.426 151.5298
2.325295 71.534 150.8768
2.342145 71.641 150.2221
2.359117 71.748 149.5661
2.376212 71.854 148.9094
2.393431 71.960 148.2522
2.410775 72.065 147.5951
2.428244 72.170 146.9384
2.445840 72.274 146.2822
2.463564 72.378 145.6269
2.481416 72.481 144.9726
2.499397 72.584 144.3192
2.517509 72.686 143.6665
2.535752 72.788 143.0141
2.554127 72.890 142.3613
2.572635 72.991 141.7072
2.591277 73.091 141.0509
2.610055 73.190 140.3917
2.628968 73.289 139.7295
2.648019 73.387 139.0641
2.667208 73.484 138.3961
2.686535 73.580 137.7257
2.706003 73.676 137.0538
2.725612 73.771 136.3809
2.745363 73.865 135.7077
2.765257 73.959 135.0348
2.785295 74.051 134.3630
2.805478 74.144 133.6927
2.825808 74.235 133.0246
2.846285 74.326 132.3589
2.866910 74.417 131.6958
2.887685 74.507 131.0352
2.908611 74.596 130.3767
2.929688 74.685 129.7195
2.950917 74.772 129.0627
2.972301 74.860 128.4051
2.993839 74.946 127.7464
3.015534 75.031 127.0862
3.037386 75.116 126.4247
3.059396 75.199 125.7625
3.081565 75.282 125.1000
3.103896 75.364 124.4381
3.126388 75.445 123.7776
3.149043 75.526 123.1192
3.171862 75.606 122.4637
3.194847 75.685 121.8118
3.217998 75.764 121.1641
3.241317 75.842 120.5208
3.264805 75.920 119.8820
3.288463 75.997 119.2473
3.312293 76.073 118.6158
3.336295 76.149 117.9869
3.360471 76.224 117.3598
3.384822 76.298 116.7342
3.409350 76.371 116.1099
3.434056 76.444 115.4872
3.458940 76.516 114.8664
3.484005 76.587 114.2481
3.509252 76.658 113.6329
3.534681 76.728 113.0213
3.560295 76.798 112.4139
3.586094 76.867 111.8113
3.612081 76.936 111.2137
3.638255 77.005 110.6212
3.664620 77.073 110.0336
3.691175 77.141 109.4506
3.717923 77.209 108.8715
3.744864 77.276 108.2960
3.772001 77.342 107.7239
3.799335 77.408 107.1550
3.826866 77.474 106.5894
3.854597 77.539 106.0271
3.882529 77.604 105.4684
3.910664 77.669 104.9136
3.939002 77.734 104.3628
3.967546 77.798 103.8163
3.996296 77.863 103.2743
4.025255 77.928 102.7367
4.054423 77.993 102.2036
4.083804 78.057 101.6748
4.113396 78.122 101.1500
4.143204 78.186 100.6289
4.173227 78.251 100.1111
4.203468 78.315 99.5963
4.233928 78.379 99.0842
4.264609 78.444 98.5745
4.295512 78.508 98.0670
4.326639 78.573 97.5615
4.357992 78.638 97.0579
4.389572 78.703 96.5563
4.421380 78.768 96.0566
4.453419 78.833 95.5589
4.485691 78.899 95.0630
4.518196 78.965 94.5687
4.550936 79.030 94.0756
4.583914 79.096 93.5834
4.617131 79.162 93.0915
4.650589 79.229 92.5995
4.684289 79.295 92.1071
4.718233 79.361 91.6139
4.752424 79.427 91.1196
4.786862 79.494 90.6243
4.821549 79.560 90.1280
4.856488 79.627 89.6305
4.891680 79.693 89.1318
4.927127 79.760 88.6319
4.962831 79.826 88.1305
4.998794 79.892 87.6274
5.035017 79.958 87.1223
5.071503 80.024 86.6148
5.108253 80.089 86.1048
5.145270 80.154 85.5920
5.182555 80.219 85.0763
5.220110 80.283 84.5577
5.257937 80.347 84.0363
5.296038 80.410 83.5125
5.334415 80.473 82.9864
5.373071 80.535 82.4582
5.412006 80.597 81.9280
5.451224 80.657 81.3958
5.490725 80.717 80.8615
5.530514 80.776 80.3248
5.570590 80.835 79.7857
5.610957 80.892 79.2444
5.651616 80.948 78.7011
5.692570 81.004 78.1566
5.733821 81.058 77.6112
5.775370 81.112 77.0655
5.817221 81.164 76.5198
5.859375 81.215 75.9742
5.901834 81.265 75.4286
5.944602 81.314 74.8829
5.987679 81.362 74.3373
6.031068 81.409 73.7922
6.074771 81.454 73.2481
6.118792 81.499 72.7057
6.163131 81.542 72.1655
6.207792 81.585 71.6279
6.252776 81.626 71.0930
6.298086 81.666 70.5608
6.343725 81.705 70.0311
6.389694 81.743 69.5043
6.435996 81.779 68.9805
6.482634 81.815 68.4604
6.529610 81.850 67.9441
6.576926 81.884 67.4320
6.624585 81.918 66.9243
6.672590 81.950 66.4207
6.720942 81.982 65.9214
6.769645 82.012 65.4262
6.818700 82.042 64.9352
6.868111 82.072 64.4483
6.917881 82.101 63.9657
6.968010 82.129 63.4874
7.018504 82.157 63.0134
7.069362 82.184 62.5435
7.120590 82.210 62.0775
7.172189 82.236 61.6153
7.224161 82.262 61.1566
7.276511 82.287 60.7014
7.329239 82.312 60.2495
7.382350 82.336 59.8008
7.435845 82.360 59.3552
7.489729 82.384 58.9125
7.544002 82.407 58.4726
7.598669 82.430 58.0353
7.653732 82.452 57.6006
7.709194 82.474 57.1683
7.765058 82.495 56.7384
7.821327 82.516 56.3108
7.878004 82.537 55.8856
7.935091 82.557 55.4628
7.992592 82.577 55.0424
8.050510 82.596 54.6246
8.108847 82.615 54.2092
8.167607 82.634 53.7965
8.226793 82.652 53.3864
8.286408 82.670 52.9790
8.346454 82.687 52.5745
8.406936 82.704 52.1729
8.467856 82.721 51.7743
8.529218 82.738 51.3787
8.591024 82.755 50.9859
8.653278 82.771 50.5959
8.715983 82.788 50.2084
8.779143 82.805 49.8234
8.842760 82.821 49.4405
8.906839 82.839 49.0595
8.971381 82.856 48.6799
9.036392 82.874 48.3011
9.101873 82.892 47.9223
9.167829 82.910 47.5430
9.234263 82.929 47.1626
9.301178 82.949 46.7804
9.368578 82.969 46.3954
9.436467 82.989 46.0068
9.504847 83.010 45.6136
9.573723 83.032 45.2150
9.643099 83.053 44.8103
9.712976 83.075 44.3990
9.783361 83.097 43.9802
9.854255 83.119 43.5533
9.925663 83.140 43.1180
9.997588 83.161 42.6739
10.070035 83.182 42.2211
10.143007 83.201 41.7597
10.216507 83.220 41.2900
10.290540 83.238 40.8123
10.365109 83.254 40.3273
10.440219 83.268 39.8358
10.515873 83.281 39.3391
10.592076 83.292 38.8384
10.668830 83.301 38.3351
10.746141 83.309 37.8306
10.824012 83.314 37.3264
10.902447 83.317 36.8244
10.981451 83.318 36.3264
11.061027 83.317 35.8340
11.141180 83.315 35.3487
11.221913 83.311 34.8721
11.303232 83.305 34.4055
11.385140 83.298 33.9502
11.467641 83.291 33.5072
11.550741 83.283 33.0770
11.634442 83.274 32.6599
11.718750 83.266 32.2559
11.803669 83.258 31.8648
11.889203 83.251 31.4860
11.975357 83.245 31.1184
12.062136 83.239 30.7608
12.149543 83.235 30.4117
12.237583 83.233 30.0696
12.326262 83.232 29.7328
12.415583 83.232 29.3995
12.505552 83.234 29.0681
12.596172 83.238 28.7369
12.687449 83.242 28.4049
12.779387 83.248 28.0709
12.871992 83.254 27.7341
12.965268 83.261 27.3943
13.059220 83.269 27.0513
13.153852 83.277 26.7053
13.249170 83.284 26.3571
13.345179 83.292 26.0070
13.441884 83.299 25.6562
13.539289 83.307 25.3055
13.637401 83.314 24.9557
13.736223 83.321 24.6074
13.835761 83.328 24.2611
13.936021 83.335 23.9169
14.037007 83.343 23.5745
14.138725 83.351 23.2334
14.241180 83.360 22.8925
14.344377 83.369 22.5503
14.448323 83.379 22.2054
14.553021 83.389 21.8563
14.658478 83.400 21.5011
14.764700 83.411 21.1385
14.871691 83.422 20.7675
14.979457 83.431 20.3876
15.088005 83.440 19.9987
15.197339 83.447 19.6018
15.307465 83.452 19.1986
15.418389 83.454 18.7914
15.530117 83.454 18.3834
15.642655 83.450 17.9780
15.756008 83.444 17.5793
15.870182 83.434 17.1914
15.985184 83.422 16.8180
16.101019 83.408 16.4625
16.217694 83.393 16.1276
16.335214 83.377 15.8145
16.453586 83.361 15.5236
16.572815 83.345 15.2537
16.692909 83.332 15.0020
16.813872 83.321 14.7648
16.935713 83.313 14.5370
17.058436 83.308 14.3132
17.182048 83.305 14.0876
17.306556 83.306 13.8549
17.431967 83.308 13.6104
17.558286 83.312 13.3508
17.685521 83.316 13.0743
17.813677 83.320 12.7808
17.942762 83.323 12.4719
18.072783 83.324 12.1504
18.203746 83.323 11.8204
18.335658 83.320 11.4865
18.468526 83.314 11.1530
18.602356 83.306 10.8239
18.737156 83.297 10.5017
18.872934 83.288 10.1879
19.009695 83.278 9.8815
19.147447 83.270 9.5804
19.286197 83.262 9.2807
19.425953 83.256 8.9778
19.566721 83.252 8.6666
19.708510 83.247 8.3431
19.851326 83.243 8.0045
19.995177 83.237 7.6501
20.140070 83.229 7.2818
20.286013 83.217 6.9042
20.433014 83.201 6.5244
20.581080 83.181 6.1512
20.730219 83.155 5.7941
20.880439 83.127 5.4628
21.031747 83.095 5.1652
21.184152 83.063 4.9066
21.337661 83.031 4.6888
21.492282 83.003 4.5094
21.648024 82.979 4.3615
21.804895 82.962 4.2347
21.962902 82.952 4.1165
22.122054 82.948 3.9928
22.282360 82.950 3.8511
22.443827 82.957 3.6815
22.606464 82.966 3.4778
22.770280 82.975 3.2385
22.935283 82.983 2.9664
23.101481 82.988 2.6680
23.268884 82.989 2.3525
23.437500 82.985 2.0299
23.607338 82.977 1.7098
23.778406 82.965 1.3999
23.950714 82.951 1.1052
24.124271 82.935 0.8278
24.299086 82.920 0.5666
24.475167 82.904 0.3187
24.652524 82.890 0.0800
24.831166 82.876 -0.1539
25.011103 82.863 -0.3862
25.192344 82.851 -0.6196
25.374898 82.839 -0.8555
25.558775 82.827 -1.0948
25.743984 82.815 -1.3395
25.930536 82.804 -1.5922
26.118439 82.793 -1.8568
26.307704 82.783 -2.1385
26.498341 82.771 -2.4421
26.690359 82.758 -2.7703
26.883768 82.740 -3.1220
27.078579 82.717 -3.4911
27.274801 82.687 -3.8654
27.472446 82.648 -4.2274
27.671522 82.601 -4.5568
27.872042 82.547 -4.8330
28.074014 82.491 -5.0402
28.277450 82.435 -5.1710
28.482360 82.386 -5.2305
28.688755 82.348 -5.2366
28.896645 82.324 -5.2190
29.106042 82.315 -5.2136
29.316957 82.318 -5.2559
29.529400 82.331 -5.3731
29.743382 82.347 -5.5788
29.958915 82.360 -5.8704
30.176009 82.365 -6.2303
30.394677 82.359 -6.6298
30.614929 82.341 -7.0355
30.836778 82.313 -7.4155
31.060234 82.277 -7.7450
31.285309 82.237 -8.0104
31.512015 82.198 -8.2104
31.740364 82.163 -8.3539
31.970368 82.135 -8.4567
32.202039 82.113 -8.5358
32.435388 82.099 -8.6065
32.670428 82.090 -8.6797
32.907171 82.086 -8.7623
33.145630 82.087 -8.8595
33.385817 82.090 -8.9767
33.627745 82.097 -9.1208
33.871425 82.106 -9.2994
34.116871 82.114 -9.5181
34.364096 82.119 -9.7781
34.613113 82.119 -10.0735
34.863934 82.112 -10.3914
35.116572 82.095 -10.7136
35.371041 82.070 -11.0207
35.627354 82.038 -11.2963
35.885525 82.001 -11.5305
36.145566 81.963 -11.7219
36.407492 81.926 -11.8762
36.671316 81.891 -12.0041
36.937051 81.859 -12.1177
37.204712 81.831 -12.2288
37.474313 81.805 -12.3469
37.745867 81.781 -12.4795
38.019389 81.759 -12.6324
38.294893 81.737 -12.8088
38.572394 81.714 -13.0089
38.851905 81.689 -13.2285
39.133442 81.660 -13.4593
39.417019 81.628 -13.6912
39.702651 81.594 -13.9156
39.990353 81.560 -14.1288
40.280140 81.526 -14.3332
40.572026 81.493 -14.5355
40.866028 81.462 -14.7423
41.162160 81.430 -14.9551
41.460438 81.396 -15.1678
41.760877 81.360 -15.3687
42.063494 81.322 -15.5455
42.368303 81.286 -15.6917
42.675322 81.252 -15.8105
42.984565 81.222 -15.9129
43.296048 81.197 -16.0112
43.609789 81.173 -16.1129
43.925804 81.151 -16.2162
44.244108 81.127 -16.3132
44.564719 81.105 -16.3966
44.887654 81.084 -16.4665
45.212928 81.067 -16.5331
45.540560 81.054 -16.6121
45.870565 81.041 -16.7152
46.202962 81.026 -16.8436
46.537768 81.008 -16.9858
46.875000 80.985 -17.1248
47.214676 80.959 -17.2475
47.556813 80.934 -17.3538
47.901429 80.912 -17.4567
48.248542 80.892 -17.5746
48.598171 80.873 -17.7208
48.950334 80.851 -17.8956
49.305048 80.825 -18.0862
49.662333 80.794 -18.2739
50.022206 80.761 -18.4441
50.384688 80.728 -18.5923
50.749796 80.696 -18.7252
51.117550 80.668 -18.8546
51.487969 80.641 -18.9899
51.861072 80.615 -19.1332
52.236879 80.588 -19.2794
52.615409 80.560 -19.4193
52.996681 80.530 -19.5454
53.380717 80.501 -19.6549
53.767536 80.472 -19.7494
54.157158 80.444 -19.8326
54.549603 80.416 -19.9076
54.944892 80.389 -19.9750
55.343045 80.361 -20.0347
55.744084 80.333 -20.0880
56.148028 80.305 -20.1382
56.554900 80.277 -20.1902
56.964720 80.249 -20.2472
57.377510 80.220 -20.3091
57.793291 80.189 -20.3732
58.212085 80.159 -20.4370
58.633914 80.128 -20.5012
59.058799 80.099 -20.5703
59.486764 80.070 -20.6495
59.917829 80.043 -20.7422
60.352019 80.015 -20.8473
60.789354 79.986 -20.9600
61.229859 79.956 -21.0741
61.673556 79.925 -21.1834
62.120468 79.893 -21.2838
62.570618 79.861 -21.3724
63.024031 79.828 -21.4484
63.480729 79.795 -21.5104
63.940736 79.761 -21.5575
64.404077 79.727 -21.5892
64.870776 79.694 -21.6078
65.340856 79.661 -21.6191
65.814343 79.629 -21.6332
66.291261 79.598 -21.6607
66.771635 79.567 -21.7095
67.255489 79.534 -21.7810
67.742850 79.498 -21.8697
68.233743 79.461 -21.9663
68.728193 79.422 -22.0632
69.226226 79.384 -22.1587
69.727867 79.349 -22.2562
70.233144 79.315 -22.3601
70.742083 79.284 -22.4703
71.254709 79.254 -22.5814
71.771050 79.226 -22.6857
72.291132 79.199 -22.7773
72.814984 79.174 -22.8539
73.342631 79.151 -22.9155
73.874102 79.128 -22.9639
74.409424 79.106 -23.0005
74.948626 79.083 -23.0258
75.491734 79.059 -23.0398
76.038779 79.033 -23.0443
76.589787 79.005 -23.0431
77.144788 78.976 -23.0405
77.703811 78.945 -23.0393
78.266885 78.912 -23.0407
78.834039 78.879 -23.0453
79.405303 78.845 -23.0546
79.980706 78.811 -23.0704
80.560280 78.779 -23.0940
81.144053 78.747 -23.1257
81.732056 78.716 -23.1656
82.324320 78.685 -23.2125
82.920876 78.655 -23.2634
83.521755 78.625 -23.3133
84.126988 78.593 -23.3565
84.736607 78.561 -23.3889
85.350643 78.530 -23.4100
85.969129 78.499 -23.4227
86.592097 78.468 -23.4323
87.219579 78.438 -23.4437
87.851608 78.409 -23.4608
88.488217 78.378 -23.4828
89.129439 78.347 -23.5058
89.775308 78.315 -23.5236
90.425856 78.283 -23.5316
91.081119 78.251 -23.5262
91.741131 78.219 -23.5048
92.405925 78.188 -23.4668
93.075536 78.159 -23.4169
93.750000 78.130 -23.3636
94.429351 78.102 -23.3145
95.113625 78.073 -23.2731
95.802858 78.042 -23.2397
96.497085 78.010 -23.2143
97.196342 77.977 -23.1982
97.900667 77.945 -23.1941
98.610096 77.913 -23.2031
99.324665 77.881 -23.2229
100.044413 77.850 -23.2482
100.769376 77.821 -23.2737
101.499592 77.793 -23.2944
102.235100 77.765 -23.3057
102.975938 77.738 -23.3027
103.722144 77.712 -23.2836
104.473757 77.684 -23.2505
105.230817 77.657 -23.2102
105.993363 77.628 -23.1699
106.761435 77.598 -23.1340
107.535072 77.566 -23.1036
108.314315 77.533 -23.0790
109.099206 77.500 -23.0591
109.889783 77.467 -23.0404
110.686090 77.433 -23.0172
111.488167 77.400 -22.9835
112.296056 77.366 -22.9343
113.109800 77.332 -22.8679
113.929440 77.296 -22.7853
114.755020 77.258 -22.6896
115.586582 77.218 -22.5870
116.424170 77.175 -22.4838
117.267827 77.129 -22.3801
118.117598 77.081 -22.2687
118.973527 77.036 -22.1423
119.835658 76.998 -22.0112
120.704037 76.970 -21.9060
121.578708 76.948 -21.8546
122.459718 76.930 -21.8581
123.347111 76.911 -21.8981
124.240935 76.891 -21.9528
125.141236 76.867 -22.0034
126.048061 76.842 -22.0364
126.961458 76.817 -22.0474
127.881473 76.792 -22.0404
128.808154 76.770 -22.0237
129.741551 76.750 -22.0046
130.681712 76.733 -21.9895
131.628686 76.718 -21.9834
132.582521 76.707 -21.9925
133.543269 76.699 -22.0220
134.510979 76.693 -22.0726
135.485701 76.688 -22.1387
136.467486 76.680 -22.2013
137.456386 76.667 -22.2194
138.452451 76.647 -22.1390
139.455735 76.624 -21.9285
140.466288 76.601 -21.6080
141.484165 76.578 -21.2372
142.509418 76.551 -20.8810
143.542100 76.515 -20.5797
144.582265 76.466 -20.3365
145.629968 76.406 -20.1345
146.685262 76.342 -19.9578
147.748204 76.278 -19.7910
148.818849 76.221 -19.6148
149.897251 76.173 -19.4088
150.983469 76.138 -19.1632
152.077557 76.113 -18.8848
153.179574 76.098 -18.5927
154.289576 76.087 -18.3098
155.407622 76.079 -18.0530
156.533770 76.072 -17.8307
157.668078 76.064 -17.6461
158.810606 76.057 -17.4996
159.961413 76.050 -17.3872
161.120559 76.044 -17.2983
162.288105 76.036 -17.2245
163.464112 76.029 -17.1656
164.648640 76.020 -17.1258
165.841752 76.011 -17.1089
167.043510 76.002 -17.1158
168.253976 75.993 -17.1415
169.473213 75.983 -17.1739
170.701286 75.973 -17.1978
171.938258 75.962 -17.2023
173.184194 75.949 -17.1840
174.439158 75.935 -17.1459
175.703216 75.918 -17.0928
176.976434 75.899 -17.0311
178.258878 75.879 -16.9694
179.550615 75.858 -16.9162
180.851713 75.837 -16.8737
182.162239 75.814 -16.8369
183.482262 75.790 -16.7983
184.811850 75.763 -16.7505
186.151073 75.736 -16.6906
187.500000 75.709 -16.6200
188.858702 75.683 -16.5441
190.227250 75.659 -16.4679
191.605715 75.635 -16.3911
192.994169 75.612 -16.3074
194.392685 75.588 -16.2108
195.801334 75.565 -16.0995
197.220191 75.541 -15.9739
198.649330 75.516 -15.8345
200.088825 75.492 -15.6810
201.538751 75.467 -15.5134
202.999184 75.441 -15.3309
204.470200 75.416 -15.1359
205.951875 75.392 -14.9362
207.444287 75.371 -14.7459
208.947514 75.352 -14.5789
210.461634 75.336 -14.4382
211.986726 75.320 -14.3127
213.522869 75.303 -14.1854
215.070144 75.285 -14.0416
216.628631 75.268 -13.8760
218.198411 75.253 -13.6927
219.779567 75.243 -13.5046
221.372180 75.236 -13.3307
222.976334 75.231 -13.1934
224.592112 75.227 -13.1099
226.219600 75.223 -13.0818
227.858880 75.219 -13.0878
229.510039 75.214 -13.0892
231.173164 75.211 -13.0491
232.848340 75.208 -12.9564
234.535655 75.204 -12.8293
236.235197 75.199 -12.6948
237.947054 75.190 -12.5724
239.671317 75.177 -12.4689
241.408074 75.162 -12.3834
243.157416 75.143 -12.3122
244.919435 75.123 -12.2539
246.694223 75.102 -12.2109
248.481871 75.082 -12.1796
250.282473 75.063 -12.1439
252.096123 75.043 -12.0845
253.922915 75.022 -11.9936
255.762945 75.000 -11.8795
257.616309 74.978 -11.7567
259.483103 74.955 -11.6328
261.363424 74.934 -11.5074
263.257372 74.915 -11.3794
265.165043 74.899 -11.2537
267.086538 74.885 -11.1385
269.021957 74.873 -11.0363
270.971401 74.861 -10.9409
272.934972 74.849 -10.8420
274.912771 74.836 -10.7252
276.904902 74.821 -10.5800
278.911469 74.807 -10.4089
280.932577 74.794 -10.2276
282.968330 74.783 -10.0542
285.018835 74.772 -9.8983
287.084199 74.761 -9.7587
289.164530 74.749 -9.6279
291.259935 74.738 -9.4993
293.370525 74.726 -9.3708
295.496408 74.715 -9.2438
297.637697 74.702 -9.1199
299.794503 74.690 -9.0000
301.966937 74.677 -8.8828
304.155114 74.664 -8.7660
306.359147 74.652 -8.6469
308.579152 74.639 -8.5229
310.815244 74.626 -8.3933
313.067539 74.612 -8.2589
315.336156 74.598 -8.1222
317.621211 74.585 -7.9857
319.922826 74.570 -7.8501
322.241118 74.556 -7.7147
324.576210 74.542 -7.5778
326.928223 74.527 -7.4381
329.297280 74.514 -7.2959
331.683504 74.500 -7.1520
334.087019 74.487 -7.0074
336.507952 74.474 -6.8627
338.946427 74.461 -6.7167
341.402572 74.449 -6.5687
343.876516 74.436 -6.4186
346.368387 74.424 -6.2668
348.878315 74.412 -6.1141
351.406431 74.400 -5.9601
353.952867 74.388 -5.8046
356.517756 74.377 -5.6482
359.101230 74.366 -5.4928
361.703426 74.356 -5.3401
364.324478 74.345 -5.1896
366.964523 74.334 -5.0392
369.623699 74.322 -4.8872
372.302145 74.311 -4.7329
375.000000 74.300 -4.5766
377.717405 74.288 -4.4181
380.454501 74.277 -4.2571
383.211431 74.267 -4.0938
385.988339 74.256 -3.9292
388.785369 74.246 -3.7644
391.602668 74.236 -3.6005
394.440383 74.227 -3.4375
397.298660 74.217 -3.2745
400.177650 74.208 -3.1105
403.077502 74.199 -2.9444
405.998368 74.190 -2.7759
408.940400 74.181 -2.6055
411.903750 74.173 -2.4347
414.888575 74.164 -2.2655
417.895028 74.156 -2.0986
420.923268 74.147 -1.9327
423.973452 74.139 -1.7656
427.045738 74.130 -1.5964
430.140287 74.121 -1.4254
433.257261 74.113 -1.2524
436.396822 74.104 -1.0773
439.559133 74.096 -0.9000
442.744360 74.087 -0.7209
445.952668 74.078 -0.5407
449.184225 74.069 -0.3604
452.439199 74.061 -0.1805
455.717760 74.052 -0.0012
459.020079 74.045 0.1778
462.346327 74.037 0.3565
465.696680 74.030 0.5354
469.071310 74.024 0.7147
472.470394 74.017 0.8948
475.894109 74.011 1.0765
479.342634 74.004 1.2614
482.816148 73.997 1.4506
486.314833 73.991 1.6438
489.838871 73.984 1.8397
493.388445 73.976 2.0361
496.963741 73.969 2.2318
500.564945 73.962 2.4266
504.192245 73.955 2.6213
507.845830 73.949 2.8170
511.525890 73.942 3.0142
515.232618 73.936 3.2131
518.966206 73.930 3.4142
522.726849 73.924 3.6174
526.514743 73.919 3.8228
530.330086 73.914 4.0300
534.173076 73.909 4.2389
538.043915 73.904 4.4490
541.942803 73.900 4.6598
545.869944 73.896 4.8710
549.825542 73.891 5.0832
553.809805 73.887 5.2964
557.822939 73.883 5.5106
561.865154 73.879 5.7260
565.936660 73.875 5.9429
570.037671 73.871 6.1625
574.168399 73.867 6.3851
578.329060 73.863 6.6113
582.519870 73.859 6.8408
586.741049 73.856 7.0737
590.992817 73.852 7.3102
595.275394 73.849 7.5502
599.589005 73.845 7.7936
603.933874 73.842 8.0394
608.310228 73.839 8.2869
612.718295 73.837 8.5359
617.158304 73.835 8.7871
621.630488 73.834 9.0413
626.135079 73.833 9.2988
630.672311 73.833 9.5592
635.242423 73.834 9.8215
639.845651 73.836 10.0852
644.482237 73.837 10.3499
649.152421 73.840 10.6155
653.856447 73.843 10.8823
658.594560 73.846 11.1505
663.367008 73.850 11.4197
668.174039 73.855 11.6895
673.015903 73.859 11.9589
677.892854 73.864 12.2280
682.805145 73.869 12.4976
687.753032 73.875 12.7685
692.736774 73.880 13.0415
697.756631 73.886 13.3170
702.812863 73.892 13.5952
707.905735 73.899 13.8765
713.035511 73.905 14.1611
718.202461 73.912 14.4481
723.406852 73.918 14.7368
728.648956 73.926 15.0269
733.929047 73.934 15.3192
739.247399 73.943 15.6143
744.604290 73.953 15.9125
750.000000 73.963 16.2141
755.434809 73.973 16.5198
760.909001 73.985 16.8302
766.422861 73.996 17.1449
771.976677 74.009 17.4631
777.570739 74.022 17.7839
783.205337 74.036 18.1074
788.880766 74.052 18.4335
794.597321 74.068 18.7621
800.355301 74.084 19.0927
806.155005 74.102 19.4247
811.996736 74.121 19.7584
817.880799 74.141 20.0942
823.807501 74.162 20.4322
829.777150 74.184 20.7718
835.790057 74.208 21.1118
841.846536 74.232 21.4509
847.946903 74.258 21.7886
854.091476 74.285 22.1248
860.280575 74.312 22.4602
866.514523 74.341 22.7947
872.793644 74.371 23.1284
879.118267 74.403 23.4614
885.488720 74.435 23.7941
891.905336 74.469 24.1262
898.368450 74.505 24.4569
904.878398 74.542 24.7849
911.435520 74.580 25.1091
918.040157 74.620 25.4293
924.692655 74.662 25.7457
931.393359 74.704 26.0583
938.142619 74.748 26.3673
944.940787 74.793 26.6718
951.788218 74.839 26.9713
958.685268 74.886 27.2648
965.632296 74.935 27.5520
972.629666 74.985 27.8322
979.677741 75.036 28.1044
986.776890 75.088 28.3682
993.927482 75.141 28.6231
1001.129891 75.194 28.8691
1008.384491 75.249 29.1059
1015.691660 75.304 29.3334
1023.051781 75.360 29.5517
1030.465236 75.416 29.7603
1037.932411 75.473 29.9589
1045.453698 75.531 30.1473
1053.029486 75.589 30.3257
1060.660172 75.648 30.4946
1068.346153 75.706 30.6540
1076.087829 75.765 30.8040
1083.885605 75.824 30.9443
1091.739887 75.884 31.0748
1099.651084 75.942 31.1952
1107.619609 76.001 31.3055
1115.645878 76.060 31.4062
1123.730308 76.118 31.4976
1131.873321 76.176 31.5804
1140.075341 76.234 31.6548
1148.336797 76.291 31.7209
1156.658119 76.348 31.7784
1165.039741 76.404 31.8276
1173.482099 76.460 31.8690
1181.985634 76.515 31.9034
1190.550789 76.569 31.9313
1199.178011 76.622 31.9532
1207.867749 76.674 31.9699
1216.620457 76.725 31.9822
1225.436590 76.775 31.9906
1234.316609 76.825 31.9955
1243.260976 76.873 31.9966
1252.270157 76.921 31.9939
1261.344623 76.968 31.9874
1270.484846 77.014 31.9776
1279.691303 77.059 31.9653
1288.964474 77.104 31.9509
1298.304842 77.148 31.9349
1307.712894 77.191 31.9178
1317.189120 77.233 31.9001
1326.734016 77.275 31.8823
1336.348077 77.315 31.8652
1346.031806 77.355 31.8492
1355.785708 77.395 31.8347
1365.610290 77.434 31.8216
1375.506065 77.473 31.8098
1385.473549 77.511 31.7986
1395.513261 77.550 31.7871
1405.625726 77.590 31.7750
1415.811469 77.629 31.7629
1426.071023 77.668 31.7520
1436.404921 77.707 31.7437
1446.813703 77.746 31.7393
1457.297912 77.785 31.7393
1467.858093 77.823 31.7428
1478.494798 77.860 31.7486
1489.208581 77.897 31.7552
1500.000000 77.933 31.7616
1510.869618 77.970 31.7677
1521.818002 78.006 31.7738
1532.845723 78.043 31.7799
1543.953355 78.079 31.7860
1555.141477 78.115 31.7924
1566.410674 78.151 31.7992
1577.761531 78.187 31.8065
1589.194642 78.223 31.8144
1600.710601 78.258 31.8231
1612.310010 78.294 31.8327
1623.993473 78.329 31.8437
1635.761599 78.365 31.8564
1647.615002 78.401 31.8708
1659.554299 78.436 31.8868
1671.580114 78.472 31.9042
1683.693072 78.508 31.9228
1695.893807 78.544 31.9427
1708.182952 78.580 31.9641
1720.561150 78.616 31.9868
1733.029045 78.653 32.0108
1745.587288 78.689 32.0361
1758.236533 78.725 32.0625
1770.977440 78.761 32.0904
1783.810673 78.798 32.1202
1796.736900 78.834 32.1524
1809.756796 78.870 32.1874
1822.871040 78.906 32.2259
1836.080315 78.941 32.2687
1849.385310 78.976 32.3166
1862.786718 79.011 32.3710
1876.285239 79.045 32.4335
1889.881575 79.080 32.5064
1903.576436 79.114 32.5924
1917.370535 79.148 32.6946
1931.264593 79.182 32.8165
1945.259332 79.217 32.9617
1959.355483 79.253 33.1336
1973.553781 79.291 33.3363
1987.854965 79.332 33.5730
2002.259781 79.378 33.8458
2016.768981 79.431 34.1541
2031.383320 79.492 34.4933
2046.103561 79.564 34.8540
2060.930471 79.648 35.2212
2075.864823 79.744 35.5750
2090.907395 79.854 35.8931
2106.058972 79.975 36.1532
2121.320344 80.105 36.3364
2136.692305 80.242 36.4300
2152.175658 80.381 36.4291
2167.771210 80.521 36.3366
2183.479774 80.657 36.1614
2199.302169 80.788 35.9162
2215.239219 80.913 35.6151
2231.291755 81.031 35.2711
2247.460615 81.143 34.8957
2263.746641 81.248 34.4985
2280.150683 81.348 34.0879
2296.673595 81.442 33.6698
2313.316238 81.533 33.2489
2330.079481 81.620 32.8280
2346.964198 81.704 32.4084
2363.971268 81.786 31.9906
2381.101578 81.867 31.5740
2398.356022 81.946 31.1577
2415.735498 82.025 30.7402
2433.240913 82.103 30.3201
2450.873180 82.181 29.8957
2468.633217 82.259 29.4652
2486.521951 82.337 29.0270
2504.540314 82.415 28.5799
2522.689246 82.493 28.1225
2540.969692 82.571 27.6532
2559.382606 82.650 27.1705
2577.928947 82.728 26.6727
2596.609683 82.807 26.1583
2615.425787 82.885 25.6262
2634.378241 82.963 25.0749
2653.468031 83.040 24.5035
2672.696154 83.117 23.9115
2692.063613 83.192 23.2985
2711.571415 83.267 22.6649
2731.220579 83.340 22.0107
2751.012130 83.411 21.3363
2770.947098 83.481 20.6420
2791.026522 83.550 19.9276
2811.251451 83.618 19.1924
2831.622938 83.684 18.4343
2852.142045 83.749 17.6511
2872.809842 83.812 16.8401
2893.627406 83.873 15.9993
2914.595823 83.931 15.1273
2935.716186 83.986 14.2238
2956.989596 84.036 13.2894
2978.417161 84.082 12.3257
3000.000000 84.122 11.3351
3021.739237 84.157 10.3209
3043.636005 84.186 9.2864
3065.691446 84.210 8.2345
3087.906710 84.227 7.1680
3110.282955 84.238 6.0885
3132.821347 84.243 4.9973
3155.523062 84.243 3.8951
3178.389283 84.236 2.7830
3201.421202 84.222 1.6621
3224.620020 84.202 0.5342
3247.986946 84.176 -0.5987
3271.523198 84.142 -1.7339
3295.230004 84.100 -2.8687
3319.108599 84.051 -3.9993
3343.160228 83.994 -5.1224
3367.386145 83.930 -6.2340
3391.787613 83.857 -7.3304
3416.365904 83.777 -8.4080
3441.122300 83.690 -9.4630
3466.058091 83.595 -10.4918
3491.174576 83.493 -11.4904
3516.473066 83.385 -12.4551
3541.954880 83.271 -13.3831
3567.621345 83.152 -14.2723
3593.473800 83.027 -15.1210
3619.513592 82.899 -15.9286
3645.742080 82.767 -16.6948
3672.160630 82.632 -17.4200
3698.770620 82.494 -18.1050
3725.573436 82.353 -18.7503
3752.570477 82.210 -19.3563
3779.763150 82.065 -19.9234
3807.152872 81.919 -20.4517
3834.741071 81.771 -20.9417
3862.529185 81.622 -21.3937
3890.518664 81.472 -21.8082
3918.710966 81.320 -22.1853
3947.107561 81.169 -22.5255
3975.709929 81.016 -22.8291
4004.519563 80.863 -23.0970
4033.537962 80.711 -23.3300
4062.766641 80.558 -23.5286
4092.207123 80.406 -23.6933
4121.860942 80.253 -23.8239
4151.729646 80.102 -23.9203
4181.814790 79.951 -23.9829
4212.117944 79.801 -24.0122
4242.640687 79.652 -24.0092
4273.384610 79.504 -23.9750
4304.351317 79.357 -23.9109
4335.542421 79.211 -23.8184
4366.959549 79.068 -23.6982
4398.604338 78.926 -23.5512
4430.478438 78.785 -23.3779
4462.583511 78.646 -23.1791
4494.921231 78.510 -22.9556
4527.493283 78.375 -22.7087
4560.301365 78.241 -22.4394
4593.347189 78.109 -22.1478
4626.632476 77.978 -21.8336
4660.158962 77.849 -21.4963
4693.928395 77.721 -21.1352
4727.942535 77.593 -20.7488
4762.203156 77.467 -20.3359
4796.712043 77.342 -19.8953
4831.470996 77.219 -19.4264
4866.481826 77.099 -18.9301
4901.746360 76.981 -18.4071
4937.266434 76.867 -17.8584
4973.043902 76.757 -17.2848
5009.080628 76.650 -16.6876
5045.378492 76.548 -16.0681
5081.939384 76.450 -15.4276
5118.765212 76.355 -14.7675
5155.857894 76.265 -14.0884
5193.219366 76.178 -13.3915
5230.851574 76.095 -12.6774
5268.756481 76.016 -11.9468
5306.936062 75.940 -11.2004
5345.392309 75.869 -10.4387
5384.127225 75.801 -9.6618
5423.142830 75.737 -8.8702
5462.441159 75.678 -8.0642
5502.024259 75.622 -7.2444
5541.894195 75.571 -6.4117
5582.053045 75.525 -5.5673
5622.502902 75.482 -4.7124
5663.245876 75.444 -3.8483
5704.284090 75.411 -2.9758
5745.619684 75.381 -2.0955
5787.254813 75.356 -1.2075
5829.191647 75.336 -0.3123
5871.432373 75.319 0.5897
5913.979192 75.307 1.4988
5956.834323 75.300 2.4155
6000.000000 75.297 3.3408
6043.478473 75.299 4.2750
6087.272010 75.306 5.2178
6131.382892 75.318 6.1677
6175.813420 75.335 7.1232
6220.565910 75.359 8.0828
6265.642695 75.388 9.0450
6311.046124 75.424 10.0081
6356.778566 75.467 10.9698
6402.842404 75.518 11.9268
6449.240040 75.575 12.8749
6495.973891 75.641 13.8102
6543.046396 75.714 14.7288
6590.460007 75.794 15.6277
6638.217197 75.881 16.5040
6686.320456 75.976 17.3554
6734.772290 76.077 18.1795
6783.575226 76.186 18.9749
6832.731809 76.301 19.7411
6882.244600 76.423 20.4788
6932.116181 76.552 21.1885
6982.349153 76.690 21.8706
7032.946133 76.836 22.5238
7083.909760 76.993 23.1451
7135.242690 77.161 23.7286
7186.947600 77.342 24.2656
7239.027185 77.538 24.7431
7291.484160 77.749 25.1443
7344.321260 77.975 25.4493
7397.541239 78.216 25.6365
7451.146872 78.470 25.6837
7505.140954 78.735 25.5682
7559.526299 79.008 25.2674
7614.305743 79.286 24.7602
7669.482141 79.565 24.0292
7725.058371 79.841 23.0615
7781.037328 80.106 21.8502
7837.421932 80.357 20.3954
7894.215122 80.586 18.7053
7951.419859 80.788 16.7960
8009.039125 80.957 14.6921
8067.075924 81.089 12.4254
8125.533282 81.180 10.0343
8184.414245 81.227 7.5613
8243.721885 81.230 5.0508
8303.459292 81.190 2.5469
8363.629581 81.108 0.0903
8424.235888 80.988 -2.2825
8485.281374 80.834 -4.5424
8546.769221 80.650 -6.6677
8608.702634 80.440 -8.6456
8671.084842 80.209 -10.4691
8733.919097 79.960 -12.1358
8797.208675 79.696 -13.6456
8860.956876 79.420 -14.9990
8925.167022 79.135 -16.1968
8989.842461 78.840 -17.2385
9054.986566 78.540 -18.1232
9120.602731 78.235 -18.8488
9186.694378 77.928 -19.4141
9253.264952 77.622 -19.8197
9320.317925 77.318 -20.0695
9387.856790 77.020 -20.1721
9455.885071 76.731 -20.1411
9524.406312 76.452 -19.9930
9593.424086 76.187 -19.7456
9662.941992 75.935 -19.4153
9732.963653 75.696 -19.0166
9803.492719 75.472 -18.5618
9874.532869 75.260 -18.0613
9946.087805 75.061 -17.5235
10018.161257 74.873 -16.9551
10090.756983 74.697 -16.3613
10163.878768 74.531 -15.7463
10237.530423 74.376 -15.1136
10311.715789 74.231 -14.4668
10386.438732 74.098 -13.8095
10461.703149 73.974 -13.1466
10537.512962 73.862 -12.4835
10613.872125 73.759 -11.8262
10690.784618 73.667 -11.1809
10768.254450 73.585 -10.5549
10846.285661 73.511 -9.9559
10924.882318 73.446 -9.3914
11004.048518 73.388 -8.8683
11083.788390 73.337 -8.3932
11164.106090 73.291 -7.9725
11245.005805 73.249 -7.6121
11326.491752 73.209 -7.3171
11408.568180 73.170 -7.0917
11491.239368 73.129 -6.9383
11574.509626 73.084 -6.8571
11658.383294 73.032 -6.8455
11742.864745 72.972 -6.8978
11827.958384 72.901 -7.0042
11913.668646 72.817 -7.1510
12000.000000 72.717 -7.3216
12086.956947 72.602 -7.4968
12174.544019 72.470 -7.6570
12262.765784 72.322 -7.7839
12351.626840 72.159 -7.8621
12441.131819 71.981 -7.8785
12531.285389 71.788 -7.8209
12622.092249 71.581 -7.6750
12713.557132 71.361 -7.4247
12805.684808 71.130 -7.0553
12898.480079 70.890 -6.5571
12991.947783 70.643 -5.9256
13086.092792 70.392 -5.1575
13180.920015 70.138 -4.2477
13276.434395 69.885 -3.1910
13372.640911 69.635 -1.9854
13469.544580 69.391 -0.6340
13567.150452 69.156 0.8542
13665.463617 68.934 2.4668
13764.489200 68.727 4.1896
13864.232362 68.537 6.0090
13964.698305 68.366 7.9120
14065.892266 68.217 9.8861
14167.819519 68.091 11.9194
14270.485380 67.990 14.0005
14373.895200 67.916 16.1174
14478.054370 67.873 18.2561
14582.968320 67.863 20.3979
14688.642520 67.891 22.5179
14795.082478 67.960 24.5829
14902.293745 68.073 26.5513
15010.281908 68.235 28.3737
15119.052599 68.447 29.9935
15228.611486 68.710 31.3473
15338.964283 69.024 32.3655
15450.116741 69.384 32.9743
15562.074656 69.786 33.0974
15674.843864 70.218 32.6594
15788.430244 70.669 31.5913
15902.839718 71.120 29.8390
16018.078250 71.548 27.3738
16134.151848 71.929 24.2024
16251.066563 72.237 20.3750
16368.828491 72.447 15.9910
16487.443769 72.537 11.1974
16606.918584 72.494 6.1802
16727.259161 72.311 1.1482
16848.471777 71.990 -3.6881
16970.562748 71.545 -8.1364
17093.538442 70.992 -12.0378
17217.405268 70.355 -15.2751
17342.169684 69.660 -17.7751
17467.838194 68.931 -19.5069
17594.417350 68.196 -20.4795
17721.913751 67.476 -20.7366
17850.334044 66.793 -20.3505
17979.684923 66.163 -19.4160
18109.973131 65.598 -18.0459
18241.205462 65.106 -16.3671
18373.388756 64.688 -14.5145
18506.529905 64.341 -12.6216
18640.635849 64.056 -10.8059
18775.713581 63.821 -9.1599
18911.770141 63.619 -7.7488
19048.812624 63.435 -6.6151
19186.848172 63.255 -5.7831
19325.883983 63.067 -5.2595
19465.927305 62.866 -5.0293
19606.985439 62.657 -5.0499
19749.065738 62.456 -5.2429
19892.175609 62.292 -5.4924
20036.322514 62.199 -5.6658
