* Measurement data measured by REW V5.31.3
* Source: Headset (CX31993 HIFI AUDIO), MICROPHONE (Master Volume), R, volume: 0.400
* Format: 256k Log Swept Sine, 1 sweep at -12.0 dBFS with no timing reference
* Dated: 03 3, 25 6:30:07 PM
* REW Settings:
*  C-weighting compensation: Off
*  Target level: 75.0 dB
* Note: ; 
* Measurement: Melobuds Pro EQ R
* Smoothing: 1/12 octave
* Frequency Step: 96 ppo
* Start Frequency: 0.36621094 Hz
*
* Freq(Hz) SPL(dB) Phase(degrees)
0.366211 51.269 73.7190
0.368865 51.296 73.5773
0.371538 51.336 73.3671
0.374230 51.385 73.1068
0.376942 51.440 72.8121
0.379673 51.500 72.4946
0.382424 51.561 72.1619
0.385196 51.624 71.8187
0.387987 51.688 71.4679
0.390798 51.753 71.1109
0.393630 51.819 70.7488
0.396483 51.885 70.3820
0.399356 51.951 70.0109
0.402250 52.019 69.6357
0.405165 52.086 69.2565
0.408101 52.154 68.8735
0.411058 52.223 68.4869
0.414037 52.292 68.0968
0.417037 52.362 67.7033
0.420059 52.432 67.3064
0.423103 52.502 66.9065
0.426169 52.573 66.5035
0.429257 52.645 66.0977
0.432368 52.717 65.6891
0.435501 52.790 65.2779
0.438656 52.863 64.8642
0.441835 52.937 64.4482
0.445037 53.011 64.0299
0.448262 53.086 63.6096
0.451510 53.161 63.1873
0.454782 53.237 62.7631
0.458077 53.314 62.3373
0.461397 53.391 61.9098
0.464740 53.468 61.4809
0.468108 53.546 61.0506
0.471500 53.625 60.6191
0.474917 53.704 60.1865
0.478358 53.784 59.7529
0.481825 53.865 59.3183
0.485316 53.946 58.8830
0.488833 54.027 58.4469
0.492375 54.109 58.0102
0.495943 54.192 57.5730
0.499537 54.276 57.1354
0.503157 54.360 56.6973
0.506803 54.444 56.2590
0.510475 54.529 55.8205
0.514175 54.615 55.3818
0.517900 54.702 54.9430
0.521653 54.789 54.5042
0.525434 54.877 54.0654
0.529241 54.965 53.6266
0.533076 55.054 53.1879
0.536939 55.143 52.7494
0.540830 55.234 52.3110
0.544749 55.325 51.8728
0.548696 55.416 51.4348
0.552673 55.509 50.9970
0.556677 55.602 50.5594
0.560711 55.695 50.1221
0.564774 55.789 49.6849
0.568867 55.884 49.2480
0.572989 55.980 48.8112
0.577141 56.076 48.3746
0.581324 56.174 47.9382
0.585536 56.271 47.5019
0.589779 56.370 47.0656
0.594053 56.469 46.6294
0.598358 56.569 46.1933
0.602694 56.669 45.7570
0.607061 56.771 45.3207
0.611460 56.873 44.8842
0.615891 56.976 44.4475
0.620354 57.079 44.0105
0.624849 57.184 43.5731
0.629377 57.289 43.1353
0.633938 57.395 42.6970
0.638532 57.501 42.2580
0.643159 57.609 41.8184
0.647819 57.717 41.3780
0.652514 57.826 40.9367
0.657242 57.936 40.4944
0.662005 58.046 40.0510
0.666802 58.158 39.6065
0.671634 58.270 39.1606
0.676501 58.383 38.7133
0.681403 58.496 38.2644
0.686341 58.611 37.8139
0.691314 58.726 37.3616
0.696324 58.842 36.9074
0.701370 58.959 36.4512
0.706452 59.076 35.9930
0.711571 59.194 35.5327
0.716728 59.312 35.0703
0.721921 59.429 34.6061
0.727153 59.545 34.1404
0.732422 59.660 33.6737
0.737729 59.773 33.2067
0.743075 59.884 32.7401
0.748460 59.994 32.2746
0.753883 60.103 31.8107
0.759346 60.212 31.3487
0.764849 60.321 30.8889
0.770391 60.430 30.4314
0.775974 60.539 29.9764
0.781597 60.649 29.5239
0.787261 60.758 29.0739
0.792966 60.868 28.6266
0.798712 60.977 28.1819
0.804500 61.087 27.7398
0.810329 61.198 27.3004
0.816201 61.308 26.8635
0.822116 61.419 26.4292
0.828073 61.530 25.9974
0.834074 61.641 25.5680
0.840118 61.752 25.1411
0.846206 61.864 24.7165
0.852338 61.975 24.2942
0.858514 62.087 23.8740
0.864735 62.199 23.4560
0.871001 62.312 23.0400
0.877313 62.424 22.6259
0.883670 62.537 22.2135
0.890074 62.650 21.8028
0.896524 62.763 21.3937
0.903020 62.876 20.9861
0.909564 62.990 20.5797
0.916155 63.103 20.1745
0.922794 63.217 19.7703
0.929481 63.332 19.3669
0.936216 63.446 18.9643
0.943000 63.561 18.5622
0.949834 63.675 18.1606
0.956717 63.790 17.7591
0.963649 63.906 17.3578
0.970632 64.021 16.9563
0.977666 64.137 16.5545
0.984750 64.253 16.1523
0.991886 64.369 15.7494
0.999074 64.485 15.3457
1.006314 64.602 14.9409
1.013606 64.719 14.5349
1.020951 64.836 14.1275
1.028349 64.953 13.7184
1.035801 65.071 13.3075
1.043307 65.189 12.8945
1.050867 65.307 12.4793
1.058482 65.425 12.0616
1.066152 65.544 11.6414
1.073878 65.663 11.2185
1.081660 65.782 10.7929
1.089498 65.901 10.3646
1.097393 66.020 9.9339
1.105345 66.140 9.5010
1.113355 66.259 9.0665
1.121423 66.379 8.6306
1.129549 66.498 8.1937
1.137734 66.617 7.7560
1.145979 66.737 7.3178
1.154283 66.856 6.8791
1.162647 66.974 6.4402
1.171072 67.093 6.0011
1.179558 67.212 5.5619
1.188106 67.330 5.1227
1.196715 67.448 4.6835
1.205387 67.567 4.2445
1.214122 67.685 3.8055
1.222920 67.803 3.3667
1.231782 67.920 2.9281
1.240708 68.038 2.4898
1.249699 68.156 2.0517
1.258754 68.274 1.6138
1.267876 68.391 1.1762
1.277063 68.509 0.7389
1.286318 68.626 0.3018
1.295639 68.744 -0.1351
1.305027 68.861 -0.5718
1.314484 68.979 -1.0083
1.324009 69.096 -1.4447
1.333604 69.214 -1.8809
1.343268 69.331 -2.3171
1.353002 69.449 -2.7534
1.362806 69.567 -3.1896
1.372681 69.685 -3.6260
1.382628 69.803 -4.0626
1.392647 69.921 -4.4994
1.402739 70.040 -4.9366
1.412904 70.158 -5.3742
1.423142 70.277 -5.8122
1.433455 70.396 -6.2507
1.443843 70.515 -6.6896
1.454305 70.635 -7.1289
1.464844 70.754 -7.5685
1.475459 70.873 -8.0081
1.486150 70.993 -8.4476
1.496920 71.112 -8.8868
1.507767 71.231 -9.3255
1.518693 71.349 -9.7639
1.529698 71.468 -10.2019
1.540783 71.586 -10.6396
1.551948 71.704 -11.0770
1.563194 71.822 -11.5142
1.574521 71.939 -11.9515
1.585931 72.056 -12.3889
1.597423 72.173 -12.8266
1.608999 72.290 -13.2647
1.620658 72.406 -13.7033
1.632402 72.522 -14.1428
1.644232 72.638 -14.5832
1.656146 72.754 -15.0247
1.668147 72.870 -15.4675
1.680235 72.986 -15.9119
1.692411 73.101 -16.3579
1.704675 73.217 -16.8060
1.717028 73.332 -17.2562
1.729470 73.447 -17.7088
1.742003 73.562 -18.1641
1.754626 73.677 -18.6222
1.767341 73.792 -19.0834
1.780147 73.908 -19.5480
1.793047 74.023 -20.0161
1.806040 74.138 -20.4879
1.819128 74.253 -20.9635
1.832310 74.368 -21.4430
1.845587 74.482 -21.9263
1.858961 74.597 -22.4131
1.872432 74.711 -22.9034
1.886001 74.824 -23.3967
1.899667 74.938 -23.8929
1.913433 75.051 -24.3917
1.927299 75.163 -24.8928
1.941265 75.275 -25.3961
1.955332 75.387 -25.9012
1.969501 75.498 -26.4081
1.983773 75.609 -26.9165
1.998148 75.720 -27.4264
2.012627 75.830 -27.9375
2.027212 75.940 -28.4498
2.041902 76.050 -28.9631
2.056698 76.159 -29.4775
2.071602 76.268 -29.9930
2.086614 76.377 -30.5094
2.101734 76.485 -31.0268
2.116964 76.593 -31.5452
2.132304 76.701 -32.0649
2.147756 76.809 -32.5859
2.163320 76.917 -33.1085
2.178996 77.024 -33.6330
2.194786 77.131 -34.1598
2.210690 77.238 -34.6893
2.226710 77.344 -35.2219
2.242845 77.450 -35.7576
2.259098 77.555 -36.2966
2.275468 77.659 -36.8386
2.291957 77.763 -37.3835
2.308566 77.867 -37.9308
2.325295 77.970 -38.4804
2.342145 78.072 -39.0319
2.359117 78.174 -39.5849
2.376212 78.275 -40.1393
2.393431 78.376 -40.6946
2.410775 78.476 -41.2507
2.428244 78.576 -41.8073
2.445840 78.675 -42.3643
2.463564 78.774 -42.9215
2.481416 78.873 -43.4789
2.499397 78.971 -44.0364
2.517509 79.069 -44.5944
2.535752 79.166 -45.1530
2.554127 79.263 -45.7127
2.572635 79.359 -46.2743
2.591277 79.455 -46.8382
2.610055 79.550 -47.4050
2.628968 79.644 -47.9748
2.648019 79.738 -48.5476
2.667208 79.831 -49.1232
2.686535 79.923 -49.7012
2.706003 80.014 -50.2812
2.725612 80.105 -50.8628
2.745363 80.195 -51.4455
2.765257 80.285 -52.0289
2.785295 80.373 -52.6124
2.805478 80.462 -53.1959
2.825808 80.549 -53.7788
2.846285 80.636 -54.3611
2.866910 80.723 -54.9426
2.887685 80.809 -55.5234
2.908611 80.894 -56.1039
2.929688 80.979 -56.6847
2.950917 81.063 -57.2666
2.972301 81.147 -57.8502
2.993839 81.229 -58.4359
3.015534 81.311 -59.0239
3.037386 81.392 -59.6140
3.059396 81.472 -60.2059
3.081565 81.551 -60.7991
3.103896 81.630 -61.3930
3.126388 81.708 -61.9870
3.149043 81.785 -62.5805
3.171862 81.861 -63.1730
3.194847 81.937 -63.7640
3.217998 82.012 -64.3531
3.241317 82.087 -64.9402
3.264805 82.161 -65.5252
3.288463 82.234 -66.1087
3.312293 82.307 -66.6912
3.336295 82.379 -67.2734
3.360471 82.450 -67.8558
3.384822 82.520 -68.4388
3.409350 82.590 -69.0223
3.434056 82.658 -69.6061
3.458940 82.726 -70.1899
3.484005 82.793 -70.7730
3.509252 82.860 -71.3551
3.534681 82.925 -71.9356
3.560295 82.990 -72.5140
3.586094 83.055 -73.0900
3.612081 83.119 -73.6634
3.638255 83.183 -74.2343
3.664620 83.245 -74.8028
3.691175 83.308 -75.3696
3.717923 83.369 -75.9352
3.744864 83.430 -76.4998
3.772001 83.490 -77.0636
3.799335 83.549 -77.6266
3.826866 83.608 -78.1884
3.854597 83.666 -78.7488
3.882529 83.724 -79.3074
3.910664 83.780 -79.8637
3.939002 83.837 -80.4175
3.967546 83.893 -80.9684
3.996296 83.948 -81.5163
4.025255 84.004 -82.0613
4.054423 84.058 -82.6038
4.083804 84.112 -83.1440
4.113396 84.166 -83.6821
4.143204 84.219 -84.2185
4.173227 84.271 -84.7531
4.203468 84.323 -85.2859
4.233928 84.375 -85.8167
4.264609 84.426 -86.3455
4.295512 84.476 -86.8720
4.326639 84.527 -87.3961
4.357992 84.577 -87.9178
4.389572 84.626 -88.4370
4.421380 84.676 -88.9541
4.453419 84.725 -89.4690
4.485691 84.773 -89.9820
4.518196 84.821 -90.4932
4.550936 84.869 -91.0028
4.583914 84.917 -91.5106
4.617131 84.964 -92.0167
4.650589 85.011 -92.5211
4.684289 85.057 -93.0237
4.718233 85.103 -93.5246
4.752424 85.149 -94.0238
4.786862 85.195 -94.5214
4.821549 85.240 -95.0175
4.856488 85.285 -95.5122
4.891680 85.330 -96.0056
4.927127 85.375 -96.4978
4.962831 85.419 -96.9888
4.998794 85.463 -97.4785
5.035017 85.506 -97.9671
5.071503 85.549 -98.4545
5.108253 85.592 -98.9409
5.145270 85.635 -99.4263
5.182555 85.677 -99.9108
5.220110 85.719 -100.3944
5.257937 85.761 -100.8773
5.296038 85.802 -101.3594
5.334415 85.843 -101.8406
5.373071 85.883 -102.3209
5.412006 85.923 -102.8003
5.451224 85.963 -103.2788
5.490725 86.003 -103.7564
5.530514 86.042 -104.2332
5.570590 86.080 -104.7093
5.610957 86.118 -105.1847
5.651616 86.156 -105.6593
5.692570 86.194 -106.1331
5.733821 86.230 -106.6060
5.775370 86.267 -107.0778
5.817221 86.303 -107.5484
5.859375 86.339 -108.0179
5.901834 86.374 -108.4863
5.944602 86.409 -108.9536
5.987679 86.443 -109.4200
6.031068 86.477 -109.8852
6.074771 86.511 -110.3492
6.118792 86.544 -110.8118
6.163131 86.576 -111.2730
6.207792 86.608 -111.7326
6.252776 86.640 -112.1907
6.298086 86.671 -112.6473
6.343725 86.702 -113.1024
6.389694 86.732 -113.5560
6.435996 86.762 -114.0080
6.482634 86.792 -114.4582
6.529610 86.821 -114.9067
6.576926 86.850 -115.3533
6.624585 86.878 -115.7980
6.672590 86.906 -116.2409
6.720942 86.934 -116.6819
6.769645 86.961 -117.1210
6.818700 86.988 -117.5583
6.868111 87.015 -117.9936
6.917881 87.041 -118.4269
6.968010 87.067 -118.8582
7.018504 87.092 -119.2875
7.069362 87.117 -119.7148
7.120590 87.142 -120.1401
7.172189 87.167 -120.5635
7.224161 87.191 -120.9849
7.276511 87.215 -121.4043
7.329239 87.239 -121.8218
7.382350 87.262 -122.2373
7.435845 87.286 -122.6509
7.489729 87.309 -123.0626
7.544002 87.331 -123.4725
7.598669 87.354 -123.8806
7.653732 87.376 -124.2870
7.709194 87.398 -124.6917
7.765058 87.420 -125.0947
7.821327 87.442 -125.4961
7.878004 87.464 -125.8961
7.935091 87.485 -126.2946
7.992592 87.506 -126.6918
8.050510 87.527 -127.0877
8.108847 87.548 -127.4825
8.167607 87.569 -127.8761
8.226793 87.589 -128.2688
8.286408 87.610 -128.6605
8.346454 87.630 -129.0514
8.406936 87.650 -129.4416
8.467856 87.670 -129.8311
8.529218 87.689 -130.2199
8.591024 87.708 -130.6082
8.653278 87.727 -130.9959
8.715983 87.746 -131.3830
8.779143 87.764 -131.7695
8.842760 87.782 -132.1555
8.906839 87.800 -132.5409
8.971381 87.818 -132.9255
9.036392 87.834 -133.3093
9.101873 87.851 -133.6920
9.167829 87.867 -134.0736
9.234263 87.883 -134.4539
9.301178 87.898 -134.8327
9.368578 87.913 -135.2097
9.436467 87.927 -135.5848
9.504847 87.941 -135.9576
9.573723 87.955 -136.3279
9.643099 87.968 -136.6956
9.712976 87.981 -137.0603
9.783361 87.993 -137.4220
9.854255 88.005 -137.7803
9.925663 88.017 -138.1352
9.997588 88.029 -138.4865
10.070035 88.040 -138.8342
10.143007 88.051 -139.1784
10.216507 88.063 -139.5190
10.290540 88.074 -139.8563
10.365109 88.086 -140.1903
10.440219 88.097 -140.5213
10.515873 88.109 -140.8497
10.592076 88.121 -141.1758
10.668830 88.133 -141.4998
10.746141 88.146 -141.8224
10.824012 88.158 -142.1437
10.902447 88.171 -142.4643
10.981451 88.184 -142.7846
11.061027 88.198 -143.1049
11.141180 88.211 -143.4256
11.221913 88.225 -143.7468
11.303232 88.238 -144.0689
11.385140 88.251 -144.3919
11.467641 88.265 -144.7158
11.550741 88.278 -145.0407
11.634442 88.291 -145.3662
11.718750 88.303 -145.6923
11.803669 88.315 -146.0185
11.889203 88.327 -146.3447
11.975357 88.338 -146.6703
12.062136 88.349 -146.9949
12.149543 88.359 -147.3181
12.237583 88.369 -147.6395
12.326262 88.379 -147.9588
12.415583 88.388 -148.2757
12.505552 88.397 -148.5898
12.596172 88.405 -148.9012
12.687449 88.414 -149.2097
12.779387 88.422 -149.5155
12.871992 88.430 -149.8187
12.965268 88.439 -150.1195
13.059220 88.447 -150.4182
13.153852 88.456 -150.7151
13.249170 88.464 -151.0107
13.345179 88.473 -151.3053
13.441884 88.481 -151.5993
13.539289 88.490 -151.8928
13.637401 88.498 -152.1862
13.736223 88.507 -152.4796
13.835761 88.515 -152.7729
13.936021 88.523 -153.0660
14.037007 88.531 -153.3590
14.138725 88.538 -153.6514
14.241180 88.545 -153.9432
14.344377 88.552 -154.2339
14.448323 88.558 -154.5234
14.553021 88.564 -154.8114
14.658478 88.570 -155.0979
14.764700 88.576 -155.3828
14.871691 88.581 -155.6662
14.979457 88.587 -155.9483
15.088005 88.592 -156.2294
15.197339 88.597 -156.5098
15.307465 88.602 -156.7900
15.418389 88.607 -157.0703
15.530117 88.612 -157.3510
15.642655 88.616 -157.6324
15.756008 88.621 -157.9146
15.870182 88.624 -158.1973
15.985184 88.627 -158.4802
16.101019 88.630 -158.7628
16.217694 88.631 -159.0444
16.335214 88.632 -159.3242
16.453586 88.633 -159.6012
16.572815 88.632 -159.8745
16.692909 88.631 -160.1432
16.813872 88.630 -160.4069
16.935713 88.628 -160.6650
17.058436 88.626 -160.9175
17.182048 88.625 -161.1648
17.306556 88.624 -161.4073
17.431967 88.623 -161.6462
17.558286 88.623 -161.8824
17.685521 88.624 -162.1174
17.813677 88.625 -162.3524
17.942762 88.627 -162.5887
18.072783 88.629 -162.8273
18.203746 88.632 -163.0689
18.335658 88.634 -163.3137
18.468526 88.637 -163.5618
18.602356 88.639 -163.8127
18.737156 88.641 -164.0659
18.872934 88.643 -164.3204
19.009695 88.644 -164.5754
19.147447 88.644 -164.8302
19.286197 88.645 -165.0841
19.425953 88.645 -165.3370
19.566721 88.645 -165.5887
19.708510 88.644 -165.8395
19.851326 88.644 -166.0898
19.995177 88.644 -166.3399
20.140070 88.643 -166.5901
20.286013 88.642 -166.8404
20.433014 88.641 -167.0905
20.581080 88.639 -167.3393
20.730219 88.637 -167.5859
20.880439 88.634 -167.8288
21.031747 88.631 -168.0666
21.184152 88.627 -168.2982
21.337661 88.624 -168.5229
21.492282 88.621 -168.7410
21.648024 88.618 -168.9535
21.804895 88.617 -169.1624
21.962902 88.617 -169.3705
22.122054 88.618 -169.5811
22.282360 88.621 -169.7974
22.443827 88.624 -170.0224
22.606464 88.627 -170.2578
22.770280 88.630 -170.5044
22.935283 88.631 -170.7612
23.101481 88.631 -171.0260
23.268884 88.628 -171.2952
23.437500 88.623 -171.5645
23.607338 88.615 -171.8295
23.778406 88.605 -172.0864
23.950714 88.594 -172.3324
24.124271 88.581 -172.5660
24.299086 88.568 -172.7875
24.475167 88.556 -172.9986
24.652524 88.544 -173.2019
24.831166 88.532 -173.4006
25.011103 88.522 -173.5974
25.192344 88.511 -173.7945
25.374898 88.501 -173.9930
25.558775 88.490 -174.1928
25.743984 88.479 -174.3930
25.930536 88.467 -174.5924
26.118439 88.455 -174.7902
26.307704 88.444 -174.9859
26.498341 88.432 -175.1805
26.690359 88.421 -175.3754
26.883768 88.411 -175.5729
27.078579 88.402 -175.7753
27.274801 88.393 -175.9841
27.472446 88.384 -176.2002
27.671522 88.375 -176.4233
27.872042 88.365 -176.6521
28.074014 88.355 -176.8853
28.277450 88.345 -177.1219
28.482360 88.334 -177.3617
28.688755 88.324 -177.6057
28.896645 88.314 -177.8552
29.106042 88.304 -178.1118
29.316957 88.293 -178.3758
29.529400 88.280 -178.6454
29.743382 88.266 -178.9168
29.958915 88.250 -179.1839
30.176009 88.232 -179.4398
30.394677 88.212 -179.6785
30.614929 88.193 -179.8959
30.836778 88.174 179.9084
31.060234 88.158 179.7311
31.285309 88.144 179.5660
31.512015 88.134 179.4061
31.740364 88.127 179.2450
31.970368 88.121 179.0790
32.202039 88.116 178.9077
32.435388 88.112 178.7328
32.670428 88.107 178.5569
32.907171 88.103 178.3817
33.145630 88.099 178.2060
33.385817 88.096 178.0264
33.627745 88.093 177.8383
33.871425 88.090 177.6384
34.116871 88.084 177.4272
34.364096 88.075 177.2098
34.613113 88.062 176.9955
34.863934 88.044 176.7949
35.116572 88.023 176.6164
35.371041 88.001 176.4637
35.627354 87.980 176.3340
35.885525 87.960 176.2198
36.145566 87.942 176.1120
36.407492 87.925 176.0037
36.671316 87.908 175.8929
36.937051 87.891 175.7817
37.204712 87.873 175.6741
37.474313 87.856 175.5714
37.745867 87.841 175.4695
38.019389 87.829 175.3588
38.294893 87.819 175.2284
38.572394 87.808 175.0712
38.851905 87.796 174.8894
39.133442 87.779 174.6947
39.417019 87.757 174.5048
39.702651 87.733 174.3356
39.990353 87.709 174.1935
40.280140 87.688 174.0711
40.572026 87.671 173.9504
40.866028 87.658 173.8106
41.162160 87.647 173.6392
41.460438 87.632 173.4393
41.760877 87.612 173.2291
42.063494 87.585 173.0354
42.368303 87.555 172.8809
42.675322 87.525 172.7737
42.984565 87.501 172.7030
43.296048 87.485 172.6431
43.609789 87.476 172.5639
43.925804 87.471 172.4434
44.244108 87.466 172.2752
44.564719 87.456 172.0691
44.887654 87.441 171.8445
45.212928 87.420 171.6222
45.540560 87.395 171.4169
45.870565 87.367 171.2349
46.202962 87.339 171.0749
46.537768 87.312 170.9319
46.875000 87.286 170.8009
47.214676 87.261 170.6793
47.556813 87.236 170.5664
47.901429 87.212 170.4628
48.248542 87.189 170.3685
48.598171 87.166 170.2826
48.950334 87.145 170.2035
49.305048 87.125 170.1292
49.662333 87.105 170.0587
50.022206 87.085 169.9915
50.384688 87.066 169.9274
50.749796 87.046 169.8660
51.117550 87.025 169.8059
51.487969 87.004 169.7456
51.861072 86.982 169.6840
52.236879 86.959 169.6210
52.615409 86.935 169.5568
52.996681 86.910 169.4909
53.380717 86.885 169.4214
53.767536 86.859 169.3454
54.157158 86.834 169.2609
54.549603 86.808 169.1690
54.944892 86.781 169.0731
55.343045 86.756 168.9769
55.744084 86.732 168.8816
56.148028 86.710 168.7849
56.554900 86.692 168.6825
56.964720 86.675 168.5714
57.377510 86.660 168.4512
57.793291 86.645 168.3247
58.212085 86.630 168.1975
58.633914 86.613 168.0774
59.058799 86.594 167.9741
59.486764 86.572 167.8971
59.917829 86.550 167.8523
60.352019 86.527 167.8384
60.789354 86.506 167.8474
61.229859 86.485 167.8678
61.673556 86.464 167.8897
62.120468 86.443 167.9075
62.570618 86.421 167.9192
63.024031 86.399 167.9235
63.480729 86.378 167.9168
63.940736 86.358 167.8918
64.404077 86.342 167.8382
64.870776 86.328 167.7468
65.340856 86.317 167.6126
65.814343 86.307 167.4334
66.291261 86.300 167.2054
66.771635 86.291 166.9250
67.255489 86.276 166.6011
67.742850 86.250 166.2703
68.233743 86.211 165.9964
68.728193 86.163 165.8435
69.226226 86.118 165.8376
69.727867 86.085 165.9475
70.233144 86.067 166.1051
70.742083 86.060 166.2478
71.254709 86.058 166.3475
71.771050 86.054 166.4083
72.291132 86.045 166.4460
72.814984 86.032 166.4728
73.342631 86.014 166.4934
73.874102 85.994 166.5071
74.409424 85.971 166.5090
74.948626 85.949 166.4934
75.491734 85.925 166.4568
76.038779 85.902 166.4006
76.589787 85.879 166.3290
77.144788 85.857 166.2467
77.703811 85.835 166.1580
78.266885 85.815 166.0671
78.834039 85.795 165.9788
79.405303 85.775 165.8975
79.980706 85.756 165.8260
80.560280 85.737 165.7643
81.144053 85.717 165.7104
81.732056 85.697 165.6613
82.324320 85.676 165.6140
82.920876 85.654 165.5658
83.521755 85.631 165.5145
84.126988 85.608 165.4589
84.736607 85.583 165.3999
85.350643 85.559 165.3386
85.969129 85.535 165.2755
86.592097 85.512 165.2101
87.219579 85.489 165.1424
87.851608 85.467 165.0729
88.488217 85.444 165.0040
89.129439 85.420 164.9395
89.775308 85.395 164.8849
90.425856 85.368 164.8445
91.081119 85.342 164.8170
91.741131 85.316 164.7945
92.405925 85.291 164.7656
93.075536 85.266 164.7227
93.750000 85.240 164.6653
94.429351 85.213 164.5985
95.113625 85.185 164.5292
95.802858 85.157 164.4640
96.497085 85.128 164.4072
97.196342 85.101 164.3597
97.900667 85.075 164.3198
98.610096 85.049 164.2848
99.324665 85.023 164.2545
100.044413 84.996 164.2312
100.769376 84.967 164.2172
101.499592 84.937 164.2115
102.235100 84.905 164.2101
102.975938 84.873 164.2081
103.722144 84.840 164.1997
104.473757 84.808 164.1802
105.230817 84.777 164.1481
105.993363 84.746 164.1066
106.761435 84.717 164.0621
107.535072 84.689 164.0219
108.314315 84.662 163.9918
109.099206 84.636 163.9758
109.889783 84.611 163.9750
110.686090 84.584 163.9871
111.488167 84.556 164.0055
112.296056 84.527 164.0192
113.109800 84.495 164.0131
113.929440 84.462 163.9700
114.755020 84.427 163.8774
115.586582 84.392 163.7318
116.424170 84.356 163.5404
117.267827 84.321 163.3220
118.117598 84.285 163.1108
118.973527 84.249 162.9591
119.835658 84.215 162.9206
120.704037 84.188 163.0130
121.578708 84.170 163.2047
122.459718 84.157 163.4442
123.347111 84.143 163.6906
124.240935 84.122 163.9180
125.141236 84.092 164.1088
126.048061 84.054 164.2448
126.961458 84.013 164.3088
127.881473 83.970 164.2956
128.808154 83.930 164.2216
129.741551 83.896 164.1254
130.681712 83.870 164.0539
131.628686 83.855 164.0439
132.582521 83.850 164.1119
133.543269 83.854 164.2472
134.510979 83.861 164.4077
135.485701 83.866 164.5305
136.467486 83.861 164.5598
137.456386 83.839 164.4814
138.452451 83.799 164.3281
139.455735 83.747 164.1437
140.466288 83.689 163.9640
141.484165 83.629 163.8331
142.509418 83.571 163.8074
143.542100 83.520 163.9174
144.582265 83.479 164.1332
145.629968 83.446 164.3934
146.685262 83.414 164.6469
147.748204 83.382 164.8609
148.818849 83.346 165.0199
149.897251 83.307 165.1245
150.983469 83.268 165.1866
152.077557 83.229 165.2243
153.179574 83.192 165.2537
154.289576 83.157 165.2830
155.407622 83.123 165.3116
156.533770 83.090 165.3348
157.668078 83.056 165.3529
158.810606 83.020 165.3824
159.961413 82.982 165.4542
161.120559 82.944 165.5908
162.288105 82.904 165.7857
163.464112 82.862 166.0087
164.648640 82.811 166.2279
165.841752 82.747 166.4265
167.043510 82.672 166.6054
168.253976 82.589 166.7725
169.473213 82.504 166.9408
170.701286 82.419 167.1387
171.938258 82.337 167.4100
173.184194 82.256 167.7988
174.439158 82.175 168.3315
175.703216 82.094 169.0112
176.976434 82.018 169.8260
178.258878 81.954 170.7581
179.550615 81.913 171.7856
180.851713 81.906 172.8798
182.162239 81.939 173.9925
183.482262 82.014 175.0493
184.811850 82.120 175.9630
186.151073 82.246 176.6551
187.500000 82.379 177.0685
188.858702 82.510 177.1851
190.227250 82.633 177.0387
191.605715 82.747 176.6964
192.994169 82.853 176.2177
194.392685 82.944 175.6255
195.801334 83.009 174.9427
197.220191 83.034 174.2636
198.649330 83.020 173.7307
200.088825 82.982 173.4275
201.538751 82.940 173.3397
202.999184 82.903 173.3971
204.470200 82.873 173.5208
205.951875 82.846 173.6482
207.444287 82.816 173.7408
208.947514 82.784 173.7801
210.461634 82.752 173.7621
211.986726 82.721 173.6945
213.522869 82.693 173.5970
215.070144 82.668 173.4999
216.628631 82.642 173.4303
218.198411 82.613 173.4008
219.779567 82.582 173.4078
221.372180 82.548 173.4429
222.976334 82.512 173.5002
224.592112 82.478 173.5757
226.219600 82.445 173.6672
227.858880 82.414 173.7753
229.510039 82.384 173.9021
231.173164 82.354 174.0478
232.848340 82.324 174.2071
234.535655 82.294 174.3727
236.235197 82.264 174.5388
237.947054 82.235 174.7007
239.671317 82.209 174.8557
241.408074 82.185 175.0048
243.157416 82.163 175.1517
244.919435 82.143 175.3022
246.694223 82.124 175.4609
248.481871 82.103 175.6298
250.282473 82.083 175.8080
252.096123 82.062 175.9933
253.922915 82.041 176.1828
255.762945 82.022 176.3749
257.616309 82.002 176.5705
259.483103 81.982 176.7702
261.363424 81.963 176.9734
263.257372 81.945 177.1772
265.165043 81.928 177.3766
267.086538 81.912 177.5674
269.021957 81.897 177.7486
270.971401 81.884 177.9242
272.934972 81.871 178.1019
274.912771 81.859 178.2892
276.904902 81.846 178.4893
278.911469 81.833 178.7000
280.932577 81.819 178.9167
282.968330 81.806 179.1346
285.018835 81.794 179.3510
287.084199 81.782 179.5639
289.164530 81.770 179.7721
291.259935 81.759 179.9763
293.370525 81.748 -179.8219
295.496408 81.737 -179.6212
297.637697 81.728 -179.4196
299.794503 81.719 -179.2158
301.966937 81.712 -179.0102
304.155114 81.704 -178.8038
306.359147 81.697 -178.5967
308.579152 81.689 -178.3888
310.815244 81.680 -178.1808
313.067539 81.672 -177.9741
315.336156 81.665 -177.7701
317.621211 81.657 -177.5692
319.922826 81.650 -177.3698
322.241118 81.644 -177.1683
324.576210 81.637 -176.9618
326.928223 81.631 -176.7517
329.297280 81.626 -176.5419
331.683504 81.622 -176.3354
334.087019 81.617 -176.1325
336.507952 81.612 -175.9330
338.946427 81.607 -175.7391
341.402572 81.602 -175.5544
343.876516 81.598 -175.3805
346.368387 81.595 -175.2139
348.878315 81.592 -175.0474
351.406431 81.590 -174.8743
353.952867 81.588 -174.6929
356.517756 81.586 -174.5063
359.101230 81.585 -174.3186
361.703426 81.583 -174.1323
364.324478 81.581 -173.9477
366.964523 81.577 -173.7654
369.623699 81.574 -173.5854
372.302145 81.570 -173.4070
375.000000 81.567 -173.2284
377.717405 81.564 -173.0479
380.454501 81.561 -172.8651
383.211431 81.559 -172.6796
385.988339 81.557 -172.4901
388.785369 81.556 -172.2942
391.602668 81.555 -172.0888
394.440383 81.554 -171.8722
397.298660 81.553 -171.6461
400.177650 81.551 -171.4160
403.077502 81.549 -171.1876
405.998368 81.547 -170.9646
408.940400 81.545 -170.7490
411.903750 81.544 -170.5411
414.888575 81.544 -170.3403
417.895028 81.544 -170.1472
420.923268 81.545 -169.9638
423.973452 81.545 -169.7898
427.045738 81.543 -169.6214
430.140287 81.541 -169.4524
433.257261 81.538 -169.2782
436.396822 81.536 -169.0964
439.559133 81.536 -168.9059
442.744360 81.536 -168.7056
445.952668 81.537 -168.4957
449.184225 81.538 -168.2790
452.439199 81.539 -168.0601
455.717760 81.540 -167.8438
459.020079 81.540 -167.6322
462.346327 81.539 -167.4244
465.696680 81.537 -167.2172
469.071310 81.535 -167.0079
472.470394 81.533 -166.7966
475.894109 81.531 -166.5860
479.342634 81.531 -166.3801
482.816148 81.532 -166.1805
486.314833 81.534 -165.9857
489.838871 81.539 -165.7918
493.388445 81.544 -165.5943
496.963741 81.551 -165.3900
500.564945 81.556 -165.1796
504.192245 81.560 -164.9682
507.845830 81.563 -164.7624
511.525890 81.564 -164.5668
515.232618 81.565 -164.3810
518.966206 81.566 -164.1998
522.726849 81.568 -164.0164
526.514743 81.572 -163.8261
530.330086 81.576 -163.6277
534.173076 81.582 -163.4220
538.043915 81.588 -163.2104
541.942803 81.595 -162.9945
545.869944 81.601 -162.7758
549.825542 81.607 -162.5557
553.809805 81.613 -162.3349
557.822939 81.616 -162.1139
561.865154 81.619 -161.8931
565.936660 81.620 -161.6725
570.037671 81.621 -161.4522
574.168399 81.622 -161.2328
578.329060 81.623 -161.0140
582.519870 81.625 -160.7937
586.741049 81.627 -160.5703
590.992817 81.630 -160.3429
595.275394 81.634 -160.1124
599.589005 81.640 -159.8810
603.933874 81.648 -159.6511
608.310228 81.658 -159.4248
612.718295 81.668 -159.2024
617.158304 81.679 -158.9824
621.630488 81.690 -158.7619
626.135079 81.700 -158.5363
630.672311 81.709 -158.3014
635.242423 81.718 -158.0572
639.845651 81.726 -157.8085
644.482237 81.733 -157.5619
649.152421 81.740 -157.3201
653.856447 81.747 -157.0809
658.594560 81.754 -156.8399
663.367008 81.761 -156.5960
668.174039 81.771 -156.3516
673.015903 81.783 -156.1076
677.892854 81.797 -155.8612
682.805145 81.813 -155.6079
687.753032 81.829 -155.3445
692.736774 81.844 -155.0713
697.756631 81.858 -154.7934
702.812863 81.870 -154.5187
707.905735 81.882 -154.2535
713.035511 81.894 -153.9980
718.202461 81.907 -153.7476
723.406852 81.921 -153.4967
728.648956 81.937 -153.2416
733.929047 81.953 -152.9820
739.247399 81.971 -152.7210
744.604290 81.990 -152.4621
750.000000 82.009 -152.2048
755.434809 82.029 -151.9456
760.909001 82.049 -151.6826
766.422861 82.069 -151.4181
771.976677 82.090 -151.1557
777.570739 82.110 -150.8971
783.205337 82.131 -150.6420
788.880766 82.152 -150.3896
794.597321 82.173 -150.1380
800.355301 82.195 -149.8855
806.155005 82.219 -149.6309
811.996736 82.244 -149.3743
817.880799 82.271 -149.1154
823.807501 82.297 -148.8531
829.777150 82.324 -148.5879
835.790057 82.350 -148.3219
841.846536 82.375 -148.0572
847.946903 82.401 -147.7932
854.091476 82.428 -147.5289
860.280575 82.457 -147.2652
866.514523 82.487 -147.0051
872.793644 82.519 -146.7517
879.118267 82.553 -146.5064
885.488720 82.588 -146.2684
891.905336 82.624 -146.0349
898.368450 82.660 -145.8020
904.878398 82.697 -145.5669
911.435520 82.735 -145.3287
918.040157 82.774 -145.0881
924.692655 82.813 -144.8459
931.393359 82.852 -144.6034
938.142619 82.892 -144.3626
944.940787 82.934 -144.1273
951.788218 82.977 -143.9018
958.685268 83.022 -143.6887
965.632296 83.069 -143.4869
972.629666 83.117 -143.2926
979.677741 83.166 -143.1026
986.776890 83.216 -142.9167
993.927482 83.266 -142.7365
1001.129891 83.316 -142.5631
1008.384491 83.365 -142.3975
1015.691660 83.414 -142.2408
1023.051781 83.462 -142.0942
1030.465236 83.510 -141.9577
1037.932411 83.556 -141.8289
1045.453698 83.601 -141.7048
1053.029486 83.647 -141.5830
1060.660172 83.693 -141.4622
1068.346153 83.740 -141.3428
1076.087829 83.789 -141.2269
1083.885605 83.840 -141.1167
1091.739887 83.891 -141.0144
1099.651084 83.941 -140.9212
1107.619609 83.992 -140.8372
1115.645878 84.041 -140.7626
1123.730308 84.091 -140.6989
1131.873321 84.142 -140.6488
1140.075341 84.192 -140.6141
1148.336797 84.242 -140.5936
1156.658119 84.292 -140.5829
1165.039741 84.342 -140.5777
1173.482099 84.391 -140.5757
1181.985634 84.440 -140.5763
1190.550789 84.488 -140.5793
1199.178011 84.536 -140.5828
1207.867749 84.582 -140.5842
1216.620457 84.628 -140.5831
1225.436590 84.674 -140.5821
1234.316609 84.719 -140.5853
1243.260976 84.764 -140.5955
1252.270157 84.809 -140.6131
1261.344623 84.853 -140.6368
1270.484846 84.896 -140.6640
1279.691303 84.938 -140.6919
1288.964474 84.980 -140.7197
1298.304842 85.021 -140.7493
1307.712894 85.063 -140.7837
1317.189120 85.104 -140.8242
1326.734016 85.144 -140.8705
1336.348077 85.185 -140.9211
1346.031806 85.225 -140.9738
1355.785708 85.264 -141.0269
1365.610290 85.303 -141.0805
1375.506065 85.341 -141.1371
1385.473549 85.381 -141.1987
1395.513261 85.420 -141.2644
1405.625726 85.460 -141.3328
1415.811469 85.500 -141.4031
1426.071023 85.541 -141.4754
1436.404921 85.582 -141.5494
1446.813703 85.623 -141.6258
1457.297912 85.665 -141.7058
1467.858093 85.706 -141.7911
1478.494798 85.748 -141.8834
1489.208581 85.788 -141.9836
1500.000000 85.828 -142.0909
1510.869618 85.865 -142.2025
1521.818002 85.900 -142.3150
1532.845723 85.935 -142.4264
1543.953355 85.969 -142.5379
1555.141477 86.004 -142.6524
1566.410674 86.040 -142.7708
1577.761531 86.077 -142.8926
1589.194642 86.115 -143.0182
1600.710601 86.153 -143.1493
1612.310010 86.191 -143.2878
1623.993473 86.229 -143.4337
1635.761599 86.265 -143.5855
1647.615002 86.299 -143.7418
1659.554299 86.332 -143.9017
1671.580114 86.363 -144.0654
1683.693072 86.393 -144.2333
1695.893807 86.423 -144.4056
1708.182952 86.452 -144.5811
1720.561150 86.481 -144.7576
1733.029045 86.509 -144.9338
1745.587288 86.537 -145.1100
1758.236533 86.564 -145.2881
1770.977440 86.590 -145.4715
1783.810673 86.614 -145.6644
1796.736900 86.637 -145.8695
1809.756796 86.660 -146.0862
1822.871040 86.681 -146.3106
1836.080315 86.703 -146.5380
1849.385310 86.725 -146.7656
1862.786718 86.746 -146.9920
1876.285239 86.767 -147.2160
1889.881575 86.787 -147.4361
1903.576436 86.806 -147.6512
1917.370535 86.823 -147.8615
1931.264593 86.838 -148.0679
1945.259332 86.852 -148.2704
1959.355483 86.864 -148.4674
1973.553781 86.875 -148.6579
1987.854965 86.884 -148.8428
2002.259781 86.892 -149.0246
2016.768981 86.900 -149.2056
2031.383320 86.908 -149.3876
2046.103561 86.916 -149.5728
2060.930471 86.926 -149.7628
2075.864823 86.938 -149.9614
2090.907395 86.951 -150.1728
2106.058972 86.962 -150.3979
2121.320344 86.972 -150.6317
2136.692305 86.981 -150.8652
2152.175658 86.989 -151.0891
2167.771210 86.996 -151.2992
2183.479774 87.004 -151.4990
2199.302169 87.011 -151.6970
2215.239219 87.019 -151.8999
2231.291755 87.027 -152.1087
2247.460615 87.034 -152.3218
2263.746641 87.042 -152.5381
2280.150683 87.048 -152.7571
2296.673595 87.053 -152.9770
2313.316238 87.057 -153.1933
2330.079481 87.060 -153.4013
2346.964198 87.061 -153.5991
2363.971268 87.063 -153.7876
2381.101578 87.063 -153.9702
2398.356022 87.064 -154.1513
2415.735498 87.064 -154.3331
2433.240913 87.064 -154.5150
2450.873180 87.063 -154.6961
2468.633217 87.063 -154.8764
2486.521951 87.061 -155.0572
2504.540314 87.060 -155.2396
2522.689246 87.058 -155.4239
2540.969692 87.056 -155.6090
2559.382606 87.054 -155.7934
2577.928947 87.053 -155.9759
2596.609683 87.051 -156.1569
2615.425787 87.048 -156.3382
2634.378241 87.046 -156.5209
2653.468031 87.044 -156.7055
2672.696154 87.042 -156.8927
2692.063613 87.041 -157.0830
2711.571415 87.040 -157.2758
2731.220579 87.039 -157.4693
2751.012130 87.038 -157.6628
2770.947098 87.037 -157.8579
2791.026522 87.036 -158.0579
2811.251451 87.033 -158.2660
2831.622938 87.030 -158.4848
2852.142045 87.027 -158.7144
2872.809842 87.022 -158.9534
2893.627406 87.016 -159.1993
2914.595823 87.009 -159.4494
2935.716186 87.000 -159.7012
2956.989596 86.990 -159.9530
2978.417161 86.979 -160.2045
3000.000000 86.965 -160.4544
3021.739237 86.950 -160.6990
3043.636005 86.933 -160.9351
3065.691446 86.915 -161.1624
3087.906710 86.898 -161.3832
3110.282955 86.880 -161.5998
3132.821347 86.863 -161.8128
3155.523062 86.845 -162.0206
3178.389283 86.825 -162.2221
3201.421202 86.805 -162.4161
3224.620020 86.784 -162.6018
3247.986946 86.762 -162.7798
3271.523198 86.739 -162.9523
3295.230004 86.716 -163.1214
3319.108599 86.691 -163.2855
3343.160228 86.667 -163.4417
3367.386145 86.641 -163.5881
3391.787613 86.615 -163.7253
3416.365904 86.589 -163.8538
3441.122300 86.562 -163.9735
3466.058091 86.535 -164.0829
3491.174576 86.508 -164.1805
3516.473066 86.481 -164.2655
3541.954880 86.453 -164.3372
3567.621345 86.426 -164.3941
3593.473800 86.401 -164.4353
3619.513592 86.377 -164.4615
3645.742080 86.355 -164.4756
3672.160630 86.336 -164.4805
3698.770620 86.320 -164.4786
3725.573436 86.306 -164.4714
3752.570477 86.294 -164.4604
3779.763150 86.285 -164.4483
3807.152872 86.278 -164.4394
3834.741071 86.274 -164.4362
3862.529185 86.273 -164.4371
3890.518664 86.275 -164.4382
3918.710966 86.280 -164.4366
3947.107561 86.287 -164.4330
3975.709929 86.295 -164.4313
4004.519563 86.306 -164.4349
4033.537962 86.318 -164.4459
4062.766641 86.332 -164.4644
4092.207123 86.349 -164.4899
4121.860942 86.369 -164.5219
4151.729646 86.393 -164.5607
4181.814790 86.419 -164.6076
4212.117944 86.450 -164.6652
4242.640687 86.483 -164.7385
4273.384610 86.521 -164.8331
4304.351317 86.561 -164.9526
4335.542421 86.604 -165.0984
4366.959549 86.649 -165.2706
4398.604338 86.695 -165.4688
4430.478438 86.743 -165.6927
4462.583511 86.792 -165.9411
4494.921231 86.842 -166.2130
4527.493283 86.892 -166.5075
4560.301365 86.943 -166.8244
4593.347189 86.996 -167.1646
4626.632476 87.051 -167.5305
4660.158962 87.109 -167.9269
4693.928395 87.170 -168.3586
4727.942535 87.234 -168.8307
4762.203156 87.301 -169.3482
4796.712043 87.370 -169.9162
4831.470996 87.441 -170.5392
4866.481826 87.513 -171.2209
4901.746360 87.585 -171.9647
4937.266434 87.657 -172.7737
4973.043902 87.727 -173.6513
5009.080628 87.795 -174.6020
5045.378492 87.859 -175.6315
5081.939384 87.918 -176.7455
5118.765212 87.971 -177.9480
5155.857894 88.015 -179.2395
5193.219366 88.049 179.3824
5230.851574 88.071 177.9229
5268.756481 88.079 176.3899
5306.936062 88.070 174.7939
5345.392309 88.043 173.1476
5384.127225 87.996 171.4648
5423.142830 87.930 169.7612
5462.441159 87.844 168.0528
5502.024259 87.735 166.3564
5541.894195 87.605 164.6893
5582.053045 87.454 163.0694
5622.502902 87.282 161.5143
5663.245876 87.090 160.0403
5704.284090 86.881 158.6619
5745.619684 86.656 157.3908
5787.254813 86.419 156.2365
5829.191647 86.171 155.2051
5871.432373 85.914 154.3002
5913.979192 85.649 153.5236
5956.834323 85.381 152.8767
6000.000000 85.109 152.3600
6043.478473 84.838 151.9722
6087.272010 84.567 151.7100
6131.382892 84.301 151.5687
6175.813420 84.039 151.5430
6220.565910 83.785 151.6273
6265.642695 83.539 151.8161
6311.046124 83.304 152.1030
6356.778566 83.080 152.4808
6402.842404 82.868 152.9417
6449.240040 82.671 153.4778
6495.973891 82.488 154.0823
6543.046396 82.320 154.7486
6590.460007 82.168 155.4700
6638.217197 82.033 156.2393
6686.320456 81.916 157.0483
6734.772290 81.819 157.8879
6783.575226 81.744 158.7469
6832.731809 81.692 159.6126
6882.244600 81.663 160.4698
6932.116181 81.659 161.3015
6982.349153 81.682 162.0887
7032.946133 81.730 162.8110
7083.909760 81.807 163.4452
7135.242690 81.914 163.9664
7186.947600 82.052 164.3455
7239.027185 82.223 164.5462
7291.484160 82.426 164.5247
7344.321260 82.661 164.2297
7397.541239 82.923 163.6040
7451.146872 83.207 162.5882
7505.140954 83.502 161.1247
7559.526299 83.796 159.1633
7614.305743 84.074 156.6696
7669.482141 84.318 153.6328
7725.058371 84.509 150.0740
7781.037328 84.628 146.0490
7837.421932 84.657 141.6474
7894.215122 84.582 136.9878
7951.419859 84.394 132.2113
8009.039125 84.088 127.4702
8067.075924 83.667 122.9143
8125.533282 83.139 118.6790
8184.414245 82.517 114.8753
8243.721885 81.817 111.5847
8303.459292 81.055 108.8588
8363.629581 80.249 106.7198
8424.235888 79.416 105.1635
8485.281374 78.571 104.1649
8546.769221 77.728 103.6855
8608.702634 76.898 103.6789
8671.084842 76.088 104.0928
8733.919097 75.307 104.8702
8797.208675 74.559 105.9529
8860.956876 73.844 107.2857
8925.167022 73.165 108.8209
8989.842461 72.519 110.5188
9054.986566 71.905 112.3492
9120.602731 71.320 114.2904
9186.694378 70.760 116.3266
9253.264952 70.224 118.4467
9320.317925 69.711 120.6435
9387.856790 69.219 122.9113
9455.885071 68.748 125.2452
9524.406312 68.296 127.6409
9593.424086 67.862 130.0940
9662.941992 67.445 132.6002
9732.963653 67.044 135.1541
9803.492719 66.659 137.7501
9874.532869 66.290 140.3820
9946.087805 65.936 143.0443
10018.161257 65.597 145.7337
10090.756983 65.272 148.4480
10163.878768 64.961 151.1848
10237.530423 64.662 153.9419
10311.715789 64.373 156.7194
10386.438732 64.094 159.5217
10461.703149 63.823 162.3593
10537.512962 63.561 165.2466
10613.872125 63.308 168.1970
10690.784618 63.066 171.2184
10768.254450 62.836 174.3124
10846.285661 62.621 177.4761
10924.882318 62.421 -179.2966
11004.048518 62.239 -176.0151
11083.788390 62.076 -172.6913
11164.106090 61.933 -169.3383
11245.005805 61.811 -165.9682
11326.491752 61.707 -162.5920
11408.568180 61.623 -159.2190
11491.239368 61.557 -155.8558
11574.509626 61.510 -152.5027
11658.383294 61.480 -149.1550
11742.864745 61.468 -145.8066
11827.958384 61.474 -142.4542
11913.668646 61.499 -139.0988
12000.000000 61.543 -135.7432
12086.956947 61.608 -132.3885
12174.544019 61.694 -129.0343
12262.765784 61.802 -125.6845
12351.626840 61.935 -122.3465
12441.131819 62.092 -119.0282
12531.285389 62.276 -115.7346
12622.092249 62.487 -112.4694
12713.557132 62.726 -109.2382
12805.684808 62.997 -106.0488
12898.480079 63.299 -102.9105
12991.947783 63.638 -99.8341
13086.092792 64.017 -96.8325
13180.920015 64.440 -93.9219
13276.434395 64.911 -91.1231
13372.640911 65.436 -88.4640
13469.544580 66.022 -85.9814
13567.150452 66.673 -83.7221
13665.463617 67.397 -81.7422
13764.489200 68.199 -80.1096
13864.232362 69.084 -78.9081
13964.698305 70.053 -78.2396
14065.892266 71.103 -78.2247
14167.819519 72.222 -79.0025
14270.485380 73.388 -80.7223
14373.895200 74.574 -83.5281
14478.054370 75.742 -87.5401
14582.968320 76.848 -92.8374
14688.642520 77.843 -99.4386
14795.082478 78.678 -107.2825
14902.293745 79.303 -116.2083
15010.281908 79.677 -125.9413
15119.052599 79.772 -136.1013
15228.611486 79.585 -146.2539
15338.964283 79.135 -155.9943
15450.116741 78.458 -165.0177
15562.074656 77.600 -173.1427
15674.843864 76.611 179.7000
15788.430244 75.538 173.4903
15902.839718 74.421 168.1439
16018.078250 73.294 163.5399
16134.151848 72.182 159.5431
16251.066563 71.100 156.0186
16368.828491 70.056 152.8407
16487.443769 69.050 149.8994
16606.918584 68.081 147.1016
16727.259161 67.142 144.3685
16848.471777 66.229 141.6268
16970.562748 65.333 138.7973
17093.538442 64.448 135.7913
17217.405268 63.567 132.5148
17342.169684 62.676 128.8764
17467.838194 61.764 124.7913
17594.417350 60.812 120.1797
17721.913751 59.803 114.9615
17850.334044 58.717 109.0415
17979.684923 57.543 102.2697
18109.973131 56.274 94.3562
18241.205462 54.926 84.6619
18373.388756 53.546 71.5914
18506.529905 52.236 50.6591
18640.635849 51.160 11.3027
18775.713581 50.495 -37.8837
18911.770141 50.318 -66.9208
19048.812624 50.541 -83.0161
19186.848172 50.991 -93.9418
19325.883983 51.516 -102.4937
19465.927305 52.019 -109.6938
19606.985439 52.450 -115.8686
19749.065738 52.785 -120.9765
19892.175609 53.011 -124.7425
20036.322514 53.125 -126.7797
