* Measurement data measured by REW V5.30.4
* Source: Headset (2- CX31993 HIFI AUDIO), MICROPHONE (Master Volume), L, volume: 0.500
* Format: 256k Log Swept Sine, 1 sweep at -12.0 dBFS with no timing reference
* Dated: 08 7, 24 4:05:24 PM
* REW Settings:
*  C-weighting compensation: Off
*  Target level: 75.0 dB
* Note: ; 
* Measurement: Moondrop Quarks2 R
* Smoothing: 1/12 octave
* Frequency Step: 96 ppo
* Start Frequency: 20.141602 Hz
*
* Freq(Hz) SPL(dB) Phase(degrees)
20.141602 101.773 143.1693
20.287556 101.757 143.0570
20.434568 101.733 142.9373
20.582645 101.704 142.8128
20.731796 101.670 142.6856
20.882027 101.634 142.5568
21.033346 101.596 142.4268
21.185762 101.558 142.2959
21.339283 101.519 142.1638
21.493916 101.481 142.0306
21.649670 101.443 141.8964
21.806553 101.405 141.7615
21.964573 101.367 141.6265
22.123737 101.330 141.4924
22.284056 101.293 141.3599
22.445536 101.256 141.2298
22.608185 101.219 141.1029
22.772013 101.182 140.9797
22.937029 101.145 140.8601
23.103241 101.108 140.7441
23.270657 101.071 140.6312
23.439285 101.034 140.5205
23.609137 100.997 140.4113
23.780218 100.960 140.3028
23.952539 100.922 140.1942
24.126110 100.885 140.0853
24.300938 100.848 139.9760
24.477032 100.810 139.8665
24.654402 100.772 139.7574
24.833057 100.735 139.6494
25.013008 100.697 139.5435
25.194263 100.659 139.4402
25.376831 100.622 139.3403
25.560722 100.585 139.2441
25.745945 100.549 139.1516
25.932510 100.513 139.0626
26.120428 100.478 138.9768
26.309708 100.443 138.8938
26.500359 100.408 138.8131
26.692390 100.373 138.7343
26.885815 100.339 138.6573
27.080641 100.304 138.5819
27.276878 100.269 138.5081
27.474539 100.234 138.4359
27.673630 100.199 138.3651
27.874165 100.163 138.2957
28.076153 100.128 138.2274
28.279604 100.093 138.1598
28.484529 100.058 138.0927
28.690941 100.023 138.0258
28.898848 99.989 137.9590
29.108261 99.955 137.8923
29.319191 99.921 137.8260
29.531651 99.887 137.7604
29.745649 99.853 137.6960
29.961199 99.820 137.6331
30.178310 99.787 137.5719
30.396996 99.754 137.5125
30.617264 99.721 137.4549
30.839128 99.688 137.3986
31.062601 99.655 137.3435
31.287693 99.622 137.2890
31.514416 99.589 137.2351
31.742783 99.557 137.1815
31.972803 99.524 137.1283
32.204491 99.491 137.0756
32.437859 99.459 137.0235
32.672916 99.426 136.9724
32.909679 99.394 136.9221
33.148155 99.362 136.8729
33.388359 99.330 136.8246
33.630306 99.299 136.7771
33.874004 99.267 136.7304
34.119469 99.236 136.6844
34.366711 99.204 136.6393
34.615746 99.173 136.5951
34.866585 99.142 136.5521
35.119244 99.111 136.5104
35.373734 99.080 136.4702
35.630066 99.049 136.4314
35.888256 99.019 136.3940
36.148315 98.988 136.3576
36.410259 98.958 136.3221
36.674103 98.928 136.2873
36.939857 98.899 136.2530
37.207539 98.869 136.2194
37.477161 98.839 136.1863
37.748737 98.810 136.1540
38.022282 98.781 136.1224
38.297806 98.751 136.0913
38.575329 98.722 136.0604
38.854862 98.693 136.0296
39.136421 98.664 135.9986
39.420021 98.636 135.9675
39.705673 98.607 135.9363
39.993397 98.578 135.9056
40.283207 98.550 135.8756
40.575115 98.521 135.8467
40.869141 98.493 135.8190
41.165295 98.465 135.7924
41.463596 98.437 135.7666
41.764057 98.409 135.7415
42.066696 98.381 135.7169
42.371529 98.354 135.6927
42.678570 98.326 135.6688
42.987835 98.299 135.6456
43.299343 98.271 135.6230
43.613110 98.244 135.6010
43.929150 98.216 135.5794
44.247478 98.189 135.5581
44.568115 98.162 135.5371
44.891075 98.135 135.5164
45.216373 98.108 135.4963
45.544029 98.081 135.4771
45.874062 98.054 135.4590
46.206486 98.028 135.4420
46.541317 98.002 135.4256
46.878574 97.975 135.4093
47.218277 97.949 135.3928
47.560440 97.923 135.3757
47.905083 97.897 135.3581
48.252224 97.870 135.3402
48.601879 97.844 135.3224
48.954067 97.818 135.3050
49.308807 97.792 135.2884
49.666119 97.766 135.2724
50.026020 97.740 135.2572
50.388531 97.714 135.2425
50.753666 97.688 135.2282
51.121449 97.663 135.2144
51.491894 97.637 135.2009
51.865025 97.612 135.1878
52.240860 97.586 135.1754
52.619419 97.561 135.1638
53.000721 97.535 135.1532
53.384785 97.510 135.1438
53.771633 97.485 135.1355
54.161285 97.460 135.1279
54.553761 97.435 135.1207
54.949081 97.410 135.1133
55.347263 97.385 135.1055
55.748333 97.360 135.0973
56.152309 97.335 135.0890
56.559212 97.311 135.0806
56.969063 97.286 135.0723
57.381886 97.262 135.0637
57.797699 97.237 135.0551
58.216526 97.213 135.0468
58.638386 97.188 135.0397
59.063305 97.163 135.0342
59.491302 97.137 135.0307
59.922401 97.112 135.0284
60.356625 97.087 135.0265
60.793995 97.062 135.0244
61.234531 97.038 135.0220
61.678261 97.013 135.0197
62.125206 96.988 135.0181
62.575390 96.963 135.0177
63.028835 96.939 135.0184
63.485569 96.914 135.0201
63.945610 96.890 135.0224
64.408989 96.865 135.0249
64.875725 96.840 135.0276
65.345840 96.815 135.0306
65.819366 96.791 135.0343
66.296318 96.766 135.0389
66.776726 96.741 135.0439
67.260620 96.716 135.0483
67.748016 96.691 135.0507
68.238945 96.666 135.0494
68.733429 96.640 135.0432
69.231499 96.615 135.0322
69.733177 96.590 135.0186
70.238495 96.565 135.0077
70.747475 96.540 135.0059
71.260139 96.515 135.0174
71.776520 96.490 135.0418
72.296638 96.466 135.0743
72.820526 96.441 135.1085
73.348213 96.417 135.1401
73.879723 96.391 135.1677
74.415085 96.366 135.1917
74.954330 96.341 135.2136
75.497482 96.315 135.2348
76.044571 96.290 135.2563
76.595619 96.264 135.2785
77.150665 96.239 135.3013
77.709732 96.213 135.3244
78.272850 96.188 135.3477
78.840050 96.162 135.3715
79.411354 96.136 135.3961
79.986801 96.110 135.4219
80.566422 96.084 135.4492
81.150238 96.057 135.4778
81.738289 96.031 135.5076
82.330597 96.005 135.5384
82.927200 95.978 135.5701
83.528122 95.952 135.6031
84.133400 95.925 135.6378
84.743065 95.898 135.6745
85.357147 95.872 135.7132
85.975677 95.845 135.7535
86.598694 95.818 135.7955
87.226227 95.791 135.8391
87.858307 95.764 135.8844
88.494965 95.737 135.9314
89.136238 95.710 135.9801
89.782158 95.683 136.0307
90.432755 95.656 136.0830
91.088066 95.628 136.1367
91.748131 95.601 136.1918
92.412979 95.574 136.2488
93.082642 95.547 136.3083
93.757156 95.519 136.3707
94.436562 95.492 136.4357
95.120888 95.464 136.5029
95.810173 95.435 136.5713
96.504456 95.406 136.6399
97.203766 95.376 136.7080
97.908142 95.346 136.7764
98.617622 95.317 136.8465
99.332245 95.287 136.9196
100.052048 95.258 136.9965
100.777069 95.228 137.0769
101.507339 95.199 137.1604
102.242905 95.169 137.2466
102.983795 95.139 137.3350
103.730057 95.109 137.4254
104.481728 95.078 137.5180
105.238846 95.048 137.6132
106.001450 95.017 137.7114
106.769577 94.986 137.8128
107.543274 94.956 137.9178
108.322578 94.925 138.0263
109.107529 94.894 138.1386
109.898170 94.863 138.2544
110.694534 94.832 138.3731
111.496674 94.801 138.4943
112.304626 94.769 138.6177
113.118431 94.737 138.7435
113.938133 94.705 138.8713
114.763779 94.672 139.0009
115.595406 94.637 139.1321
116.433060 94.602 139.2648
117.276779 94.566 139.3986
118.126617 94.529 139.5339
118.982613 94.492 139.6745
119.844810 94.458 139.8261
120.713257 94.427 139.9918
121.587997 94.398 140.1688
122.469070 94.370 140.3518
123.356529 94.342 140.5368
124.250420 94.312 140.7220
125.150787 94.282 140.9080
126.057678 94.250 141.0963
126.971146 94.217 141.2878
127.891228 94.183 141.4834
128.817978 94.150 141.6839
129.751450 94.116 141.8897
130.691681 94.082 142.1009
131.638733 94.047 142.3171
132.592636 94.013 142.5382
133.553452 93.979 142.7642
134.521240 93.944 142.9956
135.496033 93.910 143.2325
136.477890 93.876 143.4753
137.466858 93.842 143.7242
138.462997 93.807 143.9790
139.466354 93.773 144.2398
140.476990 93.738 144.5064
141.494949 93.703 144.7789
142.520279 93.669 145.0572
143.553040 93.635 145.3412
144.593277 93.601 145.6312
145.641052 93.567 145.9273
146.696426 93.533 146.2299
147.759445 93.500 146.5392
148.830170 93.467 146.8551
149.908661 93.433 147.1777
150.994965 93.401 147.5070
152.089142 93.368 147.8430
153.191238 93.335 148.1855
154.301331 93.303 148.5343
155.419464 93.271 148.8895
156.545700 93.239 149.2511
157.680099 93.208 149.6194
158.822708 93.177 149.9946
159.973602 93.146 150.3766
161.132843 93.116 150.7652
162.300476 93.086 151.1607
163.476578 93.056 151.5631
164.661194 93.027 151.9726
165.854401 92.998 152.3892
167.056244 92.970 152.8128
168.266800 92.942 153.2433
169.486130 92.915 153.6808
170.714294 92.888 154.1249
171.951355 92.862 154.5757
173.197388 92.836 155.0331
174.452454 92.811 155.4970
175.716614 92.787 155.9673
176.989929 92.763 156.4440
178.272476 92.739 156.9271
179.564316 92.717 157.4166
180.865509 92.695 157.9125
182.176132 92.673 158.4145
183.496262 92.653 158.9222
184.825958 92.633 159.4354
186.165283 92.614 159.9539
187.514313 92.595 160.4773
188.873123 92.578 161.0057
190.241776 92.561 161.5391
191.620346 92.545 162.0775
193.008911 92.530 162.6212
194.407532 92.515 163.1699
195.816284 92.502 163.7235
197.235245 92.489 164.2818
198.664490 92.477 164.8448
200.104095 92.465 165.4124
201.554138 92.455 165.9842
203.014679 92.445 166.5602
204.485809 92.436 167.1400
205.967590 92.427 167.7237
207.460114 92.419 168.3113
208.963455 92.412 168.9028
210.477692 92.406 169.4980
212.002899 92.400 170.0969
213.539154 92.395 170.6992
215.086548 92.391 171.3047
216.645157 92.387 171.9132
218.215057 92.384 172.5246
219.796341 92.381 173.1388
221.389069 92.379 173.7560
222.993347 92.378 174.3764
224.609253 92.377 175.0000
226.236862 92.377 175.6269
227.876266 92.377 176.2573
229.527557 92.378 176.8913
231.190811 92.379 177.5291
232.866119 92.381 178.1710
234.553558 92.383 178.8169
236.253235 92.386 179.4664
237.965225 92.389 -179.8821
239.689621 92.392 -179.2307
241.426514 92.395 -178.5806
243.175995 92.399 -177.9309
244.938141 92.403 -177.2793
246.713058 92.408 -176.6240
248.500839 92.412 -175.9641
250.301575 92.417 -175.2995
252.115356 92.422 -174.6305
253.942291 92.428 -173.9574
255.782455 92.434 -173.2802
257.635956 92.439 -172.5989
259.502899 92.445 -171.9136
261.383362 92.451 -171.2245
263.277466 92.458 -170.5314
265.185272 92.464 -169.8346
267.106903 92.470 -169.1341
269.042480 92.477 -168.4297
270.992065 92.483 -167.7210
272.955780 92.490 -167.0081
274.933716 92.496 -166.2906
276.925995 92.503 -165.5682
278.932709 92.510 -164.8405
280.953979 92.516 -164.1082
282.989899 92.523 -163.3715
285.040558 92.530 -162.6301
287.106079 92.537 -161.8829
289.186554 92.544 -161.1300
291.282104 92.551 -160.3723
293.392853 92.557 -159.6098
295.518890 92.564 -158.8409
297.660339 92.570 -158.0638
299.817322 92.577 -157.2793
301.989929 92.584 -156.4909
304.178284 92.590 -155.7014
306.382477 92.596 -154.9098
308.602661 92.601 -154.1098
310.838928 92.605 -153.2921
313.091400 92.609 -152.4493
315.360199 92.614 -151.5803
317.645416 92.624 -150.6927
319.947205 92.637 -149.8015
322.265686 92.656 -148.9261
324.600952 92.678 -148.0872
326.953156 92.703 -147.3034
329.322388 92.728 -146.5889
331.708801 92.751 -145.9528
334.112488 92.770 -145.3997
336.533600 92.782 -144.9310
338.972260 92.788 -144.5467
341.428589 92.786 -144.2466
343.902710 92.777 -144.0301
346.394775 92.763 -143.8966
348.904907 92.745 -143.8440
351.433228 92.726 -143.8673
353.979858 92.709 -143.9569
356.544952 92.695 -144.0980
359.128632 92.687 -144.2706
361.731018 92.685 -144.4539
364.352264 92.688 -144.6319
366.992523 92.695 -144.7969
369.651917 92.705 -144.9500
372.330566 92.717 -145.0997
375.028625 92.731 -145.2578
377.746246 92.747 -145.4347
380.483551 92.764 -145.6364
383.240692 92.781 -145.8649
386.017822 92.800 -146.1223
388.815063 92.819 -146.4115
391.632568 92.838 -146.7331
394.470490 92.855 -147.0833
397.328979 92.870 -147.4557
400.208191 92.881 -147.8448
403.108276 92.889 -148.2461
406.029358 92.893 -148.6538
408.971619 92.894 -149.0615
411.935181 92.895 -149.4647
414.920227 92.896 -149.8616
417.926910 92.897 -150.2546
420.955383 92.900 -150.6481
424.005798 92.903 -151.0459
427.078308 92.907 -151.4509
430.173096 92.910 -151.8655
433.290314 92.913 -152.2917
436.430115 92.915 -152.7312
439.592682 92.915 -153.1850
442.778137 92.915 -153.6523
445.986694 92.912 -154.1282
449.218506 92.909 -154.6050
452.473724 92.905 -155.0764
455.752533 92.902 -155.5418
459.055115 92.900 -156.0065
462.381622 92.899 -156.4783
465.732239 92.899 -156.9632
469.107117 92.900 -157.4633
472.506470 92.900 -157.9773
475.930450 92.900 -158.5020
479.379242 92.900 -159.0347
482.853027 92.899 -159.5739
486.351990 92.899 -160.1192
489.876282 92.898 -160.6716
493.426117 92.898 -161.2324
497.001678 92.898 -161.8026
500.603149 92.898 -162.3829
504.230713 92.898 -162.9730
507.884583 92.898 -163.5727
511.564911 92.897 -164.1818
515.271912 92.897 -164.8002
519.005798 92.896 -165.4280
522.766724 92.895 -166.0654
526.554932 92.895 -166.7124
530.370544 92.894 -167.3696
534.213806 92.894 -168.0372
538.084961 92.893 -168.7154
541.984131 92.893 -169.4042
545.911560 92.892 -170.1037
549.867432 92.892 -170.8138
553.851990 92.892 -171.5349
557.865417 92.892 -172.2672
561.907959 92.892 -173.0109
565.979797 92.891 -173.7659
570.081116 92.891 -174.5318
574.212158 92.891 -175.3084
578.373108 92.891 -176.0961
582.564209 92.890 -176.8954
586.785706 92.890 -177.7068
591.037781 92.890 -178.5307
595.320679 92.890 -179.3673
599.634644 92.890 179.7834
603.979858 92.890 178.9218
608.356567 92.891 178.0484
612.764954 92.892 177.1634
617.205322 92.893 176.2664
621.677856 92.894 175.3561
626.182800 92.895 174.4320
630.720398 92.896 173.4939
635.290833 92.897 172.5417
639.894409 92.899 171.5761
644.531372 92.900 170.5975
649.201904 92.902 169.6056
653.906311 92.904 168.6000
658.644775 92.906 167.5802
663.417603 92.909 166.5463
668.224976 92.911 165.4983
673.067200 92.914 164.4359
677.944519 92.917 163.3591
682.857178 92.920 162.2677
687.805420 92.924 161.1616
692.789551 92.927 160.0408
697.809814 92.931 158.9050
702.866455 92.935 157.7539
707.959717 92.940 156.5871
713.089905 92.944 155.4039
718.257263 92.949 154.2043
723.462036 92.955 152.9881
728.704529 92.960 151.7554
733.985046 92.966 150.5061
739.303833 92.972 149.2400
744.661133 92.979 147.9569
750.057251 92.986 146.6565
755.492493 92.994 145.3384
760.967102 93.001 144.0028
766.481384 93.010 142.6494
772.035645 93.018 141.2781
777.630127 93.027 139.8885
783.265137 93.036 138.4802
788.940979 93.046 137.0527
794.657959 93.056 135.6053
800.416382 93.067 134.1379
806.216553 93.079 132.6501
812.058716 93.091 131.1419
817.943237 93.103 129.6132
823.870361 93.116 128.0636
829.840454 93.130 126.4926
835.853821 93.144 124.8997
841.910767 93.158 123.2842
848.011597 93.174 121.6459
854.156616 93.189 119.9844
860.346191 93.205 118.2996
866.580627 93.222 116.5915
872.860229 93.239 114.8597
879.185364 93.256 113.1041
885.556274 93.274 111.3240
891.973389 93.292 109.5191
898.437012 93.311 107.6886
904.947449 93.330 105.8323
911.505066 93.350 103.9497
918.110229 93.370 102.0406
924.763245 93.390 100.1050
931.464478 93.410 98.1427
938.214233 93.431 96.1539
945.012939 93.452 94.1384
951.860901 93.473 92.0961
958.758484 93.494 90.0270
965.706055 93.515 87.9310
972.703979 93.536 85.8082
979.752563 93.557 83.6588
986.852234 93.578 81.4832
994.003357 93.599 79.2818
1001.206299 93.621 77.0549
1008.461426 93.642 74.8029
1015.769165 93.663 72.5262
1023.129822 93.684 70.2256
1030.543823 93.706 67.9017
1038.011597 93.728 65.5550
1045.533447 93.750 63.1861
1053.109863 93.773 60.7954
1060.741089 93.796 58.3831
1068.427612 93.821 55.9492
1076.169922 93.846 53.4938
1083.968262 93.873 51.0164
1091.823120 93.902 48.5167
1099.734863 93.933 45.9943
1107.703979 93.965 43.4484
1115.730835 94.001 40.8777
1123.815918 94.038 38.2808
1131.959595 94.079 35.6555
1140.162231 94.123 32.9998
1148.424316 94.170 30.3110
1156.746216 94.220 27.5867
1165.128418 94.274 24.8239
1173.571411 94.331 22.0200
1182.075562 94.392 19.1722
1190.641357 94.456 16.2773
1199.269287 94.524 13.3322
1207.959717 94.594 10.3344
1216.713135 94.668 7.2811
1225.529907 94.743 4.1705
1234.410645 94.821 1.0006
1243.355713 94.902 -2.2299
1252.365601 94.983 -5.5223
1261.440796 95.066 -8.8777
1270.581665 95.150 -12.2968
1279.788818 95.235 -15.7798
1289.062744 95.320 -19.3270
1298.403809 95.405 -22.9379
1307.812622 95.490 -26.6121
1317.289551 95.574 -30.3488
1326.835205 95.658 -34.1472
1336.449951 95.741 -38.0067
1346.134399 95.822 -41.9266
1355.889038 95.903 -45.9062
1365.714355 95.983 -49.9446
1375.610840 96.061 -54.0412
1385.579102 96.138 -58.1950
1395.619629 96.213 -62.4050
1405.732910 96.287 -66.6708
1415.919434 96.360 -70.9917
1426.179810 96.432 -75.3675
1436.514526 96.502 -79.7975
1446.924072 96.571 -84.2812
1457.409058 96.639 -88.8184
1467.970093 96.705 -93.4088
1478.607666 96.771 -98.0525
1489.322266 96.835 -102.7493
1500.114502 96.899 -107.4991
1510.984985 96.961 -112.3021
1521.934204 97.023 -117.1583
1532.962769 97.083 -122.0678
1544.071289 97.143 -127.0309
1555.260254 97.202 -132.0476
1566.530273 97.261 -137.1184
1577.881958 97.318 -142.2435
1589.315918 97.375 -147.4232
1600.832764 97.432 -152.6580
1612.433105 97.488 -157.9482
1624.117432 97.543 -163.2944
1635.886475 97.599 -168.6970
1647.740723 97.653 -174.1566
1659.680908 97.708 -179.6740
1671.707642 97.762 174.7503
1683.821533 97.816 169.1158
1696.023193 97.870 163.4219
1708.313232 97.924 157.6678
1720.692383 97.978 151.8530
1733.161255 98.031 145.9767
1745.720459 98.085 140.0384
1758.370728 98.139 134.0372
1771.112549 98.192 127.9724
1783.946777 98.246 121.8433
1796.874023 98.300 115.6490
1809.894897 98.354 109.3892
1823.010132 98.409 103.0629
1836.220459 98.463 96.6693
1849.526489 98.518 90.2075
1862.928955 98.573 83.6766
1876.428467 98.628 77.0760
1890.025879 98.683 70.4045
1903.721802 98.739 63.6615
1917.516968 98.795 56.8460
1931.412109 98.851 49.9573
1945.407959 98.908 42.9946
1959.505127 98.965 35.9570
1973.704468 99.022 28.8435
1988.006714 99.079 21.6534
2002.412598 99.137 14.3856
2016.922852 99.195 7.0389
2031.538330 99.254 -0.3873
2046.259644 99.313 -7.8940
2061.087646 99.372 -15.4822
2076.023193 99.431 -23.1528
2091.066895 99.491 -30.9067
2106.219727 99.551 -38.7450
2121.482178 99.611 -46.6687
2136.855225 99.672 -54.6788
2152.339844 99.733 -62.7764
2167.936523 99.794 -70.9626
2183.646240 99.856 -79.2385
2199.469727 99.918 -87.6049
2215.407959 99.980 -96.0632
2231.461670 100.043 -104.6143
2247.631836 100.105 -113.2593
2263.919189 100.168 -121.9996
2280.324463 100.231 -130.8359
2296.848633 100.294 -139.7698
2313.492432 100.357 -148.8021
2330.256836 100.420 -157.9344
2347.142822 100.483 -167.1677
2364.151123 100.546 -176.5031
2381.282715 100.609 174.0581
2398.538574 100.672 164.5144
2415.919434 100.734 154.8651
2433.426270 100.797 145.1088
2451.059814 100.858 135.2444
2468.821289 100.920 125.2709
2486.711426 100.981 115.1868
2504.731201 101.041 104.9912
2522.881592 101.100 94.6831
2541.163330 101.159 84.2612
2559.577637 101.217 73.7245
2578.125488 101.274 63.0720
2596.807617 101.329 52.3027
2615.625244 101.384 41.4156
2634.579102 101.437 30.4096
2653.670410 101.489 19.2838
2672.899902 101.539 8.0373
2692.268799 101.587 -3.3310
2711.778076 101.634 -14.8221
2731.428711 101.679 -26.4368
2751.221680 101.721 -38.1763
2771.158203 101.762 -50.0410
2791.239258 101.800 -62.0316
2811.465820 101.835 -74.1483
2831.838867 101.867 -86.3912
2852.359619 101.897 -98.7606
2873.029053 101.923 -111.2560
2893.848145 101.946 -123.8772
2914.818115 101.966 -136.6243
2935.940186 101.983 -149.4966
2957.215332 101.996 -162.4944
2978.644531 102.006 -175.6163
3000.229004 102.012 171.1376
3021.969971 102.015 157.7671
3043.868408 102.014 144.2732
3065.925537 102.010 130.6558
3088.142578 102.003 116.9153
3110.520508 101.993 103.0515
3133.060547 101.979 89.0647
3155.763916 101.962 74.9548
3178.631836 101.943 60.7220
3201.665527 101.920 46.3651
3224.866211 101.895 31.8845
3248.234863 101.868 17.2795
3271.772949 101.838 2.5493
3295.481445 101.806 -12.3065
3319.361816 101.773 -27.2889
3343.415283 101.737 -42.3987
3367.643066 101.700 -57.6370
3392.046387 101.662 -73.0048
3416.626465 101.622 -88.5037
3441.384766 101.581 -104.1349
3466.322510 101.539 -119.8998
3491.440918 101.497 -135.7999
3516.741455 101.453 -151.8370
3542.225098 101.410 -168.0127
3567.893555 101.366 175.6711
3593.748047 101.322 159.2125
3619.789795 101.278 142.6095
3646.020264 101.234 125.8604
3672.440918 101.190 108.9630
3699.052979 101.147 91.9154
3725.857910 101.104 74.7150
3752.856934 101.062 57.3600
3780.051758 101.021 39.8470
3807.443604 100.981 22.1738
3835.033936 100.942 4.3372
3862.824219 100.904 -13.6664
3890.815918 100.867 -31.8403
3919.010254 100.831 -50.1885
3947.408936 100.797 -68.7144
3976.013428 100.763 -87.4216
4004.825195 100.731 -106.3130
4033.845703 100.698 -125.3918
4063.076660 100.666 -144.6599
4092.519287 100.633 -164.1188
4122.175293 100.600 176.2307
4152.046387 100.566 156.3879
4182.133789 100.532 136.3518
4212.439453 100.497 116.1216
4242.964355 100.460 95.6960
4273.710449 100.424 75.0740
4304.679688 100.386 54.2538
4335.873047 100.348 33.2334
4367.292480 100.310 12.0103
4398.939453 100.271 -9.4182
4430.815918 100.232 -31.0562
4462.923340 100.193 -52.9066
4495.263672 100.153 -74.9739
4527.838379 100.112 -97.2617
4560.648926 100.070 -119.7734
4593.697266 100.027 -142.5117
4626.984863 99.981 -165.4780
4660.513672 99.932 171.3257
4694.285645 99.880 147.9004
4728.302246 99.825 124.2471
4762.565430 99.765 100.3667
4797.077148 99.700 76.2605
4831.838867 99.632 51.9307
4866.852539 99.559 27.3777
4902.119629 99.482 2.6018
4937.642578 99.402 -22.3972
4973.422852 99.317 -47.6206
5009.462402 99.229 -73.0691
5045.763184 99.138 -98.7439
5082.326660 99.044 -124.6472
5119.155273 98.946 -150.7800
5156.250977 98.845 -177.1443
5193.615234 98.742 156.2585
5231.250488 98.635 129.4268
5269.158203 98.526 102.3582
5307.340820 98.413 75.0513
5345.799805 98.298 47.5044
5384.537598 98.179 19.7148
5423.556152 98.058 -8.3193
5462.857422 97.933 -36.5994
5502.443359 97.806 -65.1284
5542.316406 97.675 -93.9080
5582.478516 97.541 -122.9382
5622.931641 97.403 -152.2207
5663.677734 97.261 178.2446
5704.719238 97.115 148.4575
5746.058105 96.965 118.4197
5787.696289 96.811 88.1301
5829.636230 96.652 57.5906
5871.880371 96.490 26.8018
5914.430664 96.323 -4.2361
5957.289062 96.152 -35.5210
6000.458008 95.978 -67.0518
6043.939941 95.800 -98.8296
6087.736816 95.619 -130.8523
6131.851074 95.436 -163.1187
6176.285156 95.250 164.3708
6221.041016 95.063 131.6182
6266.121094 94.875 98.6238
6311.527832 94.686 65.3899
6357.263672 94.496 31.9189
6403.331055 94.308 -1.7888
6449.732422 94.122 -35.7290
6496.469727 93.940 -69.9001
6543.545898 93.763 -104.3015
6590.962891 93.595 -138.9331
6638.723633 93.436 -173.7986
6686.830566 93.291 151.0957
6735.286133 93.163 115.7400
6784.092773 93.055 80.1206
6833.252930 92.970 44.2188
6882.769531 92.910 8.0125
6932.645020 92.878 -28.5242
6982.881836 92.876 -65.4180
7033.482910 92.903 -102.6973
7084.450195 92.961 -140.3899
7135.787109 93.047 -178.5229
7187.496094 93.161 142.8777
7239.579590 93.301 103.7874
7292.040527 93.464 64.1836
7344.881836 93.648 24.0469
7398.105957 93.849 -16.6416
7451.715820 94.063 -57.8960
7505.713867 94.288 -99.7290
7560.103516 94.520 -142.1514
7614.887207 94.753 174.8296
7670.067871 94.985 131.2090
7725.648438 95.210 86.9834
7781.631836 95.424 42.1553
7838.020508 95.624 -3.2720
7894.817871 95.804 -49.2915
7952.026855 95.960 -95.8906
8009.650391 96.089 -143.0562
8067.691406 96.187 169.2295
8126.153320 96.251 120.9858
8185.038574 96.278 72.2363
8244.350586 96.268 23.0034
8304.092773 96.219 -26.6865
8364.267578 96.132 -76.8086
8424.878906 96.007 -127.3413
8485.928711 95.846 -178.2617
8547.420898 95.651 130.4482
8609.359375 95.425 78.8027
8671.746094 95.172 26.8149
8734.584961 94.894 -25.5059
8797.878906 94.595 -78.1514
8861.631836 94.278 -131.1099
8925.846680 93.947 175.6436
8990.527344 93.603 122.1650
9055.676758 93.248 68.5669
9121.297852 92.883 15.0601
9187.394531 92.508 -38.0098
9253.969727 92.123 -90.1372
9321.027344 91.730 -140.6738
9388.571289 91.339 171.1055
9456.604492 90.962 125.8770
9525.130859 90.612 84.1094
9594.154297 90.288 45.9707
9663.677734 89.981 11.3110
9733.705078 89.682 -20.3018
9804.239258 89.384 -49.5454
9875.285156 89.086 -77.2324
9946.845703 88.788 -104.1226
10018.924805 88.493 -130.7559
10091.526367 88.201 -157.4189
10164.653320 87.912 175.7881
10238.310547 87.629 148.8613
10312.501953 87.350 121.8232
10387.230469 87.077 94.6943
10462.500977 86.809 67.4814
10538.316406 86.546 40.1875
10614.681641 86.287 12.8149
10691.599609 86.033 -14.6313
10769.075195 85.781 -42.1465
10847.112305 85.533 -69.7183
10925.714844 85.287 -97.3345
11004.886719 85.044 -124.9814
11084.632812 84.805 -152.6431
11164.957031 84.569 179.6968
11245.863281 84.337 152.0508
11327.355469 84.111 124.4307
11409.438477 83.892 96.8428
11492.116211 83.679 69.2915
11575.392578 83.476 41.7739
11659.272461 83.281 14.2856
11743.760742 83.098 -13.1802
11828.861328 82.926 -40.6338
11914.578125 82.766 -68.0859
12000.916016 82.619 -95.5488
12087.879883 82.485 -123.0352
12175.473633 82.366 -150.5503
12263.702148 82.261 -178.1001
12352.570312 82.170 154.3120
12442.082031 82.096 126.6904
12532.242188 82.037 99.0464
12623.055664 81.996 71.3892
12714.527344 81.973 43.7271
12806.662109 81.970 16.0684
12899.464844 81.990 -11.5659
12992.939453 82.034 -39.1460
13087.091797 82.106 -66.6274
13181.925781 82.208 -93.9570
13277.447266 82.342 -121.0864
13373.661133 82.512 -148.0005
13470.572266 82.718 -174.7490
13568.185547 82.961 158.5190
13666.505859 83.240 131.5483
13765.539062 83.550 104.0430
13865.290039 83.889 75.7773
13965.763672 84.252 46.6890
14066.965820 84.636 16.8901
14168.900391 85.039 -13.3896
14271.574219 85.458 -43.9014
14374.992188 85.895 -74.4600
14479.159180 86.350 -104.9854
14584.081055 86.825 -135.4854
14689.763672 87.321 -166.0044
14796.211914 87.836 163.4302
14903.431641 88.370 132.8262
15011.427734 88.918 102.2183
15120.207031 89.475 71.6108
15229.774414 90.031 40.8091
15340.135742 90.576 9.1860
15451.296875 91.093 -24.2397
15563.263672 91.568 -60.3237
15676.041016 91.982 -99.3906
15789.635742 92.318 -141.2378
15904.053711 92.559 174.6357
16019.300781 92.692 128.8477
16135.382812 92.710 82.0420
16252.306641 92.609 34.8823
16370.077148 92.393 -11.9380
16488.701172 92.073 -57.6641
16608.185547 91.660 -101.4453
16728.535156 91.174 -142.3486
16849.757812 90.632 -179.5049
16971.857422 90.053 147.3633
17094.841797 89.457 117.2285
17218.718750 88.859 87.9971
17343.492188 88.274 58.1094
17469.169922 87.713 27.3799
17595.757812 87.186 -3.5820
17723.263672 86.700 -34.2021
17851.693359 86.259 -64.4277
17981.054688 85.867 -94.5977
18111.353516 85.524 -124.9844
18242.595703 85.232 -155.6201
18374.789062 84.987 173.5752
18507.939453 84.787 142.7979
18642.054688 84.629 112.6611
18777.142578 84.507 83.7266
18913.208984 84.415 53.8125
19050.261719 84.345 17.5205
19188.308594 84.290 -27.8848
19327.355469 84.241 -80.2939
19467.410156 84.194 2.8066
19608.478516 84.145 -39.5977
19750.570312 84.097 -112.6855
19893.691406 84.057 166.5889
20037.849609 0.000 78.2371
