* Measurement data measured by REW V5.31.3
* Source: Headset (2- CX31993 HIFI AUDIO), MICROPHONE (Master Volume), R, volume: 0.400
* Format: 256k Log Swept Sine, 1 sweep at -12.0 dBFS with no timing reference
* Dated: 10 9, 24 10:56:39 AM
* REW Settings:
*  C-weighting compensation: Off
*  Target level: 75.0 dB
* Note: ; 
* Measurement: Moondrop Kadenz L
* Smoothing: 1/12 octave
* Frequency Step: 96 ppo
* Start Frequency: 0.36621094 Hz
*
* Freq(Hz) SPL(dB) Phase(degrees)
0.366211 51.686 9.8768
0.368865 51.705 9.9284
0.371538 51.732 10.0052
0.374230 51.767 10.1007
0.376942 51.805 10.2094
0.379673 51.846 10.3272
0.382424 51.889 10.4516
0.385196 51.934 10.5809
0.387987 51.978 10.7141
0.390798 52.024 10.8507
0.393630 52.070 10.9905
0.396483 52.116 11.1332
0.399356 52.163 11.2789
0.402250 52.210 11.4274
0.405165 52.257 11.5787
0.408101 52.305 11.7328
0.411058 52.353 11.8897
0.414037 52.401 12.0494
0.417037 52.450 12.2117
0.420059 52.499 12.3769
0.423103 52.548 12.5447
0.426169 52.598 12.7152
0.429257 52.648 12.8883
0.432368 52.699 13.0640
0.435501 52.750 13.2423
0.438656 52.801 13.4231
0.441835 52.853 13.6065
0.445037 52.905 13.7922
0.448262 52.957 13.9804
0.451510 53.010 14.1709
0.454782 53.063 14.3637
0.458077 53.116 14.5588
0.461397 53.170 14.7560
0.464740 53.225 14.9553
0.468108 53.279 15.1567
0.471500 53.334 15.3600
0.474917 53.390 15.5652
0.478358 53.446 15.7722
0.481825 53.502 15.9810
0.485316 53.559 16.1913
0.488833 53.616 16.4032
0.492375 53.673 16.6166
0.495943 53.731 16.8313
0.499537 53.790 17.0472
0.503157 53.848 17.2642
0.506803 53.908 17.4823
0.510475 53.967 17.7012
0.514175 54.027 17.9210
0.517900 54.088 18.1413
0.521653 54.149 18.3622
0.525434 54.210 18.5834
0.529241 54.272 18.8049
0.533076 54.334 19.0265
0.536939 54.397 19.2480
0.540830 54.460 19.4693
0.544749 54.524 19.6903
0.548696 54.588 19.9108
0.552673 54.653 20.1306
0.556677 54.718 20.3496
0.560711 54.783 20.5676
0.564774 54.849 20.7845
0.568867 54.916 21.0000
0.572989 54.983 21.2140
0.577141 55.050 21.4264
0.581324 55.118 21.6369
0.585536 55.187 21.8454
0.589779 55.256 22.0517
0.594053 55.325 22.2556
0.598358 55.395 22.4570
0.602694 55.465 22.6556
0.607061 55.536 22.8514
0.611460 55.608 23.0440
0.615891 55.680 23.2334
0.620354 55.752 23.4193
0.624849 55.825 23.6016
0.629377 55.899 23.7802
0.633938 55.973 23.9547
0.638532 56.048 24.1252
0.643159 56.123 24.2913
0.647819 56.198 24.4529
0.652514 56.275 24.6099
0.657242 56.352 24.7622
0.662005 56.429 24.9095
0.666802 56.507 25.0517
0.671634 56.585 25.1886
0.676501 56.664 25.3202
0.681403 56.744 25.4463
0.686341 56.824 25.5667
0.691314 56.905 25.6814
0.696324 56.987 25.7903
0.701370 57.069 25.8934
0.706452 57.152 25.9906
0.711571 57.236 26.0821
0.716728 57.322 26.1683
0.721921 57.409 26.2497
0.727153 57.498 26.3271
0.732422 57.589 26.4017
0.737729 57.684 26.4749
0.743075 57.781 26.5479
0.748460 57.881 26.6219
0.753883 57.983 26.6972
0.759346 58.087 26.7743
0.764849 58.193 26.8531
0.770391 58.301 26.9335
0.775974 58.410 27.0151
0.781597 58.521 27.0977
0.787261 58.634 27.1809
0.792966 58.748 27.2644
0.798712 58.864 27.3478
0.804500 58.981 27.4307
0.810329 59.100 27.5127
0.816201 59.221 27.5935
0.822116 59.343 27.6728
0.828073 59.466 27.7502
0.834074 59.591 27.8253
0.840118 59.718 27.8979
0.846206 59.846 27.9675
0.852338 59.975 28.0340
0.858514 60.105 28.0968
0.864735 60.237 28.1559
0.871001 60.371 28.2108
0.877313 60.505 28.2613
0.883670 60.641 28.3071
0.890074 60.778 28.3478
0.896524 60.916 28.3833
0.903020 61.056 28.4133
0.909564 61.196 28.4374
0.916155 61.337 28.4556
0.922794 61.480 28.4674
0.929481 61.623 28.4727
0.936216 61.768 28.4712
0.943000 61.913 28.4627
0.949834 62.059 28.4471
0.956717 62.206 28.4240
0.963649 62.353 28.3933
0.970632 62.501 28.3548
0.977666 62.650 28.3082
0.984750 62.799 28.2534
0.991886 62.948 28.1903
0.999074 63.098 28.1186
1.006314 63.248 28.0381
1.013606 63.398 27.9487
1.020951 63.548 27.8503
1.028349 63.699 27.7427
1.035801 63.849 27.6258
1.043307 63.999 27.4994
1.050867 64.148 27.3636
1.058482 64.298 27.2183
1.066152 64.447 27.0637
1.073878 64.595 26.9001
1.081660 64.743 26.7282
1.089498 64.891 26.5487
1.097393 65.038 26.3631
1.105345 65.185 26.1730
1.113355 65.332 25.9798
1.121423 65.479 25.7849
1.129549 65.626 25.5893
1.137734 65.773 25.3932
1.145979 65.921 25.1971
1.154283 66.069 25.0008
1.162647 66.217 24.8043
1.171072 66.365 24.6073
1.179558 66.513 24.4096
1.188106 66.662 24.2110
1.196715 66.811 24.0112
1.205387 66.961 23.8099
1.214122 67.110 23.6069
1.222920 67.260 23.4019
1.231782 67.410 23.1946
1.240708 67.560 22.9848
1.249699 67.710 22.7722
1.258754 67.861 22.5566
1.267876 68.011 22.3377
1.277063 68.162 22.1152
1.286318 68.313 21.8889
1.295639 68.464 21.6586
1.305027 68.616 21.4239
1.314484 68.767 21.1847
1.324009 68.919 20.9407
1.333604 69.070 20.6916
1.343268 69.222 20.4373
1.353002 69.374 20.1773
1.362806 69.526 19.9116
1.372681 69.678 19.6399
1.382628 69.830 19.3619
1.392647 69.982 19.0774
1.402739 70.134 18.7863
1.412904 70.287 18.4885
1.423142 70.439 18.1838
1.433455 70.591 17.8725
1.443843 70.743 17.5549
1.454305 70.895 17.2317
1.464844 71.047 16.9037
1.475459 71.199 16.5722
1.486150 71.350 16.2382
1.496920 71.502 15.9027
1.507767 71.652 15.5662
1.518693 71.803 15.2291
1.529698 71.953 14.8914
1.540783 72.103 14.5530
1.551948 72.252 14.2137
1.563194 72.402 13.8733
1.574521 72.550 13.5316
1.585931 72.699 13.1882
1.597423 72.847 12.8428
1.608999 72.995 12.4952
1.620658 73.142 12.1450
1.632402 73.290 11.7920
1.644232 73.437 11.4357
1.656146 73.584 11.0760
1.668147 73.730 10.7123
1.680235 73.876 10.3445
1.692411 74.023 9.9722
1.704675 74.169 9.5951
1.717028 74.314 9.2128
1.729470 74.460 8.8250
1.742003 74.606 8.4314
1.754626 74.751 8.0317
1.767341 74.897 7.6255
1.780147 75.042 7.2128
1.793047 75.187 6.7934
1.806040 75.332 6.3672
1.819128 75.477 5.9345
1.832310 75.622 5.4958
1.845587 75.766 5.0517
1.858961 75.910 4.6028
1.872432 76.054 4.1498
1.886001 76.197 3.6933
1.899667 76.339 3.2337
1.913433 76.481 2.7713
1.927299 76.622 2.3063
1.941265 76.762 1.8389
1.955332 76.902 1.3693
1.969501 77.042 0.8975
1.983773 77.180 0.4236
1.998148 77.319 -0.0523
2.012627 77.457 -0.5304
2.027212 77.594 -1.0106
2.041902 77.731 -1.4929
2.056698 77.868 -1.9775
2.071602 78.004 -2.4645
2.086614 78.140 -2.9539
2.101734 78.275 -3.4460
2.116964 78.410 -3.9409
2.132304 78.545 -4.4389
2.147756 78.680 -4.9401
2.163320 78.814 -5.4448
2.178996 78.949 -5.9531
2.194786 79.082 -6.4654
2.210690 79.215 -6.9817
2.226710 79.348 -7.5019
2.242845 79.480 -8.0260
2.259098 79.611 -8.5537
2.275468 79.742 -9.0847
2.291957 79.871 -9.6187
2.308566 80.000 -10.1554
2.325295 80.129 -10.6944
2.342145 80.256 -11.2354
2.359117 80.383 -11.7782
2.376212 80.509 -12.3226
2.393431 80.635 -12.8683
2.410775 80.760 -13.4151
2.428244 80.885 -13.9630
2.445840 81.009 -14.5118
2.463564 81.132 -15.0615
2.481416 81.255 -15.6122
2.499397 81.378 -16.1638
2.517509 81.500 -16.7167
2.535752 81.622 -17.2710
2.554127 81.744 -17.8273
2.572635 81.864 -18.3860
2.591277 81.984 -18.9475
2.610055 82.104 -19.5121
2.628968 82.222 -20.0798
2.648019 82.340 -20.6505
2.667208 82.457 -21.2240
2.686535 82.573 -21.7997
2.706003 82.688 -22.3774
2.725612 82.803 -22.9566
2.745363 82.916 -23.5367
2.765257 83.029 -24.1176
2.785295 83.142 -24.6987
2.805478 83.254 -25.2798
2.825808 83.365 -25.8606
2.846285 83.476 -26.4410
2.866910 83.586 -27.0208
2.887685 83.696 -27.6003
2.908611 83.805 -28.1797
2.929688 83.914 -28.7596
2.950917 84.022 -29.3404
2.972301 84.129 -29.9229
2.993839 84.236 -30.5072
3.015534 84.341 -31.0934
3.037386 84.446 -31.6815
3.059396 84.550 -32.2710
3.081565 84.654 -32.8616
3.103896 84.756 -33.4528
3.126388 84.858 -34.0441
3.149043 84.959 -34.6351
3.171862 85.060 -35.2255
3.194847 85.160 -35.8148
3.217998 85.259 -36.4028
3.241317 85.358 -36.9894
3.264805 85.457 -37.5748
3.288463 85.555 -38.1592
3.312293 85.652 -38.7432
3.336295 85.749 -39.3273
3.360471 85.845 -39.9119
3.384822 85.940 -40.4973
3.409350 86.035 -41.0833
3.434056 86.129 -41.6698
3.458940 86.222 -42.2565
3.484005 86.314 -42.8429
3.509252 86.406 -43.4288
3.534681 86.497 -44.0138
3.560295 86.588 -44.5975
3.586094 86.679 -45.1797
3.612081 86.769 -45.7604
3.638255 86.858 -46.3397
3.664620 86.947 -46.9177
3.691175 87.036 -47.4950
3.717923 87.123 -48.0720
3.744864 87.211 -48.6489
3.772001 87.297 -49.2257
3.799335 87.383 -49.8025
3.826866 87.469 -50.3790
3.854597 87.554 -50.9549
3.882529 87.638 -51.5301
3.910664 87.722 -52.1043
3.939002 87.805 -52.6772
3.967546 87.888 -53.2487
3.996296 87.971 -53.8190
4.025255 88.053 -54.3881
4.054423 88.135 -54.9563
4.083804 88.216 -55.5239
4.113396 88.297 -56.0912
4.143204 88.377 -56.6582
4.173227 88.456 -57.2250
4.203468 88.536 -57.7912
4.233928 88.614 -58.3569
4.264609 88.692 -58.9217
4.295512 88.770 -59.4856
4.326639 88.847 -60.0484
4.357992 88.924 -60.6101
4.389572 89.001 -61.1710
4.421380 89.077 -61.7312
4.453419 89.152 -62.2909
4.485691 89.227 -62.8503
4.518196 89.302 -63.4095
4.550936 89.375 -63.9684
4.583914 89.449 -64.5267
4.617131 89.522 -65.0844
4.650589 89.595 -65.6411
4.684289 89.667 -66.1969
4.718233 89.738 -66.7516
4.752424 89.809 -67.3054
4.786862 89.880 -67.8585
4.821549 89.950 -68.4110
4.856488 90.020 -68.9630
4.891680 90.089 -69.5146
4.927127 90.158 -70.0658
4.962831 90.226 -70.6162
4.998794 90.294 -71.1657
5.035017 90.361 -71.7142
5.071503 90.428 -72.2616
5.108253 90.494 -72.8078
5.145270 90.560 -73.3530
5.182555 90.626 -73.8974
5.220110 90.690 -74.4410
5.257937 90.755 -74.9839
5.296038 90.819 -75.5261
5.334415 90.882 -76.0675
5.373071 90.945 -76.6079
5.412006 91.008 -77.1471
5.451224 91.070 -77.6852
5.490725 91.132 -78.2221
5.530514 91.193 -78.7580
5.570590 91.254 -79.2929
5.610957 91.314 -79.8271
5.651616 91.374 -80.3605
5.692570 91.434 -80.8930
5.733821 91.493 -81.4247
5.775370 91.551 -81.9554
5.817221 91.609 -82.4852
5.859375 91.667 -83.0141
5.901834 91.725 -83.5423
5.944602 91.782 -84.0697
5.987679 91.838 -84.5965
6.031068 91.894 -85.1226
6.074771 91.950 -85.6481
6.118792 92.005 -86.1728
6.163131 92.059 -86.6968
6.207792 92.114 -87.2200
6.252776 92.167 -87.7426
6.298086 92.221 -88.2647
6.343725 92.273 -88.7861
6.389694 92.325 -89.3069
6.435996 92.377 -89.8269
6.482634 92.428 -90.3459
6.529610 92.479 -90.8638
6.576926 92.529 -91.3806
6.624585 92.578 -91.8961
6.672590 92.627 -92.4105
6.720942 92.675 -92.9237
6.769645 92.722 -93.4354
6.818700 92.769 -93.9454
6.868111 92.816 -94.4532
6.917881 92.861 -94.9588
6.968010 92.906 -95.4619
7.018504 92.951 -95.9624
7.069362 92.995 -96.4604
7.120590 93.038 -96.9556
7.172189 93.081 -97.4479
7.224161 93.124 -97.9369
7.276511 93.166 -98.4223
7.329239 93.207 -98.9041
7.382350 93.248 -99.3821
7.435845 93.289 -99.8564
7.489729 93.330 -100.3271
7.544002 93.371 -100.7943
7.598669 93.411 -101.2579
7.653732 93.451 -101.7182
7.709194 93.492 -102.1752
7.765058 93.532 -102.6290
7.821327 93.573 -103.0800
7.878004 93.613 -103.5286
7.935091 93.654 -103.9755
7.992592 93.696 -104.4213
8.050510 93.737 -104.8663
8.108847 93.779 -105.3111
8.167607 93.821 -105.7561
8.226793 93.863 -106.2019
8.286408 93.906 -106.6493
8.346454 93.949 -107.0992
8.406936 93.992 -107.5521
8.467856 94.035 -108.0088
8.529218 94.078 -108.4695
8.591024 94.121 -108.9346
8.653278 94.164 -109.4045
8.715983 94.207 -109.8795
8.779143 94.248 -110.3601
8.842760 94.290 -110.8462
8.906839 94.330 -111.3379
8.971381 94.370 -111.8347
9.036392 94.408 -112.3361
9.101873 94.445 -112.8416
9.167829 94.481 -113.3506
9.234263 94.515 -113.8625
9.301178 94.547 -114.3764
9.368578 94.578 -114.8910
9.436467 94.607 -115.4051
9.504847 94.634 -115.9172
9.573723 94.659 -116.4261
9.643099 94.683 -116.9307
9.712976 94.704 -117.4297
9.783361 94.724 -117.9217
9.854255 94.743 -118.4051
9.925663 94.760 -118.8787
9.997588 94.775 -119.3417
10.070035 94.790 -119.7934
10.143007 94.804 -120.2332
10.216507 94.818 -120.6606
10.290540 94.831 -121.0753
10.365109 94.845 -121.4775
10.440219 94.859 -121.8677
10.515873 94.873 -122.2469
10.592076 94.888 -122.6162
10.668830 94.905 -122.9767
10.746141 94.922 -123.3299
10.824012 94.941 -123.6774
10.902447 94.962 -124.0213
10.981451 94.983 -124.3637
11.061027 95.007 -124.7064
11.141180 95.031 -125.0509
11.221913 95.057 -125.3990
11.303232 95.083 -125.7523
11.385140 95.110 -126.1120
11.467641 95.138 -126.4789
11.550741 95.166 -126.8534
11.634442 95.193 -127.2356
11.718750 95.220 -127.6251
11.803669 95.246 -128.0213
11.889203 95.271 -128.4234
11.975357 95.295 -128.8297
12.062136 95.317 -129.2385
12.149543 95.338 -129.6482
12.237583 95.357 -130.0570
12.326262 95.375 -130.4629
12.415583 95.391 -130.8640
12.505552 95.406 -131.2586
12.596172 95.420 -131.6454
12.687449 95.434 -132.0233
12.779387 95.447 -132.3918
12.871992 95.460 -132.7504
12.965268 95.473 -133.0995
13.059220 95.487 -133.4400
13.153852 95.502 -133.7730
13.249170 95.518 -134.1002
13.345179 95.535 -134.4234
13.441884 95.554 -134.7449
13.539289 95.574 -135.0671
13.637401 95.596 -135.3923
13.736223 95.619 -135.7226
13.835761 95.642 -136.0601
13.936021 95.667 -136.4062
14.037007 95.692 -136.7623
14.138725 95.716 -137.1288
14.241180 95.741 -137.5059
14.344377 95.764 -137.8932
14.448323 95.787 -138.2898
14.553021 95.807 -138.6943
14.658478 95.827 -139.1047
14.764700 95.844 -139.5191
14.871691 95.859 -139.9353
14.979457 95.872 -140.3508
15.088005 95.883 -140.7634
15.197339 95.892 -141.1709
15.307465 95.900 -141.5714
15.418389 95.906 -141.9633
15.530117 95.911 -142.3454
15.642655 95.916 -142.7170
15.756008 95.920 -143.0777
15.870182 95.923 -143.4276
15.985184 95.927 -143.7673
16.101019 95.931 -144.0977
16.217694 95.936 -144.4199
16.335214 95.942 -144.7354
16.453586 95.948 -145.0458
16.572815 95.956 -145.3528
16.692909 95.964 -145.6579
16.813872 95.973 -145.9627
16.935713 95.983 -146.2687
17.058436 95.994 -146.5770
17.182048 96.005 -146.8884
17.306556 96.016 -147.2034
17.431967 96.027 -147.5224
17.558286 96.038 -147.8451
17.685521 96.049 -148.1711
17.813677 96.059 -148.4995
17.942762 96.068 -148.8292
18.072783 96.077 -149.1591
18.203746 96.085 -149.4878
18.335658 96.092 -149.8140
18.468526 96.098 -150.1367
18.602356 96.104 -150.4550
18.737156 96.110 -150.7686
18.872934 96.116 -151.0775
19.009695 96.122 -151.3823
19.147447 96.129 -151.6840
19.286197 96.136 -151.9841
19.425953 96.143 -152.2841
19.566721 96.152 -152.5857
19.708510 96.160 -152.8903
19.851326 96.168 -153.1991
19.995177 96.177 -153.5121
20.140070 96.184 -153.8289
20.286013 96.190 -154.1482
20.433014 96.195 -154.4678
20.581080 96.198 -154.7846
20.730219 96.200 -155.0957
20.880439 96.200 -155.3976
21.031747 96.200 -155.6877
21.184152 96.199 -155.9638
21.337661 96.198 -156.2252
21.492282 96.198 -156.4724
21.648024 96.200 -156.7076
21.804895 96.204 -156.9341
21.962902 96.210 -157.1564
22.122054 96.218 -157.3795
22.282360 96.229 -157.6081
22.443827 96.241 -157.8464
22.606464 96.254 -158.0973
22.770280 96.267 -158.3619
22.935283 96.280 -158.6398
23.101481 96.291 -158.9286
23.268884 96.300 -159.2249
23.437500 96.307 -159.5243
23.607338 96.312 -159.8223
23.778406 96.314 -160.1149
23.950714 96.315 -160.3992
24.124271 96.316 -160.6736
24.299086 96.315 -160.9382
24.475167 96.315 -161.1945
24.652524 96.315 -161.4449
24.831166 96.316 -161.6921
25.011103 96.317 -161.9388
25.192344 96.318 -162.1867
25.374898 96.318 -162.4363
25.558775 96.318 -162.6870
25.743984 96.317 -162.9369
25.930536 96.315 -163.1835
26.118439 96.311 -163.4243
26.307704 96.308 -163.6573
26.498341 96.304 -163.8819
26.690359 96.301 -164.0990
26.883768 96.299 -164.3112
27.078579 96.299 -164.5224
27.274801 96.300 -164.7370
27.472446 96.303 -164.9596
27.671522 96.306 -165.1938
27.872042 96.310 -165.4414
28.074014 96.313 -165.7027
28.277450 96.315 -165.9755
28.482360 96.315 -166.2565
28.688755 96.314 -166.5411
28.896645 96.310 -166.8250
29.106042 96.305 -167.1042
29.316957 96.299 -167.3765
29.529400 96.292 -167.6410
29.743382 96.286 -167.8988
29.958915 96.281 -168.1519
30.176009 96.276 -168.4034
30.394677 96.273 -168.6561
30.614929 96.269 -168.9120
30.836778 96.266 -169.1721
31.060234 96.263 -169.4358
31.285309 96.259 -169.7014
31.512015 96.254 -169.9664
31.740364 96.248 -170.2277
31.970368 96.241 -170.4828
32.202039 96.234 -170.7298
32.435388 96.227 -170.9681
32.670428 96.221 -171.1983
32.907171 96.215 -171.4222
33.145630 96.210 -171.6427
33.385817 96.206 -171.8626
33.627745 96.203 -172.0844
33.871425 96.200 -172.3098
34.116871 96.196 -172.5385
34.364096 96.192 -172.7689
34.613113 96.187 -172.9982
34.863934 96.180 -173.2232
35.116572 96.173 -173.4412
35.371041 96.165 -173.6513
35.627354 96.159 -173.8546
35.885525 96.153 -174.0545
36.145566 96.148 -174.2555
36.407492 96.144 -174.4622
36.671316 96.140 -174.6776
36.937051 96.135 -174.9021
37.204712 96.130 -175.1335
37.474313 96.122 -175.3676
37.745867 96.114 -175.5999
38.019389 96.104 -175.8269
38.294893 96.094 -176.0476
38.572394 96.084 -176.2634
38.851905 96.075 -176.4773
39.133442 96.066 -176.6926
39.417019 96.057 -176.9113
39.702651 96.048 -177.1327
39.990353 96.038 -177.3544
40.280140 96.027 -177.5728
40.572026 96.016 -177.7845
40.866028 96.005 -177.9883
41.162160 95.994 -178.1850
41.460438 95.985 -178.3772
41.760877 95.976 -178.5685
42.063494 95.969 -178.7619
42.368303 95.961 -178.9589
42.675322 95.953 -179.1590
42.984565 95.945 -179.3603
43.296048 95.936 -179.5605
43.609789 95.926 -179.7573
43.925804 95.916 -179.9498
44.244108 95.906 179.8615
44.564719 95.897 179.6742
44.887654 95.888 179.4851
45.212928 95.879 179.2911
45.540560 95.870 179.0905
45.870565 95.859 178.8840
46.202962 95.847 178.6751
46.537768 95.833 178.4694
46.875000 95.817 178.2725
47.214676 95.800 178.0881
47.556813 95.784 177.9162
47.901429 95.769 177.7527
48.248542 95.756 177.5906
48.598171 95.744 177.4233
48.950334 95.733 177.2465
49.305048 95.722 177.0598
49.662333 95.709 176.8669
50.022206 95.695 176.6728
50.384688 95.680 176.4813
50.749796 95.664 176.2938
51.117550 95.648 176.1091
51.487969 95.632 175.9250
51.861072 95.616 175.7409
52.236879 95.599 175.5580
52.615409 95.582 175.3792
52.996681 95.565 175.2067
53.380717 95.548 175.0400
53.767536 95.532 174.8759
54.157158 95.517 174.7103
54.549603 95.503 174.5406
54.944892 95.489 174.3677
55.343045 95.474 174.1954
55.744084 95.460 174.0280
56.148028 95.445 173.8676
56.554900 95.431 173.7130
56.964720 95.419 173.5604
57.377510 95.407 173.4056
57.793291 95.395 173.2458
58.212085 95.383 173.0812
58.633914 95.370 172.9137
59.058799 95.356 172.7461
59.486764 95.340 172.5808
59.917829 95.324 172.4182
60.352019 95.306 172.2569
60.789354 95.288 172.0945
61.229859 95.269 171.9293
61.673556 95.248 171.7617
62.120468 95.225 171.5953
62.570618 95.201 171.4342
63.024031 95.177 171.2805
63.480729 95.153 171.1328
63.940736 95.131 170.9875
64.404077 95.108 170.8422
64.870776 95.087 170.6976
65.340856 95.066 170.5562
65.814343 95.046 170.4198
66.291261 95.028 170.2877
66.771635 95.011 170.1577
67.255489 94.996 170.0267
67.742850 94.982 169.8917
68.233743 94.968 169.7497
68.728193 94.954 169.6004
69.226226 94.938 169.4480
69.727867 94.919 169.2988
70.233144 94.899 169.1562
70.742083 94.878 169.0172
71.254709 94.855 168.8774
71.771050 94.829 168.7377
72.291132 94.801 168.6052
72.814984 94.771 168.4859
73.342631 94.741 168.3770
73.874102 94.712 168.2676
74.409424 94.683 168.1474
74.948626 94.653 168.0135
75.491734 94.621 167.8716
76.038779 94.588 167.7305
76.589787 94.553 167.5964
77.144788 94.519 167.4712
77.703811 94.486 167.3521
78.266885 94.455 167.2361
78.834039 94.426 167.1228
79.405303 94.399 167.0135
79.980706 94.375 166.9082
80.560280 94.352 166.8047
81.144053 94.332 166.7012
81.732056 94.313 166.5992
82.324320 94.294 166.5026
82.920876 94.274 166.4152
83.521755 94.255 166.3385
84.126988 94.234 166.2725
84.736607 94.213 166.2164
85.350643 94.190 166.1682
85.969129 94.167 166.1232
86.592097 94.143 166.0754
87.219579 94.117 166.0214
87.851608 94.091 165.9609
88.488217 94.065 165.8928
89.129439 94.039 165.8137
89.775308 94.013 165.7214
90.425856 93.988 165.6186
91.081119 93.964 165.5097
91.741131 93.940 165.3979
92.405925 93.916 165.2858
93.075536 93.891 165.1766
93.750000 93.866 165.0727
94.429351 93.839 164.9751
95.113625 93.809 164.8856
95.802858 93.776 164.8063
96.497085 93.741 164.7362
97.196342 93.704 164.6696
97.900667 93.666 164.6005
98.610096 93.628 164.5261
99.324665 93.588 164.4456
100.044413 93.548 164.3597
100.769376 93.507 164.2719
101.499592 93.465 164.1894
102.235100 93.421 164.1245
102.975938 93.375 164.0920
103.722144 93.328 164.1039
104.473757 93.280 164.1640
105.230817 93.234 164.2678
105.993363 93.189 164.4095
106.761435 93.145 164.5845
107.535072 93.103 164.7871
108.314315 93.063 165.0081
109.099206 93.025 165.2403
109.889783 92.988 165.4830
110.686090 92.955 165.7419
111.488167 92.926 166.0203
112.296056 92.905 166.3121
113.109800 92.894 166.6011
113.929440 92.896 166.8687
114.755020 92.912 167.0966
115.586582 92.943 167.2626
116.424170 92.987 167.3377
117.267827 93.039 167.3005
118.117598 93.090 167.1564
118.973527 93.133 166.9455
119.835658 93.164 166.7325
120.704037 93.185 166.5724
121.578708 93.199 166.4754
122.459718 93.209 166.4122
123.347111 93.214 166.3475
124.240935 93.212 166.2618
125.141236 93.200 166.1523
126.048061 93.179 166.0253
126.961458 93.152 165.8872
127.881473 93.122 165.7412
128.808154 93.091 165.5907
129.741551 93.060 165.4407
130.681712 93.029 165.2980
131.628686 92.998 165.1693
132.582521 92.965 165.0587
133.543269 92.930 164.9654
134.510979 92.894 164.8853
135.485701 92.857 164.8125
136.467486 92.822 164.7402
137.456386 92.789 164.6609
138.452451 92.760 164.5698
139.455735 92.735 164.4674
140.466288 92.712 164.3607
141.484165 92.689 164.2615
142.509418 92.665 164.1824
143.542100 92.640 164.1326
144.582265 92.613 164.1136
145.629968 92.585 164.1191
146.685262 92.557 164.1379
147.748204 92.530 164.1595
148.818849 92.503 164.1771
149.897251 92.478 164.1873
150.983469 92.454 164.1891
152.077557 92.431 164.1831
153.179574 92.407 164.1716
154.289576 92.382 164.1582
155.407622 92.355 164.1456
156.533770 92.327 164.1346
157.668078 92.299 164.1258
158.810606 92.270 164.1195
159.961413 92.242 164.1161
161.120559 92.214 164.1154
162.288105 92.187 164.1175
163.464112 92.160 164.1238
164.648640 92.134 164.1358
165.841752 92.107 164.1527
167.043510 92.081 164.1722
168.253976 92.055 164.1927
169.473213 92.028 164.2134
170.701286 92.000 164.2347
171.938258 91.972 164.2576
173.184194 91.944 164.2833
174.439158 91.915 164.3127
175.703216 91.886 164.3459
176.976434 91.856 164.3829
178.258878 91.825 164.4249
179.550615 91.795 164.4731
180.851713 91.764 164.5284
182.162239 91.733 164.5914
183.482262 91.702 164.6621
184.811850 91.672 164.7404
186.151073 91.642 164.8268
187.500000 91.613 164.9227
188.858702 91.585 165.0292
190.227250 91.559 165.1475
191.605715 91.534 165.2783
192.994169 91.512 165.4190
194.392685 91.492 165.5635
195.801334 91.475 165.7039
197.220191 91.461 165.8312
198.649330 91.450 165.9381
200.088825 91.439 166.0211
201.538751 91.429 166.0811
202.999184 91.419 166.1207
204.470200 91.407 166.1443
205.951875 91.394 166.1594
207.444287 91.378 166.1727
208.947514 91.360 166.1869
210.461634 91.341 166.2032
211.986726 91.320 166.2239
213.522869 91.297 166.2504
215.070144 91.274 166.2822
216.628631 91.250 166.3193
218.198411 91.225 166.3636
219.779567 91.201 166.4159
221.372180 91.176 166.4718
222.976334 91.150 166.5262
224.592112 91.122 166.5842
226.219600 91.091 166.6658
227.858880 91.060 166.7971
229.510039 91.033 166.9922
231.173164 91.017 167.2362
232.848340 91.014 167.4842
234.535655 91.023 167.6801
236.235197 91.040 167.7847
237.947054 91.055 167.7945
239.671317 91.062 167.7404
241.408074 91.058 167.6677
243.157416 91.042 167.6154
244.919435 91.018 167.6054
246.694223 90.986 167.6418
248.481871 90.949 167.7177
250.282473 90.908 167.8230
252.096123 90.864 167.9489
253.922915 90.818 168.0862
255.762945 90.772 168.2264
257.616309 90.729 168.3609
259.483103 90.690 168.4839
261.363424 90.656 168.5957
263.257372 90.628 168.7014
265.165043 90.603 168.8070
267.086538 90.581 168.9160
269.021957 90.561 169.0289
270.971401 90.541 169.1442
272.934972 90.520 169.2609
274.912771 90.499 169.3794
276.904902 90.478 169.5012
278.911469 90.458 169.6281
280.932577 90.438 169.7602
282.968330 90.418 169.8958
285.018835 90.398 170.0321
287.084199 90.379 170.1662
289.164530 90.360 170.2965
291.259935 90.341 170.4230
293.370525 90.323 170.5477
295.496408 90.305 170.6726
297.637697 90.287 170.7983
299.794503 90.269 170.9254
301.966937 90.252 171.0546
304.155114 90.234 171.1876
306.359147 90.217 171.3250
308.579152 90.199 171.4655
310.815244 90.182 171.6073
313.067539 90.164 171.7489
315.336156 90.147 171.8895
317.621211 90.130 172.0297
319.922826 90.113 172.1705
322.241118 90.096 172.3128
324.576210 90.079 172.4568
326.928223 90.062 172.6026
329.297280 90.045 172.7499
331.683504 90.028 172.8985
334.087019 90.012 173.0483
336.507952 89.995 173.2007
338.946427 89.979 173.3571
341.402572 89.964 173.5176
343.876516 89.949 173.6793
346.368387 89.934 173.8382
348.878315 89.920 173.9919
351.406431 89.905 174.1403
353.952867 89.890 174.2852
356.517756 89.874 174.4299
359.101230 89.858 174.5779
361.703426 89.842 174.7307
364.324478 89.826 174.8885
366.964523 89.811 175.0514
369.623699 89.796 175.2197
372.302145 89.782 175.3934
375.000000 89.768 175.5717
377.717405 89.755 175.7534
380.454501 89.742 175.9384
383.211431 89.729 176.1266
385.988339 89.716 176.3173
388.785369 89.703 176.5079
391.602668 89.689 176.6942
394.440383 89.675 176.8720
397.298660 89.662 177.0410
400.177650 89.651 177.2066
403.077502 89.641 177.3780
405.998368 89.632 177.5618
408.940400 89.623 177.7567
411.903750 89.611 177.9552
414.888575 89.599 178.1495
417.895028 89.585 178.3375
420.923268 89.572 178.5217
423.973452 89.559 178.7049
427.045738 89.547 178.8887
430.140287 89.535 179.0746
433.257261 89.524 179.2631
436.396822 89.512 179.4540
439.559133 89.501 179.6471
442.744360 89.490 179.8418
445.952668 89.480 -179.9623
449.184225 89.470 -179.7654
452.439199 89.461 -179.5669
455.717760 89.452 -179.3666
459.020079 89.443 -179.1647
462.346327 89.434 -178.9618
465.696680 89.425 -178.7584
469.071310 89.416 -178.5540
472.470394 89.407 -178.3478
475.894109 89.399 -178.1392
479.342634 89.390 -177.9286
482.816148 89.382 -177.7165
486.314833 89.373 -177.5030
489.838871 89.365 -177.2881
493.388445 89.357 -177.0714
496.963741 89.349 -176.8530
500.564945 89.342 -176.6335
504.192245 89.334 -176.4132
507.845830 89.327 -176.1923
511.525890 89.320 -175.9704
515.232618 89.313 -175.7466
518.966206 89.307 -175.5207
522.726849 89.300 -175.2928
526.514743 89.295 -175.0633
530.330086 89.289 -174.8324
534.173076 89.283 -174.6002
538.043915 89.278 -174.3663
541.942803 89.273 -174.1303
545.869944 89.268 -173.8920
549.825542 89.263 -173.6515
553.809805 89.258 -173.4092
557.822939 89.253 -173.1653
561.865154 89.249 -172.9196
565.936660 89.244 -172.6718
570.037671 89.241 -172.4217
574.168399 89.237 -172.1695
578.329060 89.234 -171.9154
582.519870 89.231 -171.6598
586.741049 89.228 -171.4029
590.992817 89.225 -171.1446
595.275394 89.223 -170.8843
599.589005 89.221 -170.6215
603.933874 89.220 -170.3558
608.310228 89.218 -170.0874
612.718295 89.217 -169.8166
617.158304 89.217 -169.5441
621.630488 89.216 -169.2699
626.135079 89.216 -168.9939
630.672311 89.217 -168.7159
635.242423 89.217 -168.4356
639.845651 89.218 -168.1530
644.482237 89.219 -167.8680
649.152421 89.221 -167.5802
653.856447 89.223 -167.2897
658.594560 89.226 -166.9964
663.367008 89.229 -166.7006
668.174039 89.232 -166.4024
673.015903 89.236 -166.1020
677.892854 89.241 -165.7995
682.805145 89.246 -165.4948
687.753032 89.251 -165.1877
692.736774 89.257 -164.8776
697.756631 89.263 -164.5641
702.812863 89.270 -164.2472
707.905735 89.277 -163.9272
713.035511 89.285 -163.6041
718.202461 89.294 -163.2781
723.406852 89.302 -162.9488
728.648956 89.312 -162.6167
733.929047 89.322 -162.2820
739.247399 89.333 -161.9451
744.604290 89.345 -161.6060
750.000000 89.358 -161.2646
755.434809 89.371 -160.9207
760.909001 89.386 -160.5744
766.422861 89.401 -160.2259
771.976677 89.417 -159.8753
777.570739 89.433 -159.5226
783.205337 89.451 -159.1680
788.880766 89.470 -158.8118
794.597321 89.489 -158.4545
800.355301 89.509 -158.0962
806.155005 89.531 -157.7368
811.996736 89.553 -157.3761
817.880799 89.576 -157.0139
823.807501 89.601 -156.6503
829.777150 89.626 -156.2854
835.790057 89.653 -155.9194
841.846536 89.680 -155.5524
847.946903 89.709 -155.1847
854.091476 89.739 -154.8169
860.280575 89.770 -154.4494
866.514523 89.802 -154.0826
872.793644 89.835 -153.7168
879.118267 89.870 -153.3522
885.488720 89.905 -152.9887
891.905336 89.942 -152.6262
898.368450 89.980 -152.2648
904.878398 90.020 -151.9050
911.435520 90.061 -151.5474
918.040157 90.103 -151.1926
924.692655 90.146 -150.8405
931.393359 90.190 -150.4912
938.142619 90.236 -150.1449
944.940787 90.283 -149.8024
951.788218 90.331 -149.4643
958.685268 90.381 -149.1313
965.632296 90.431 -148.8040
972.629666 90.483 -148.4824
979.677741 90.536 -148.1666
986.776890 90.590 -147.8563
993.927482 90.645 -147.5518
1001.129891 90.701 -147.2532
1008.384491 90.758 -146.9610
1015.691660 90.816 -146.6755
1023.051781 90.875 -146.3971
1030.465236 90.935 -146.1262
1037.932411 90.995 -145.8634
1045.453698 91.057 -145.6098
1053.029486 91.119 -145.3656
1060.660172 91.182 -145.1306
1068.346153 91.246 -144.9039
1076.087829 91.310 -144.6854
1083.885605 91.374 -144.4749
1091.739887 91.439 -144.2726
1099.651084 91.504 -144.0784
1107.619609 91.569 -143.8923
1115.645878 91.634 -143.7141
1123.730308 91.700 -143.5435
1131.873321 91.765 -143.3800
1140.075341 91.831 -143.2234
1148.336797 91.896 -143.0738
1156.658119 91.961 -142.9312
1165.039741 92.026 -142.7957
1173.482099 92.091 -142.6669
1181.985634 92.156 -142.5447
1190.550789 92.221 -142.4285
1199.178011 92.286 -142.3180
1207.867749 92.351 -142.2129
1216.620457 92.415 -142.1131
1225.436590 92.479 -142.0180
1234.316609 92.543 -141.9273
1243.260976 92.606 -141.8409
1252.270157 92.670 -141.7586
1261.344623 92.733 -141.6802
1270.484846 92.797 -141.6055
1279.691303 92.860 -141.5344
1288.964474 92.923 -141.4666
1298.304842 92.986 -141.4022
1307.712894 93.049 -141.3410
1317.189120 93.113 -141.2829
1326.734016 93.176 -141.2277
1336.348077 93.239 -141.1751
1346.031806 93.302 -141.1249
1355.785708 93.365 -141.0772
1365.610290 93.428 -141.0322
1375.506065 93.491 -140.9903
1385.473549 93.555 -140.9515
1395.513261 93.618 -140.9159
1405.625726 93.681 -140.8835
1415.811469 93.744 -140.8539
1426.071023 93.808 -140.8273
1436.404921 93.871 -140.8033
1446.813703 93.934 -140.7821
1457.297912 93.998 -140.7637
1467.858093 94.061 -140.7480
1478.494798 94.125 -140.7351
1489.208581 94.189 -140.7247
1500.000000 94.253 -140.7169
1510.869618 94.317 -140.7116
1521.818002 94.381 -140.7088
1532.845723 94.445 -140.7085
1543.953355 94.510 -140.7103
1555.141477 94.574 -140.7139
1566.410674 94.639 -140.7193
1577.761531 94.705 -140.7265
1589.194642 94.770 -140.7355
1600.710601 94.836 -140.7467
1612.310010 94.903 -140.7603
1623.993473 94.969 -140.7763
1635.761599 95.037 -140.7950
1647.615002 95.105 -140.8164
1659.554299 95.173 -140.8405
1671.580114 95.242 -140.8674
1683.693072 95.311 -140.8973
1695.893807 95.381 -140.9306
1708.182952 95.452 -140.9676
1720.561150 95.523 -141.0086
1733.029045 95.595 -141.0540
1745.587288 95.668 -141.1042
1758.236533 95.742 -141.1595
1770.977440 95.816 -141.2201
1783.810673 95.891 -141.2861
1796.736900 95.967 -141.3580
1809.756796 96.044 -141.4359
1822.871040 96.121 -141.5203
1836.080315 96.200 -141.6119
1849.385310 96.279 -141.7113
1862.786718 96.359 -141.8192
1876.285239 96.440 -141.9359
1889.881575 96.521 -142.0619
1903.576436 96.604 -142.1974
1917.370535 96.687 -142.3429
1931.264593 96.770 -142.4986
1945.259332 96.855 -142.6649
1959.355483 96.940 -142.8422
1973.553781 97.025 -143.0310
1987.854965 97.111 -143.2318
2002.259781 97.198 -143.4451
2016.768981 97.285 -143.6716
2031.383320 97.372 -143.9114
2046.103561 97.460 -144.1651
2060.930471 97.548 -144.4330
2075.864823 97.636 -144.7155
2090.907395 97.724 -145.0130
2106.058972 97.812 -145.3260
2121.320344 97.901 -145.6548
2136.692305 97.989 -146.0000
2152.175658 98.076 -146.3618
2167.771210 98.164 -146.7407
2183.479774 98.251 -147.1370
2199.302169 98.338 -147.5508
2215.239219 98.423 -147.9825
2231.291755 98.508 -148.4321
2247.460615 98.593 -148.8997
2263.746641 98.676 -149.3855
2280.150683 98.757 -149.8896
2296.673595 98.838 -150.4121
2313.316238 98.917 -150.9531
2330.079481 98.994 -151.5126
2346.964198 99.070 -152.0905
2363.971268 99.144 -152.6866
2381.101578 99.215 -153.3007
2398.356022 99.285 -153.9323
2415.735498 99.352 -154.5809
2433.240913 99.416 -155.2458
2450.873180 99.478 -155.9267
2468.633217 99.536 -156.6227
2486.521951 99.592 -157.3334
2504.540314 99.644 -158.0580
2522.689246 99.693 -158.7956
2540.969692 99.739 -159.5455
2559.382606 99.781 -160.3064
2577.928947 99.819 -161.0773
2596.609683 99.854 -161.8569
2615.425787 99.885 -162.6440
2634.378241 99.911 -163.4373
2653.468031 99.934 -164.2357
2672.696154 99.953 -165.0379
2692.063613 99.967 -165.8424
2711.571415 99.978 -166.6479
2731.220579 99.984 -167.4528
2751.012130 99.986 -168.2558
2770.947098 99.984 -169.0553
2791.026522 99.978 -169.8500
2811.251451 99.968 -170.6385
2831.622938 99.954 -171.4194
2852.142045 99.936 -172.1917
2872.809842 99.914 -172.9539
2893.627406 99.888 -173.7052
2914.595823 99.859 -174.4443
2935.716186 99.827 -175.1701
2956.989596 99.791 -175.8815
2978.417161 99.751 -176.5774
3000.000000 99.709 -177.2569
3021.739237 99.664 -177.9189
3043.636005 99.615 -178.5625
3065.691446 99.565 -179.1867
3087.906710 99.511 -179.7908
3110.282955 99.455 179.6263
3132.821347 99.398 179.0654
3155.523062 99.338 178.5276
3178.389283 99.277 178.0137
3201.421202 99.215 177.5248
3224.620020 99.152 177.0617
3247.986946 99.089 176.6247
3271.523198 99.026 176.2133
3295.230004 98.964 175.8258
3319.108599 98.903 175.4596
3343.160228 98.844 175.1107
3367.386145 98.788 174.7740
3391.787613 98.733 174.4442
3416.365904 98.680 174.1162
3441.122300 98.628 173.7866
3466.058091 98.577 173.4537
3491.174576 98.525 173.1185
3516.473066 98.471 172.7840
3541.954880 98.417 172.4545
3567.621345 98.361 172.1345
3593.473800 98.304 171.8273
3619.513592 98.246 171.5349
3645.742080 98.188 171.2575
3672.160630 98.130 170.9945
3698.770620 98.073 170.7442
3725.573436 98.017 170.5046
3752.570477 97.962 170.2739
3779.763150 97.907 170.0504
3807.152872 97.854 169.8324
3834.741071 97.801 169.6189
3862.529185 97.750 169.4088
3890.518664 97.699 169.2013
3918.710966 97.649 168.9955
3947.107561 97.600 168.7905
3975.709929 97.551 168.5854
4004.519563 97.503 168.3795
4033.537962 97.456 168.1716
4062.766641 97.409 167.9608
4092.207123 97.362 167.7460
4121.860942 97.315 167.5266
4151.729646 97.269 167.3019
4181.814790 97.222 167.0717
4212.117944 97.175 166.8358
4242.640687 97.127 166.5943
4273.384610 97.078 166.3476
4304.351317 97.028 166.0963
4335.542421 96.977 165.8406
4366.959549 96.925 165.5814
4398.604338 96.872 165.3190
4430.478438 96.817 165.0541
4462.583511 96.760 164.7871
4494.921231 96.702 164.5187
4527.493283 96.642 164.2494
4560.301365 96.580 163.9798
4593.347189 96.516 163.7103
4626.632476 96.450 163.4415
4660.158962 96.382 163.1741
4693.928395 96.311 162.9087
4727.942535 96.239 162.6464
4762.203156 96.163 162.3887
4796.712043 96.086 162.1375
4831.470996 96.005 161.8947
4866.481826 95.922 161.6624
4901.746360 95.836 161.4424
4937.266434 95.748 161.2369
4973.043902 95.658 161.0475
5009.080628 95.565 160.8760
5045.378492 95.470 160.7245
5081.939384 95.374 160.5949
5118.765212 95.277 160.4888
5155.857894 95.178 160.4075
5193.219366 95.079 160.3517
5230.851574 94.980 160.3214
5268.756481 94.881 160.3159
5306.936062 94.783 160.3343
5345.392309 94.686 160.3749
5384.127225 94.590 160.4362
5423.142830 94.495 160.5164
5462.441159 94.402 160.6137
5502.024259 94.310 160.7267
5541.894195 94.219 160.8546
5582.053045 94.129 160.9965
5622.502902 94.040 161.1523
5663.245876 93.952 161.3226
5704.284090 93.864 161.5081
5745.619684 93.776 161.7104
5787.254813 93.689 161.9316
5829.191647 93.602 162.1741
5871.432373 93.516 162.4406
5913.979192 93.430 162.7338
5956.834323 93.345 163.0563
6000.000000 93.262 163.4106
6043.478473 93.180 163.7986
6087.272010 93.102 164.2215
6131.382892 93.027 164.6800
6175.813420 92.956 165.1741
6220.565910 92.891 165.7034
6265.642695 92.831 166.2665
6311.046124 92.779 166.8619
6356.778566 92.734 167.4867
6402.842404 92.698 168.1370
6449.240040 92.672 168.8079
6495.973891 92.657 169.4935
6543.046396 92.653 170.1871
6590.460007 92.661 170.8810
6638.217197 92.682 171.5667
6686.320456 92.717 172.2343
6734.772290 92.766 172.8732
6783.575226 92.829 173.4716
6832.731809 92.906 174.0177
6882.244600 92.996 174.4992
6932.116181 93.100 174.9041
6982.349153 93.217 175.2197
7032.946133 93.347 175.4323
7083.909760 93.487 175.5275
7135.242690 93.637 175.4906
7186.947600 93.795 175.3066
7239.027185 93.959 174.9609
7291.484160 94.126 174.4401
7344.321260 94.292 173.7318
7397.541239 94.454 172.8268
7451.146872 94.606 171.7195
7505.140954 94.745 170.4102
7559.526299 94.864 168.9054
7614.305743 94.959 167.2189
7669.482141 95.025 165.3710
7725.058371 95.058 163.3882
7781.037328 95.054 161.3021
7837.421932 95.010 159.1479
7894.215122 94.926 156.9630
7951.419859 94.801 154.7854
8009.039125 94.636 152.6526
8067.075924 94.431 150.5998
8125.533282 94.190 148.6592
8184.414245 93.915 146.8589
8243.721885 93.610 145.2219
8303.459292 93.279 143.7659
8363.629581 92.927 142.5035
8424.235888 92.556 141.4421
8485.281374 92.172 140.5850
8546.769221 91.778 139.9324
8608.702634 91.377 139.4813
8671.084842 90.973 139.2264
8733.919097 90.568 139.1601
8797.208675 90.165 139.2730
8860.956876 89.766 139.5549
8925.167022 89.373 139.9948
8989.842461 88.986 140.5816
9054.986566 88.607 141.3051
9120.602731 88.236 142.1556
9186.694378 87.873 143.1257
9253.264952 87.520 144.2089
9320.317925 87.175 145.3998
9387.856790 86.840 146.6935
9455.885071 86.514 148.0844
9524.406312 86.199 149.5670
9593.424086 85.894 151.1353
9662.941992 85.599 152.7839
9732.963653 85.315 154.5076
9803.492719 85.042 156.3022
9874.532869 84.779 158.1638
9946.087805 84.527 160.0890
10018.161257 84.287 162.0740
10090.756983 84.058 164.1155
10163.878768 83.842 166.2103
10237.530423 83.637 168.3558
10311.715789 83.446 170.5503
10386.438732 83.267 172.7920
10461.703149 83.102 175.0798
10537.512962 82.949 177.4127
10613.872125 82.810 179.7894
10690.784618 82.686 -177.7911
10768.254450 82.576 -175.3302
10846.285661 82.481 -172.8299
10924.882318 82.403 -170.2930
11004.048518 82.342 -167.7227
11083.788390 82.299 -165.1228
11164.106090 82.275 -162.4969
11245.005805 82.270 -159.8491
11326.491752 82.287 -157.1833
11408.568180 82.326 -154.5044
11491.239368 82.389 -151.8178
11574.509626 82.477 -149.1303
11658.383294 82.592 -146.4495
11742.864745 82.737 -143.7839
11827.958384 82.912 -141.1431
11913.668646 83.121 -138.5383
12000.000000 83.367 -135.9823
12086.956947 83.652 -133.4903
12174.544019 83.979 -131.0810
12262.765784 84.354 -128.7782
12351.626840 84.780 -126.6128
12441.131819 85.261 -124.6254
12531.285389 85.801 -122.8682
12622.092249 86.404 -121.4064
12713.557132 87.070 -120.3212
12805.684808 87.797 -119.7098
12898.480079 88.580 -119.6838
12991.947783 89.404 -120.3629
13086.092792 90.252 -121.8646
13180.920015 91.095 -124.2892
13276.434395 91.900 -127.7035
13372.640911 92.629 -132.1220
13469.544580 93.239 -137.4899
13567.150452 93.692 -143.6682
13665.463617 93.953 -150.4276
13764.489200 93.999 -157.4590
13864.232362 93.825 -164.4078
13964.698305 93.441 -170.9250
14065.892266 92.875 -176.7163
14167.819519 92.162 178.4291
14270.485380 91.347 174.6309
14373.895200 90.472 171.9246
14478.054370 89.580 170.2744
14582.968320 88.705 169.5892
14688.642520 87.879 169.7410
14795.082478 87.123 170.5829
14902.293745 86.449 171.9655
15010.281908 85.863 173.7495
15119.052599 85.367 175.8124
15228.611486 84.957 178.0511
15338.964283 84.628 -179.6197
15450.116741 84.374 -177.2717
15562.074656 84.191 -174.9676
15674.843864 84.074 -172.7652
15788.430244 84.017 -170.7205
15902.839718 84.014 -168.8898
16018.078250 84.061 -167.3311
16134.151848 84.149 -166.1038
16251.066563 84.270 -165.2660
16368.828491 84.413 -164.8714
16487.443769 84.566 -164.9647
16606.918584 84.713 -165.5759
16727.259161 84.840 -166.7152
16848.471777 84.928 -168.3673
16970.562748 84.961 -170.4875
17093.538442 84.921 -173.0011
17217.405268 84.796 -175.8055
17342.169684 84.575 -178.7773
17467.838194 84.254 178.2177
17594.417350 83.835 175.3127
17721.913751 83.324 172.6295
17850.334044 82.732 170.2682
17979.684923 82.072 168.3012
18109.973131 81.362 166.7712
18241.205462 80.620 165.6904
18373.388756 79.862 165.0412
18506.529905 79.105 164.7797
18640.635849 78.363 164.8392
18775.713581 77.648 165.1353
18911.770141 76.969 165.5734
19048.812624 76.329 166.0579
19186.848172 75.728 166.5027
19325.883983 75.166 166.8411
19465.927305 74.642 167.0349
19606.985439 74.166 167.0803
19749.065738 73.757 167.0095
19892.175609 73.450 166.8877
20036.322514 73.284 166.7962
