* Measurement data measured by REW V5.31.3
* Source: Headset (CX31993 HIFI AUDIO), MICROPHONE (Master Volume), R, volume: 0.250
* Format: 256k Log Swept Sine, 1 sweep at -12.0 dBFS with no timing reference
* Dated: 03 3, 25 11:09:07 AM
* REW Settings:
*  C-weighting compensation: Off
*  Target level: 75.0 dB
* Note: ; 
* Measurement: Moondrop Aria nobass L
* Smoothing: 1/12 octave
* Frequency Step: 96 ppo
* Start Frequency: 0.36621094 Hz
*
* Freq(Hz) SPL(dB) Phase(degrees)
0.366211 25.438 -110.2548
0.368865 25.433 -110.3039
0.371538 25.424 -110.3778
0.374230 25.414 -110.4716
0.376942 25.403 -110.5808
0.379673 25.391 -110.7022
0.382424 25.378 -110.8337
0.385196 25.365 -110.9740
0.387987 25.352 -111.1223
0.390798 25.339 -111.2782
0.393630 25.325 -111.4415
0.396483 25.311 -111.6121
0.399356 25.298 -111.7899
0.402250 25.284 -111.9750
0.405165 25.270 -112.1673
0.408101 25.256 -112.3668
0.411058 25.241 -112.5736
0.414037 25.227 -112.7876
0.417037 25.213 -113.0088
0.420059 25.198 -113.2372
0.423103 25.184 -113.4727
0.426169 25.169 -113.7155
0.429257 25.154 -113.9654
0.432368 25.139 -114.2225
0.435501 25.124 -114.4866
0.438656 25.109 -114.7578
0.441835 25.094 -115.0360
0.445037 25.078 -115.3212
0.448262 25.063 -115.6133
0.451510 25.047 -115.9123
0.454782 25.032 -116.2181
0.458077 25.016 -116.5307
0.461397 25.000 -116.8499
0.464740 24.984 -117.1759
0.468108 24.968 -117.5084
0.471500 24.951 -117.8474
0.474917 24.935 -118.1928
0.478358 24.918 -118.5446
0.481825 24.902 -118.9026
0.485316 24.885 -119.2669
0.488833 24.868 -119.6373
0.492375 24.851 -120.0138
0.495943 24.834 -120.3962
0.499537 24.817 -120.7845
0.503157 24.799 -121.1787
0.506803 24.782 -121.5786
0.510475 24.764 -121.9842
0.514175 24.747 -122.3954
0.517900 24.729 -122.8121
0.521653 24.711 -123.2343
0.525434 24.692 -123.6619
0.529241 24.674 -124.0949
0.533076 24.656 -124.5332
0.536939 24.637 -124.9768
0.540830 24.619 -125.4257
0.544749 24.600 -125.8798
0.548696 24.581 -126.3391
0.552673 24.562 -126.8036
0.556677 24.543 -127.2733
0.560711 24.523 -127.7484
0.564774 24.504 -128.2287
0.568867 24.484 -128.7143
0.572989 24.464 -129.2054
0.577141 24.444 -129.7021
0.581324 24.424 -130.2043
0.585536 24.404 -130.7123
0.589779 24.384 -131.2263
0.594053 24.363 -131.7464
0.598358 24.343 -132.2729
0.602694 24.322 -132.8060
0.607061 24.301 -133.3460
0.611460 24.280 -133.8932
0.615891 24.258 -134.4481
0.620354 24.237 -135.0110
0.624849 24.215 -135.5825
0.629377 24.194 -136.1630
0.633938 24.172 -136.7533
0.638532 24.150 -137.3539
0.643159 24.128 -137.9658
0.647819 24.105 -138.5896
0.652514 24.083 -139.2265
0.657242 24.060 -139.8774
0.662005 24.037 -140.5437
0.666802 24.014 -141.2266
0.671634 23.991 -141.9278
0.676501 23.968 -142.6490
0.681403 23.944 -143.3922
0.686341 23.921 -144.1596
0.691314 23.897 -144.9537
0.696324 23.874 -145.7777
0.701370 23.851 -146.6348
0.706452 23.829 -147.5292
0.711571 23.809 -148.4657
0.716728 23.793 -149.4503
0.721921 23.782 -150.4902
0.727153 23.779 -151.5941
0.732422 23.786 -152.7723
0.737729 23.806 -154.0366
0.743075 23.838 -155.3993
0.748460 23.880 -156.8725
0.753883 23.930 -158.4681
0.759346 23.986 -160.1977
0.764849 24.048 -162.0726
0.770391 24.115 -164.1041
0.775974 24.186 -166.3034
0.781597 24.260 -168.6812
0.787261 24.339 -171.2475
0.792966 24.421 -174.0109
0.798712 24.508 -176.9778
0.804500 24.598 179.8484
0.810329 24.691 176.4686
0.816201 24.789 172.8889
0.822116 24.890 169.1218
0.828073 24.995 165.1868
0.834074 25.103 161.1103
0.840118 25.215 156.9256
0.846206 25.331 152.6714
0.852338 25.451 148.3896
0.858514 25.574 144.1230
0.864735 25.700 139.9128
0.871001 25.830 135.7958
0.877313 25.964 131.8032
0.883670 26.101 127.9591
0.890074 26.242 124.2806
0.896524 26.386 120.7780
0.903020 26.533 117.4552
0.909564 26.683 114.3118
0.916155 26.837 111.3431
0.922794 26.994 108.5421
0.929481 27.154 105.8994
0.936216 27.317 103.4050
0.943000 27.483 101.0482
0.949834 27.652 98.8181
0.956717 27.823 96.7043
0.963649 27.997 94.6966
0.970632 28.174 92.7855
0.977666 28.354 90.9621
0.984750 28.536 89.2180
0.991886 28.720 87.5458
0.999074 28.906 85.9384
1.006314 29.095 84.3896
1.013606 29.285 82.8935
1.020951 29.477 81.4448
1.028349 29.671 80.0390
1.035801 29.867 78.6717
1.043307 30.064 77.3391
1.050867 30.262 76.0381
1.058482 30.462 74.7657
1.066152 30.662 73.5199
1.073878 30.865 72.2993
1.081660 31.069 71.1034
1.089498 31.275 69.9330
1.097393 31.484 68.7900
1.105345 31.696 67.6771
1.113355 31.913 66.5972
1.121423 32.135 65.5524
1.129549 32.362 64.5438
1.137734 32.595 63.5714
1.145979 32.833 62.6344
1.154283 33.078 61.7317
1.162647 33.327 60.8614
1.171072 33.582 60.0219
1.179558 33.842 59.2114
1.188106 34.107 58.4278
1.196715 34.377 57.6695
1.205387 34.651 56.9345
1.214122 34.930 56.2212
1.222920 35.212 55.5278
1.231782 35.498 54.8527
1.240708 35.787 54.1945
1.249699 36.079 53.5515
1.258754 36.374 52.9225
1.267876 36.671 52.3059
1.277063 36.970 51.7007
1.286318 37.270 51.1054
1.295639 37.572 50.5190
1.305027 37.875 49.9403
1.314484 38.178 49.3683
1.324009 38.481 48.8018
1.333604 38.783 48.2400
1.343268 39.084 47.6819
1.353002 39.384 47.1265
1.362806 39.682 46.5730
1.372681 39.977 46.0206
1.382628 40.270 45.4684
1.392647 40.558 44.9158
1.402739 40.843 44.3620
1.412904 41.123 43.8065
1.423142 41.397 43.2489
1.433455 41.667 42.6889
1.443843 41.930 42.1268
1.454305 42.188 41.5632
1.464844 42.440 40.9990
1.475459 42.687 40.4358
1.486150 42.929 39.8748
1.496920 43.166 39.3174
1.507767 43.399 38.7642
1.518693 43.627 38.2157
1.529698 43.852 37.6719
1.540783 44.074 37.1328
1.551948 44.291 36.5982
1.563194 44.506 36.0676
1.574521 44.717 35.5408
1.585931 44.925 35.0173
1.597423 45.129 34.4968
1.608999 45.332 33.9789
1.620658 45.531 33.4630
1.632402 45.728 32.9489
1.644232 45.923 32.4360
1.656146 46.115 31.9239
1.668147 46.306 31.4122
1.680235 46.495 30.9004
1.692411 46.683 30.3881
1.704675 46.870 29.8748
1.717028 47.055 29.3602
1.729470 47.240 28.8437
1.742003 47.425 28.3250
1.754626 47.609 27.8035
1.767341 47.794 27.2789
1.780147 47.978 26.7509
1.793047 48.164 26.2191
1.806040 48.349 25.6834
1.819128 48.534 25.1438
1.832310 48.720 24.6005
1.845587 48.904 24.0540
1.858961 49.088 23.5046
1.872432 49.270 22.9532
1.886001 49.451 22.4003
1.899667 49.629 21.8464
1.913433 49.806 21.2921
1.927299 49.981 20.7376
1.941265 50.154 20.1834
1.955332 50.325 19.6298
1.969501 50.495 19.0768
1.983773 50.662 18.5249
1.998148 50.829 17.9741
2.012627 50.994 17.4244
2.027212 51.158 16.8761
2.041902 51.320 16.3291
2.056698 51.482 15.7833
2.071602 51.642 15.2387
2.086614 51.802 14.6952
2.101734 51.961 14.1527
2.116964 52.120 13.6111
2.132304 52.278 13.0699
2.147756 52.435 12.5289
2.163320 52.592 11.9879
2.178996 52.749 11.4462
2.194786 52.905 10.9034
2.210690 53.060 10.3589
2.226710 53.214 9.8126
2.242845 53.367 9.2642
2.259098 53.518 8.7137
2.275468 53.668 8.1616
2.291957 53.816 7.6083
2.308566 53.963 7.0541
2.325295 54.108 6.4996
2.342145 54.252 5.9453
2.359117 54.395 5.3915
2.376212 54.537 4.8386
2.393431 54.677 4.2871
2.410775 54.817 3.7374
2.428244 54.955 3.1896
2.445840 55.093 2.6442
2.463564 55.230 2.1011
2.481416 55.366 1.5605
2.499397 55.502 1.0226
2.517509 55.637 0.4871
2.535752 55.772 -0.0465
2.554127 55.906 -0.5787
2.572635 56.039 -1.1101
2.591277 56.171 -1.6415
2.610055 56.302 -2.1735
2.628968 56.431 -2.7063
2.648019 56.560 -3.2399
2.667208 56.687 -3.7740
2.686535 56.813 -4.3082
2.706003 56.937 -4.8420
2.725612 57.061 -5.3751
2.745363 57.184 -5.9066
2.765257 57.305 -6.4362
2.785295 57.426 -6.9634
2.805478 57.546 -7.4876
2.825808 57.666 -8.0085
2.846285 57.785 -8.5258
2.866910 57.903 -9.0391
2.887685 58.021 -9.5486
2.908611 58.138 -10.0545
2.929688 58.255 -10.5572
2.950917 58.371 -11.0573
2.972301 58.486 -11.5555
2.993839 58.600 -12.0522
3.015534 58.713 -12.5478
3.037386 58.826 -13.0421
3.059396 58.937 -13.5350
3.081565 59.047 -14.0262
3.103896 59.157 -14.5156
3.126388 59.266 -15.0027
3.149043 59.374 -15.4871
3.171862 59.482 -15.9684
3.194847 59.589 -16.4464
3.217998 59.696 -16.9208
3.241317 59.803 -17.3914
3.264805 59.910 -17.8582
3.288463 60.016 -18.3212
3.312293 60.122 -18.7808
3.336295 60.227 -19.2373
3.360471 60.332 -19.6911
3.384822 60.436 -20.1424
3.409350 60.540 -20.5914
3.434056 60.643 -21.0382
3.458940 60.746 -21.4830
3.484005 60.848 -21.9255
3.509252 60.950 -22.3660
3.534681 61.051 -22.8042
3.560295 61.153 -23.2402
3.586094 61.254 -23.6738
3.612081 61.356 -24.1051
3.638255 61.457 -24.5339
3.664620 61.559 -24.9603
3.691175 61.660 -25.3842
3.717923 61.761 -25.8058
3.744864 61.862 -26.2253
3.772001 61.963 -26.6429
3.799335 62.063 -27.0588
3.826866 62.164 -27.4736
3.854597 62.264 -27.8872
3.882529 62.364 -28.3003
3.910664 62.465 -28.7129
3.939002 62.565 -29.1253
3.967546 62.665 -29.5377
3.996296 62.765 -29.9502
4.025255 62.866 -30.3628
4.054423 62.966 -30.7754
4.083804 63.067 -31.1880
4.113396 63.167 -31.6006
4.143204 63.267 -32.0132
4.173227 63.368 -32.4263
4.203468 63.468 -32.8399
4.233928 63.568 -33.2546
4.264609 63.669 -33.6706
4.295512 63.769 -34.0883
4.326639 63.869 -34.5079
4.357992 63.969 -34.9298
4.389572 64.068 -35.3540
4.421380 64.168 -35.7804
4.453419 64.268 -36.2092
4.485691 64.367 -36.6401
4.518196 64.466 -37.0732
4.550936 64.566 -37.5085
4.583914 64.664 -37.9460
4.617131 64.763 -38.3860
4.650589 64.861 -38.8286
4.684289 64.959 -39.2739
4.718233 65.057 -39.7220
4.752424 65.154 -40.1734
4.786862 65.250 -40.6279
4.821549 65.347 -41.0857
4.856488 65.442 -41.5466
4.891680 65.538 -42.0106
4.927127 65.632 -42.4773
4.962831 65.727 -42.9465
4.998794 65.820 -43.4180
5.035017 65.913 -43.8916
5.071503 66.006 -44.3674
5.108253 66.097 -44.8453
5.145270 66.188 -45.3257
5.182555 66.278 -45.8085
5.220110 66.368 -46.2938
5.257937 66.456 -46.7813
5.296038 66.544 -47.2706
5.334415 66.631 -47.7611
5.373071 66.717 -48.2524
5.412006 66.802 -48.7442
5.451224 66.887 -49.2361
5.490725 66.970 -49.7281
5.530514 67.053 -50.2205
5.570590 67.135 -50.7131
5.610957 67.215 -51.2059
5.651616 67.295 -51.6985
5.692570 67.374 -52.1903
5.733821 67.452 -52.6807
5.775370 67.529 -53.1691
5.817221 67.606 -53.6550
5.859375 67.681 -54.1384
5.901834 67.756 -54.6191
5.944602 67.830 -55.0974
5.987679 67.903 -55.5729
6.031068 67.975 -56.0454
6.074771 68.046 -56.5142
6.118792 68.117 -56.9789
6.163131 68.187 -57.4388
6.207792 68.257 -57.8937
6.252776 68.326 -58.3433
6.298086 68.394 -58.7877
6.343725 68.462 -59.2268
6.389694 68.530 -59.6606
6.435996 68.597 -60.0890
6.482634 68.664 -60.5115
6.529610 68.731 -60.9279
6.576926 68.798 -61.3380
6.624585 68.866 -61.7417
6.672590 68.933 -62.1391
6.720942 69.000 -62.5304
6.769645 69.068 -62.9159
6.818700 69.136 -63.2959
6.868111 69.204 -63.6708
6.917881 69.273 -64.0406
6.968010 69.343 -64.4056
7.018504 69.414 -64.7660
7.069362 69.485 -65.1221
7.120590 69.557 -65.4748
7.172189 69.630 -65.8248
7.224161 69.704 -66.1732
7.276511 69.779 -66.5206
7.329239 69.856 -66.8677
7.382350 69.933 -67.2150
7.435845 70.012 -67.5630
7.489729 70.091 -67.9127
7.544002 70.172 -68.2650
7.598669 70.253 -68.6212
7.653732 70.336 -68.9822
7.709194 70.419 -69.3489
7.765058 70.504 -69.7216
7.821327 70.589 -70.1008
7.878004 70.674 -70.4871
7.935091 70.760 -70.8811
7.992592 70.846 -71.2835
8.050510 70.933 -71.6948
8.108847 71.019 -72.1154
8.167607 71.105 -72.5449
8.226793 71.191 -72.9835
8.286408 71.276 -73.4305
8.346454 71.361 -73.8860
8.406936 71.444 -74.3493
8.467856 71.527 -74.8203
8.529218 71.608 -75.2983
8.591024 71.688 -75.7825
8.653278 71.766 -76.2715
8.715983 71.843 -76.7643
8.779143 71.919 -77.2596
8.842760 71.992 -77.7565
8.906839 72.064 -78.2540
8.971381 72.134 -78.7510
9.036392 72.203 -79.2458
9.101873 72.270 -79.7371
9.167829 72.335 -80.2235
9.234263 72.399 -80.7042
9.301178 72.461 -81.1785
9.368578 72.523 -81.6453
9.436467 72.583 -82.1040
9.504847 72.643 -82.5538
9.573723 72.702 -82.9945
9.643099 72.761 -83.4258
9.712976 72.820 -83.8483
9.783361 72.879 -84.2623
9.854255 72.938 -84.6684
9.925663 72.998 -85.0673
9.997588 73.058 -85.4600
10.070035 73.119 -85.8475
10.143007 73.181 -86.2316
10.216507 73.244 -86.6136
10.290540 73.307 -86.9951
10.365109 73.372 -87.3772
10.440219 73.437 -87.7612
10.515873 73.503 -88.1486
10.592076 73.569 -88.5405
10.668830 73.635 -88.9377
10.746141 73.701 -89.3408
10.824012 73.766 -89.7499
10.902447 73.831 -90.1649
10.981451 73.896 -90.5854
11.061027 73.959 -91.0110
11.141180 74.020 -91.4406
11.221913 74.081 -91.8727
11.303232 74.139 -92.3058
11.385140 74.196 -92.7383
11.467641 74.251 -93.1683
11.550741 74.304 -93.5944
11.634442 74.356 -94.0143
11.718750 74.406 -94.4265
11.803669 74.455 -94.8297
11.889203 74.503 -95.2226
11.975357 74.551 -95.6047
12.062136 74.598 -95.9754
12.149543 74.645 -96.3348
12.237583 74.692 -96.6835
12.326262 74.740 -97.0225
12.415583 74.789 -97.3533
12.505552 74.839 -97.6777
12.596172 74.891 -97.9974
12.687449 74.943 -98.3148
12.779387 74.997 -98.6321
12.871992 75.052 -98.9514
12.965268 75.108 -99.2744
13.059220 75.165 -99.6027
13.153852 75.222 -99.9372
13.249170 75.279 -100.2786
13.345179 75.335 -100.6266
13.441884 75.391 -100.9805
13.539289 75.446 -101.3391
13.637401 75.499 -101.7008
13.736223 75.552 -102.0635
13.835761 75.603 -102.4248
13.936021 75.652 -102.7825
14.037007 75.700 -103.1345
14.138725 75.748 -103.4789
14.241180 75.795 -103.8143
14.344377 75.842 -104.1401
14.448323 75.890 -104.4565
14.553021 75.938 -104.7645
14.658478 75.988 -105.0658
14.764700 76.039 -105.3632
14.871691 76.093 -105.6598
14.979457 76.149 -105.9595
15.088005 76.206 -106.2662
15.197339 76.265 -106.5837
15.307465 76.326 -106.9153
15.418389 76.387 -107.2638
15.530117 76.448 -107.6310
15.642655 76.508 -108.0173
15.756008 76.567 -108.4222
15.870182 76.624 -108.8439
15.985184 76.677 -109.2791
16.101019 76.727 -109.7238
16.217694 76.773 -110.1730
16.335214 76.815 -110.6215
16.453586 76.853 -111.0640
16.572815 76.887 -111.4951
16.692909 76.919 -111.9106
16.813872 76.948 -112.3073
16.935713 76.976 -112.6826
17.058436 77.004 -113.0364
17.182048 77.032 -113.3697
17.306556 77.061 -113.6849
17.431967 77.092 -113.9860
17.558286 77.125 -114.2779
17.685521 77.161 -114.5659
17.813677 77.199 -114.8552
17.942762 77.239 -115.1508
18.072783 77.280 -115.4565
18.203746 77.322 -115.7749
18.335658 77.364 -116.1069
18.468526 77.405 -116.4520
18.602356 77.444 -116.8085
18.737156 77.482 -117.1730
18.872934 77.517 -117.5422
19.009695 77.550 -117.9120
19.147447 77.581 -118.2789
19.286197 77.611 -118.6400
19.425953 77.640 -118.9934
19.566721 77.668 -119.3388
19.708510 77.696 -119.6769
19.851326 77.725 -120.0097
19.995177 77.755 -120.3399
20.140070 77.786 -120.6707
20.286013 77.818 -121.0049
20.433014 77.851 -121.3451
20.581080 77.884 -121.6926
20.730219 77.916 -122.0476
20.880439 77.948 -122.4091
21.031747 77.979 -122.7753
21.184152 78.009 -123.1436
21.337661 78.038 -123.5112
21.492282 78.067 -123.8762
21.648024 78.095 -124.2373
21.804895 78.125 -124.5945
21.962902 78.154 -124.9492
22.122054 78.186 -125.3041
22.282360 78.218 -125.6627
22.443827 78.252 -126.0286
22.606464 78.287 -126.4052
22.770280 78.322 -126.7942
22.935283 78.356 -127.1960
23.101481 78.388 -127.6089
23.268884 78.418 -128.0287
23.437500 78.445 -128.4501
23.607338 78.469 -128.8662
23.778406 78.489 -129.2699
23.950714 78.507 -129.6547
24.124271 78.523 -130.0153
24.299086 78.539 -130.3485
24.475167 78.554 -130.6534
24.652524 78.571 -130.9314
24.831166 78.590 -131.1856
25.011103 78.612 -131.4207
25.192344 78.636 -131.6415
25.374898 78.663 -131.8529
25.558775 78.693 -132.0590
25.743984 78.724 -132.2625
25.930536 78.757 -132.4651
26.118439 78.791 -132.6677
26.307704 78.826 -132.8707
26.498341 78.862 -133.0747
26.690359 78.899 -133.2809
26.883768 78.936 -133.4915
27.078579 78.974 -133.7089
27.274801 79.013 -133.9368
27.472446 79.052 -134.1782
27.671522 79.090 -134.4355
27.872042 79.126 -134.7097
28.074014 79.159 -134.9991
28.277450 79.190 -135.3005
28.482360 79.216 -135.6077
28.688755 79.238 -135.9134
28.896645 79.256 -136.2100
29.106042 79.272 -136.4912
29.316957 79.287 -136.7537
29.529400 79.302 -136.9984
29.743382 79.320 -137.2320
29.958915 79.342 -137.4653
30.176009 79.368 -137.7124
30.394677 79.397 -137.9871
30.614929 79.428 -138.2994
30.836778 79.457 -138.6525
31.060234 79.483 -139.0410
31.285309 79.502 -139.4505
31.512015 79.515 -139.8610
31.740364 79.522 -140.2505
31.970368 79.525 -140.6009
32.202039 79.528 -140.9025
32.435388 79.536 -141.1573
32.670428 79.551 -141.3784
32.907171 79.575 -141.5861
33.145630 79.607 -141.8010
33.385817 79.646 -142.0377
33.627745 79.688 -142.2997
33.871425 79.731 -142.5807
34.116871 79.775 -142.8690
34.364096 79.820 -143.1553
34.613113 79.870 -143.4405
34.863934 79.925 -143.7396
35.116572 79.987 -144.0791
35.371041 80.052 -144.4886
35.627354 80.115 -144.9881
35.885525 80.166 -145.5764
36.145566 80.198 -146.2263
36.407492 80.205 -146.8864
36.671316 80.185 -147.4916
36.937051 80.144 -147.9775
37.204712 80.090 -148.2971
37.474313 80.034 -148.4343
37.745867 79.987 -148.4098
38.019389 79.957 -148.2750
38.294893 79.948 -148.0972
38.572394 79.958 -147.9385
38.851905 79.979 -147.8422
39.133442 80.007 -147.8271
39.417019 80.035 -147.8922
39.702651 80.061 -148.0260
39.990353 80.082 -148.2155
40.280140 80.098 -148.4491
40.572026 80.108 -148.7170
40.866028 80.112 -149.0078
41.162160 80.110 -149.3073
41.460438 80.102 -149.6000
41.760877 80.091 -149.8742
42.063494 80.080 -150.1261
42.368303 80.072 -150.3618
42.675322 80.069 -150.5945
42.984565 80.070 -150.8375
43.296048 80.073 -151.0983
43.609789 80.078 -151.3755
43.925804 80.083 -151.6603
44.244108 80.087 -151.9420
44.564719 80.093 -152.2141
44.887654 80.102 -152.4764
45.212928 80.113 -152.7347
45.540560 80.126 -152.9958
45.870565 80.141 -153.2637
46.202962 80.155 -153.5370
46.537768 80.167 -153.8096
46.875000 80.177 -154.0735
47.214676 80.186 -154.3230
47.556813 80.193 -154.5559
47.901429 80.201 -154.7749
48.248542 80.209 -154.9855
48.598171 80.217 -155.1935
48.950334 80.225 -155.4029
49.305048 80.232 -155.6147
49.662333 80.237 -155.8276
50.022206 80.242 -156.0398
50.384688 80.245 -156.2504
50.749796 80.249 -156.4604
51.117550 80.253 -156.6722
51.487969 80.257 -156.8878
51.861072 80.261 -157.1077
52.236879 80.266 -157.3309
52.615409 80.270 -157.5557
52.996681 80.275 -157.7802
53.380717 80.280 -158.0038
53.767536 80.286 -158.2272
54.157158 80.293 -158.4527
54.549603 80.302 -158.6836
54.944892 80.310 -158.9232
55.343045 80.318 -159.1724
55.744084 80.323 -159.4276
56.148028 80.325 -159.6802
56.554900 80.325 -159.9199
56.964720 80.324 -160.1404
57.377510 80.324 -160.3449
57.793291 80.325 -160.5453
58.212085 80.327 -160.7552
58.633914 80.328 -160.9803
59.058799 80.325 -161.2125
59.486764 80.318 -161.4324
59.917829 80.308 -161.6208
60.352019 80.299 -161.7698
60.789354 80.294 -161.8873
61.229859 80.294 -161.9922
61.673556 80.300 -162.1044
62.120468 80.310 -162.2366
62.570618 80.321 -162.3921
63.024031 80.332 -162.5680
63.480729 80.341 -162.7584
63.940736 80.349 -162.9565
64.404077 80.355 -163.1558
64.870776 80.359 -163.3518
65.340856 80.363 -163.5440
65.814343 80.366 -163.7353
66.291261 80.369 -163.9293
66.771635 80.372 -164.1276
67.255489 80.373 -164.3280
67.742850 80.373 -164.5260
68.233743 80.371 -164.7169
68.728193 80.370 -164.8981
69.226226 80.370 -165.0702
69.727867 80.371 -165.2368
70.233144 80.374 -165.4022
70.742083 80.377 -165.5698
71.254709 80.382 -165.7422
71.771050 80.387 -165.9231
72.291132 80.391 -166.1160
72.814984 80.393 -166.3205
73.342631 80.392 -166.5291
73.874102 80.386 -166.7291
74.409424 80.378 -166.9109
74.948626 80.368 -167.0730
75.491734 80.359 -167.2206
76.038779 80.350 -167.3602
76.589787 80.342 -167.4963
77.144788 80.335 -167.6317
77.703811 80.329 -167.7689
78.266885 80.323 -167.9097
78.834039 80.318 -168.0547
79.405303 80.314 -168.2054
79.980706 80.310 -168.3645
80.560280 80.306 -168.5336
81.144053 80.301 -168.7101
81.732056 80.295 -168.8881
82.324320 80.287 -169.0625
82.920876 80.279 -169.2317
83.521755 80.271 -169.3956
84.126988 80.262 -169.5527
84.736607 80.254 -169.7012
85.350643 80.248 -169.8422
85.969129 80.243 -169.9803
86.592097 80.240 -170.1206
87.219579 80.237 -170.2648
87.851608 80.235 -170.4116
88.488217 80.233 -170.5601
89.129439 80.230 -170.7100
89.775308 80.226 -170.8607
90.425856 80.220 -171.0103
91.081119 80.213 -171.1569
91.741131 80.204 -171.3005
92.405925 80.193 -171.4409
93.075536 80.181 -171.5775
93.750000 80.169 -171.7101
94.429351 80.156 -171.8407
95.113625 80.144 -171.9719
95.802858 80.132 -172.1053
96.497085 80.120 -172.2418
97.196342 80.109 -172.3799
97.900667 80.096 -172.5156
98.610096 80.084 -172.6447
99.324665 80.071 -172.7657
100.044413 80.058 -172.8789
100.769376 80.043 -172.9833
101.499592 80.026 -173.0755
102.235100 80.008 -173.1536
102.975938 79.990 -173.2190
103.722144 79.970 -173.2742
104.473757 79.950 -173.3196
105.230817 79.930 -173.3534
105.993363 79.910 -173.3746
106.761435 79.892 -173.3828
107.535072 79.876 -173.3762
108.314315 79.863 -173.3511
109.099206 79.854 -173.3052
109.889783 79.850 -173.2415
110.686090 79.851 -173.1676
111.488167 79.857 -173.0923
112.296056 79.868 -173.0228
113.109800 79.883 -172.9678
113.929440 79.901 -172.9379
114.755020 79.920 -172.9407
115.586582 79.938 -172.9808
116.424170 79.955 -173.0610
117.267827 79.968 -173.1780
118.117598 79.976 -173.3183
118.973527 79.979 -173.4672
119.835658 79.978 -173.6196
120.704037 79.975 -173.7781
121.578708 79.971 -173.9493
122.459718 79.965 -174.1412
123.347111 79.956 -174.3546
124.240935 79.946 -174.5807
125.141236 79.933 -174.8087
126.048061 79.919 -175.0275
126.961458 79.906 -175.2267
127.881473 79.894 -175.3991
128.808154 79.884 -175.5410
129.741551 79.875 -175.6536
130.681712 79.867 -175.7415
131.628686 79.859 -175.8086
132.582521 79.851 -175.8599
133.543269 79.843 -175.9061
134.510979 79.834 -175.9574
135.485701 79.824 -176.0172
136.467486 79.814 -176.0829
137.456386 79.805 -176.1481
138.452451 79.797 -176.2101
139.455735 79.792 -176.2730
140.466288 79.786 -176.3408
141.484165 79.780 -176.4138
142.509418 79.773 -176.4910
143.542100 79.763 -176.5743
144.582265 79.752 -176.6687
145.629968 79.739 -176.7762
146.685262 79.725 -176.8938
147.748204 79.711 -177.0158
148.818849 79.697 -177.1357
149.897251 79.683 -177.2455
150.983469 79.669 -177.3387
152.077557 79.656 -177.4127
153.179574 79.644 -177.4704
154.289576 79.632 -177.5178
155.407622 79.622 -177.5616
156.533770 79.611 -177.6072
157.668078 79.601 -177.6580
158.810606 79.590 -177.7137
159.961413 79.579 -177.7719
161.120559 79.567 -177.8293
162.288105 79.554 -177.8831
163.464112 79.541 -177.9324
164.648640 79.528 -177.9783
165.841752 79.514 -178.0238
167.043510 79.501 -178.0716
168.253976 79.486 -178.1219
169.473213 79.472 -178.1738
170.701286 79.458 -178.2266
171.938258 79.444 -178.2802
173.184194 79.430 -178.3344
174.439158 79.416 -178.3887
175.703216 79.402 -178.4432
176.976434 79.387 -178.4973
178.258878 79.371 -178.5502
179.550615 79.353 -178.6000
180.851713 79.335 -178.6442
182.162239 79.314 -178.6802
183.482262 79.293 -178.7072
184.811850 79.271 -178.7257
186.151073 79.248 -178.7374
187.500000 79.225 -178.7438
188.858702 79.201 -178.7456
190.227250 79.177 -178.7403
191.605715 79.153 -178.7237
192.994169 79.129 -178.6913
194.392685 79.106 -178.6398
195.801334 79.083 -178.5673
197.220191 79.061 -178.4733
198.649330 79.042 -178.3582
200.088825 79.025 -178.2220
201.538751 79.014 -178.0630
202.999184 79.007 -177.8811
204.470200 79.005 -177.6812
205.951875 79.008 -177.4739
207.444287 79.014 -177.2726
208.947514 79.022 -177.0940
210.461634 79.034 -176.9568
211.986726 79.047 -176.8776
213.522869 79.061 -176.8641
215.070144 79.076 -176.9098
216.628631 79.089 -176.9971
218.198411 79.099 -177.1061
219.779567 79.107 -177.2216
221.372180 79.111 -177.3345
222.976334 79.112 -177.4406
224.592112 79.110 -177.5376
226.219600 79.104 -177.6241
227.858880 79.096 -177.6987
229.510039 79.086 -177.7612
231.173164 79.075 -177.8135
232.848340 79.062 -177.8582
234.535655 79.047 -177.8981
236.235197 79.032 -177.9334
237.947054 79.016 -177.9620
239.671317 78.999 -177.9832
241.408074 78.983 -177.9985
243.157416 78.967 -178.0096
244.919435 78.950 -178.0168
246.694223 78.934 -178.0194
248.481871 78.919 -178.0175
250.282473 78.903 -178.0116
252.096123 78.888 -178.0009
253.922915 78.873 -177.9855
255.762945 78.858 -177.9672
257.616309 78.842 -177.9472
259.483103 78.826 -177.9269
261.363424 78.810 -177.9069
263.257372 78.794 -177.8876
265.165043 78.777 -177.8685
267.086538 78.760 -177.8480
269.021957 78.743 -177.8235
270.971401 78.726 -177.7926
272.934972 78.710 -177.7544
274.912771 78.694 -177.7097
276.904902 78.680 -177.6612
278.911469 78.666 -177.6124
280.932577 78.652 -177.5668
282.968330 78.639 -177.5259
285.018835 78.625 -177.4880
287.084199 78.611 -177.4484
289.164530 78.596 -177.4014
291.259935 78.581 -177.3437
293.370525 78.566 -177.2759
295.496408 78.552 -177.2025
297.637697 78.539 -177.1290
299.794503 78.527 -177.0598
301.966937 78.515 -176.9954
304.155114 78.503 -176.9342
306.359147 78.490 -176.8743
308.579152 78.478 -176.8147
310.815244 78.465 -176.7560
313.067539 78.452 -176.6998
315.336156 78.438 -176.6475
317.621211 78.424 -176.5984
319.922826 78.410 -176.5492
322.241118 78.397 -176.4954
324.576210 78.385 -176.4344
326.928223 78.376 -176.3663
329.297280 78.368 -176.2912
331.683504 78.360 -176.2091
334.087019 78.352 -176.1191
336.507952 78.344 -176.0214
338.946427 78.335 -175.9180
341.402572 78.324 -175.8092
343.876516 78.312 -175.6967
346.368387 78.299 -175.5876
348.878315 78.287 -175.4888
351.406431 78.275 -175.3994
353.952867 78.263 -175.3134
356.517756 78.253 -175.2243
359.101230 78.244 -175.1284
361.703426 78.235 -175.0244
364.324478 78.225 -174.9127
366.964523 78.213 -174.7955
369.623699 78.200 -174.6762
372.302145 78.185 -174.5576
375.000000 78.171 -174.4416
377.717405 78.157 -174.3291
380.454501 78.144 -174.2192
383.211431 78.133 -174.1100
385.988339 78.122 -173.9984
388.785369 78.112 -173.8820
391.602668 78.103 -173.7597
394.440383 78.093 -173.6323
397.298660 78.082 -173.5017
400.177650 78.072 -173.3702
403.077502 78.063 -173.2389
405.998368 78.053 -173.1083
408.940400 78.044 -172.9777
411.903750 78.035 -172.8459
414.888575 78.026 -172.7121
417.895028 78.017 -172.5764
420.923268 78.008 -172.4393
423.973452 78.000 -172.3007
427.045738 77.992 -172.1603
430.140287 77.984 -172.0178
433.257261 77.977 -171.8732
436.396822 77.970 -171.7269
439.559133 77.962 -171.5790
442.744360 77.955 -171.4290
445.952668 77.947 -171.2777
449.184225 77.939 -171.1266
452.439199 77.931 -170.9727
455.717760 77.923 -170.8085
459.020079 77.915 -170.6295
462.346327 77.910 -170.4379
465.696680 77.907 -170.2395
469.071310 77.905 -170.0396
472.470394 77.905 -169.8398
475.894109 77.904 -169.6397
479.342634 77.902 -169.4409
482.816148 77.898 -169.2473
486.314833 77.892 -169.0638
489.838871 77.882 -168.8958
493.388445 77.871 -168.7458
496.963741 77.860 -168.6104
500.564945 77.851 -168.4795
504.192245 77.844 -168.3424
507.845830 77.838 -168.1926
511.525890 77.832 -168.0300
515.232618 77.827 -167.8575
518.966206 77.821 -167.6787
522.726849 77.817 -167.4955
526.514743 77.812 -167.3092
530.330086 77.808 -167.1202
534.173076 77.804 -166.9283
538.043915 77.801 -166.7323
541.942803 77.797 -166.5310
545.869944 77.794 -166.3246
549.825542 77.792 -166.1146
553.809805 77.789 -165.9023
557.822939 77.787 -165.6884
561.865154 77.785 -165.4731
565.936660 77.784 -165.2568
570.037671 77.782 -165.0389
574.168399 77.781 -164.8189
578.329060 77.780 -164.5962
582.519870 77.779 -164.3707
586.741049 77.779 -164.1434
590.992817 77.778 -163.9147
595.275394 77.778 -163.6844
599.589005 77.778 -163.4518
603.933874 77.779 -163.2163
608.310228 77.780 -162.9771
612.718295 77.781 -162.7335
617.158304 77.782 -162.4855
621.630488 77.784 -162.2341
626.135079 77.786 -161.9811
630.672311 77.788 -161.7277
635.242423 77.791 -161.4738
639.845651 77.794 -161.2184
644.482237 77.797 -160.9599
649.152421 77.801 -160.6975
653.856447 77.805 -160.4308
658.594560 77.810 -160.1599
663.367008 77.815 -159.8849
668.174039 77.821 -159.6063
673.015903 77.828 -159.3248
677.892854 77.834 -159.0408
682.805145 77.842 -158.7544
687.753032 77.850 -158.4653
692.736774 77.858 -158.1734
697.756631 77.867 -157.8782
702.812863 77.876 -157.5799
707.905735 77.886 -157.2785
713.035511 77.897 -156.9739
718.202461 77.909 -156.6660
723.406852 77.921 -156.3547
728.648956 77.934 -156.0404
733.929047 77.948 -155.7234
739.247399 77.962 -155.4037
744.604290 77.977 -155.0809
750.000000 77.993 -154.7549
755.434809 78.010 -154.4254
760.909001 78.027 -154.0927
766.422861 78.046 -153.7574
771.976677 78.065 -153.4196
777.570739 78.086 -153.0794
783.205337 78.107 -152.7373
788.880766 78.129 -152.3934
794.597321 78.152 -152.0474
800.355301 78.177 -151.6990
806.155005 78.202 -151.3483
811.996736 78.229 -150.9955
817.880799 78.257 -150.6412
823.807501 78.286 -150.2855
829.777150 78.316 -149.9282
835.790057 78.348 -149.5685
841.846536 78.382 -149.2066
847.946903 78.417 -148.8435
854.091476 78.455 -148.4813
860.280575 78.494 -148.1216
866.514523 78.535 -147.7659
872.793644 78.578 -147.4141
879.118267 78.622 -147.0659
885.488720 78.668 -146.7204
891.905336 78.715 -146.3763
898.368450 78.764 -146.0330
904.878398 78.813 -145.6909
911.435520 78.864 -145.3511
918.040157 78.916 -145.0161
924.692655 78.969 -144.6883
931.393359 79.024 -144.3697
938.142619 79.081 -144.0615
944.940787 79.139 -143.7644
951.788218 79.199 -143.4792
958.685268 79.260 -143.2075
965.632296 79.323 -142.9517
972.629666 79.386 -142.7147
979.677741 79.449 -142.5000
986.776890 79.512 -142.3103
993.927482 79.574 -142.1470
1001.129891 79.632 -142.0083
1008.384491 79.685 -141.8887
1015.691660 79.732 -141.7761
1023.051781 79.772 -141.6509
1030.465236 79.805 -141.4871
1037.932411 79.833 -141.2584
1045.453698 79.862 -140.9481
1053.029486 79.898 -140.5590
1060.660172 79.945 -140.1150
1068.346153 80.005 -139.6520
1076.087829 80.078 -139.2045
1083.885605 80.161 -138.7974
1091.739887 80.251 -138.4441
1099.651084 80.345 -138.1489
1107.619609 80.441 -137.9100
1115.645878 80.536 -137.7215
1123.730308 80.631 -137.5754
1131.873321 80.723 -137.4630
1140.075341 80.813 -137.3763
1148.336797 80.901 -137.3096
1156.658119 80.986 -137.2583
1165.039741 81.070 -137.2201
1173.482099 81.153 -137.1934
1181.985634 81.233 -137.1768
1190.550789 81.313 -137.1696
1199.178011 81.391 -137.1709
1207.867749 81.467 -137.1804
1216.620457 81.542 -137.1981
1225.436590 81.616 -137.2235
1234.316609 81.689 -137.2563
1243.260976 81.761 -137.2956
1252.270157 81.831 -137.3401
1261.344623 81.901 -137.3886
1270.484846 81.969 -137.4402
1279.691303 82.036 -137.4947
1288.964474 82.102 -137.5524
1298.304842 82.166 -137.6130
1307.712894 82.230 -137.6761
1317.189120 82.293 -137.7406
1326.734016 82.355 -137.8057
1336.348077 82.417 -137.8709
1346.031806 82.477 -137.9360
1355.785708 82.536 -138.0012
1365.610290 82.595 -138.0662
1375.506065 82.654 -138.1309
1385.473549 82.711 -138.1953
1395.513261 82.769 -138.2589
1405.625726 82.825 -138.3215
1415.811469 82.882 -138.3826
1426.071023 82.938 -138.4420
1436.404921 82.995 -138.4999
1446.813703 83.051 -138.5563
1457.297912 83.107 -138.6113
1467.858093 83.163 -138.6649
1478.494798 83.219 -138.7169
1489.208581 83.275 -138.7675
1500.000000 83.331 -138.8165
1510.869618 83.388 -138.8644
1521.818002 83.445 -138.9114
1532.845723 83.503 -138.9578
1543.953355 83.561 -139.0040
1555.141477 83.620 -139.0504
1566.410674 83.679 -139.0975
1577.761531 83.739 -139.1460
1589.194642 83.800 -139.1968
1600.710601 83.862 -139.2511
1612.310010 83.925 -139.3100
1623.993473 83.988 -139.3745
1635.761599 84.052 -139.4451
1647.615002 84.117 -139.5224
1659.554299 84.181 -139.6064
1671.580114 84.246 -139.6971
1683.693072 84.311 -139.7938
1695.893807 84.376 -139.8961
1708.182952 84.441 -140.0035
1720.561150 84.506 -140.1152
1733.029045 84.571 -140.2308
1745.587288 84.636 -140.3498
1758.236533 84.701 -140.4724
1770.977440 84.767 -140.5991
1783.810673 84.832 -140.7305
1796.736900 84.899 -140.8669
1809.756796 84.966 -141.0089
1822.871040 85.033 -141.1567
1836.080315 85.101 -141.3104
1849.385310 85.169 -141.4704
1862.786718 85.238 -141.6371
1876.285239 85.306 -141.8112
1889.881575 85.375 -141.9935
1903.576436 85.445 -142.1847
1917.370535 85.514 -142.3851
1931.264593 85.584 -142.5948
1945.259332 85.653 -142.8138
1959.355483 85.723 -143.0422
1973.553781 85.793 -143.2803
1987.854965 85.863 -143.5284
2002.259781 85.932 -143.7870
2016.768981 86.002 -144.0562
2031.383320 86.071 -144.3359
2046.103561 86.140 -144.6260
2060.930471 86.208 -144.9266
2075.864823 86.276 -145.2375
2090.907395 86.343 -145.5591
2106.058972 86.409 -145.8914
2121.320344 86.475 -146.2345
2136.692305 86.539 -146.5884
2152.175658 86.603 -146.9528
2167.771210 86.666 -147.3271
2183.479774 86.727 -147.7107
2199.302169 86.787 -148.1029
2215.239219 86.845 -148.5031
2231.291755 86.903 -148.9103
2247.460615 86.958 -149.3235
2263.746641 87.013 -149.7414
2280.150683 87.066 -150.1627
2296.673595 87.119 -150.5863
2313.316238 87.171 -151.0122
2330.079481 87.222 -151.4409
2346.964198 87.273 -151.8739
2363.971268 87.324 -152.3137
2381.101578 87.376 -152.7635
2398.356022 87.428 -153.2268
2415.735498 87.480 -153.7074
2433.240913 87.531 -154.2086
2450.873180 87.581 -154.7322
2468.633217 87.629 -155.2786
2486.521951 87.673 -155.8467
2504.540314 87.715 -156.4333
2522.689246 87.752 -157.0345
2540.969692 87.785 -157.6459
2559.382606 87.813 -158.2632
2577.928947 87.838 -158.8828
2596.609683 87.859 -159.5021
2615.425787 87.876 -160.1194
2634.378241 87.890 -160.7336
2653.468031 87.900 -161.3440
2672.696154 87.908 -161.9502
2692.063613 87.913 -162.5519
2711.571415 87.914 -163.1486
2731.220579 87.913 -163.7400
2751.012130 87.909 -164.3256
2770.947098 87.902 -164.9047
2791.026522 87.892 -165.4763
2811.251451 87.878 -166.0391
2831.622938 87.862 -166.5916
2852.142045 87.843 -167.1323
2872.809842 87.822 -167.6598
2893.627406 87.798 -168.1731
2914.595823 87.771 -168.6713
2935.716186 87.743 -169.1535
2956.989596 87.712 -169.6192
2978.417161 87.680 -170.0677
3000.000000 87.646 -170.4987
3021.739237 87.611 -170.9116
3043.636005 87.575 -171.3063
3065.691446 87.538 -171.6831
3087.906710 87.500 -172.0422
3110.282955 87.462 -172.3839
3132.821347 87.423 -172.7083
3155.523062 87.383 -173.0153
3178.389283 87.344 -173.3049
3201.421202 87.305 -173.5775
3224.620020 87.265 -173.8331
3247.986946 87.227 -174.0723
3271.523198 87.189 -174.2953
3295.230004 87.151 -174.5028
3319.108599 87.115 -174.6957
3343.160228 87.080 -174.8753
3367.386145 87.046 -175.0435
3391.787613 87.014 -175.2023
3416.365904 86.982 -175.3536
3441.122300 86.953 -175.4991
3466.058091 86.924 -175.6401
3491.174576 86.896 -175.7769
3516.473066 86.869 -175.9090
3541.954880 86.842 -176.0356
3567.621345 86.816 -176.1555
3593.473800 86.790 -176.2673
3619.513592 86.765 -176.3700
3645.742080 86.741 -176.4631
3672.160630 86.717 -176.5464
3698.770620 86.695 -176.6199
3725.573436 86.675 -176.6844
3752.570477 86.657 -176.7408
3779.763150 86.641 -176.7909
3807.152872 86.627 -176.8364
3834.741071 86.615 -176.8792
3862.529185 86.606 -176.9211
3890.518664 86.599 -176.9644
3918.710966 86.595 -177.0105
3947.107561 86.593 -177.0615
3975.709929 86.593 -177.1190
4004.519563 86.596 -177.1851
4033.537962 86.601 -177.2614
4062.766641 86.607 -177.3491
4092.207123 86.615 -177.4495
4121.860942 86.625 -177.5631
4151.729646 86.636 -177.6908
4181.814790 86.648 -177.8334
4212.117944 86.661 -177.9918
4242.640687 86.675 -178.1670
4273.384610 86.689 -178.3599
4304.351317 86.704 -178.5712
4335.542421 86.720 -178.8017
4366.959549 86.735 -179.0519
4398.604338 86.750 -179.3224
4430.478438 86.765 -179.6137
4462.583511 86.779 -179.9262
4494.921231 86.792 179.7397
4527.493283 86.804 179.3840
4560.301365 86.814 179.0067
4593.347189 86.823 178.6085
4626.632476 86.829 178.1897
4660.158962 86.833 177.7511
4693.928395 86.834 177.2930
4727.942535 86.832 176.8160
4762.203156 86.827 176.3206
4796.712043 86.819 175.8076
4831.470996 86.806 175.2789
4866.481826 86.790 174.7362
4901.746360 86.769 174.1819
4937.266434 86.743 173.6188
4973.043902 86.713 173.0494
5009.080628 86.677 172.4769
5045.378492 86.635 171.9043
5081.939384 86.589 171.3350
5118.765212 86.537 170.7726
5155.857894 86.479 170.2212
5193.219366 86.416 169.6844
5230.851574 86.349 169.1663
5268.756481 86.276 168.6700
5306.936062 86.199 168.1991
5345.392309 86.118 167.7567
5384.127225 86.033 167.3458
5423.142830 85.946 166.9689
5462.441159 85.855 166.6281
5502.024259 85.763 166.3246
5541.894195 85.668 166.0591
5582.053045 85.574 165.8315
5622.502902 85.478 165.6414
5663.245876 85.383 165.4878
5704.284090 85.288 165.3703
5745.619684 85.194 165.2891
5787.254813 85.100 165.2454
5829.191647 85.007 165.2415
5871.432373 84.916 165.2811
5913.979192 84.827 165.3682
5956.834323 84.742 165.5065
6000.000000 84.662 165.6962
6043.478473 84.591 165.9301
6087.272010 84.531 166.1912
6131.382892 84.481 166.4531
6175.813420 84.441 166.6885
6220.565910 84.407 166.8829
6265.642695 84.374 167.0422
6311.046124 84.340 167.1875
6356.778566 84.305 167.3422
6402.842404 84.270 167.5228
6449.240040 84.238 167.7363
6495.973891 84.212 167.9814
6543.046396 84.193 168.2524
6590.460007 84.182 168.5412
6638.217197 84.181 168.8393
6686.320456 84.190 169.1387
6734.772290 84.210 169.4320
6783.575226 84.241 169.7123
6832.731809 84.283 169.9722
6882.244600 84.338 170.2039
6932.116181 84.406 170.3983
6982.349153 84.487 170.5454
7032.946133 84.581 170.6334
7083.909760 84.689 170.6491
7135.242690 84.812 170.5779
7186.947600 84.948 170.4037
7239.027185 85.097 170.1093
7291.484160 85.259 169.6760
7344.321260 85.433 169.0840
7397.541239 85.617 168.3119
7451.146872 85.809 167.3362
7505.140954 86.007 166.1321
7559.526299 86.208 164.6729
7614.305743 86.405 162.9321
7669.482141 86.592 160.8853
7725.058371 86.762 158.5145
7781.037328 86.904 155.8120
7837.421932 87.006 152.7864
7894.215122 87.055 149.4666
7951.419859 87.040 145.9039
8009.039125 86.951 142.1728
8067.075924 86.779 138.3667
8125.533282 86.520 134.5911
8184.414245 86.176 130.9545
8243.721885 85.750 127.5593
8303.459292 85.252 124.4927
8363.629581 84.692 121.8221
8424.235888 84.083 119.5915
8485.281374 83.438 117.8228
8546.769221 82.771 116.5170
8608.702634 82.094 115.6590
8671.084842 81.415 115.2209
8733.919097 80.744 115.1676
8797.208675 80.087 115.4598
8860.956876 79.448 116.0586
8925.167022 78.831 116.9266
8989.842461 78.235 118.0300
9054.986566 77.663 119.3392
9120.602731 77.114 120.8282
9186.694378 76.588 122.4748
9253.264952 76.085 124.2596
9320.317925 75.604 126.1669
9387.856790 75.143 128.1838
9455.885071 74.702 130.2999
9524.406312 74.280 132.5070
9593.424086 73.875 134.7979
9662.941992 73.486 137.1675
9732.963653 73.114 139.6114
9803.492719 72.756 142.1265
9874.532869 72.412 144.7102
9946.087805 72.083 147.3607
10018.161257 71.767 150.0775
10090.756983 71.464 152.8604
10163.878768 71.173 155.7104
10237.530423 70.894 158.6295
10311.715789 70.626 161.6216
10386.438732 70.370 164.6924
10461.703149 70.125 167.8498
10537.512962 69.890 171.1033
10613.872125 69.667 174.4655
10690.784618 69.456 177.9527
10768.254450 69.257 -178.4148
10846.285661 69.074 -174.6112
10924.882318 68.909 -170.6042
11004.048518 68.768 -166.3536
11083.788390 68.658 -161.8135
11164.106090 68.590 -156.9381
11245.005805 68.581 -151.6919
11326.491752 68.651 -146.0682
11408.568180 68.820 -140.1153
11491.239368 69.110 -133.9633
11574.509626 69.531 -127.8365
11658.383294 70.082 -122.0330
11742.864745 70.745 -116.8618
11827.958384 71.487 -112.5690
11913.668646 72.272 -109.2825
12000.000000 73.062 -107.0023
12086.956947 73.825 -105.6222
12174.544019 74.540 -104.9678
12262.765784 75.197 -104.8344
12351.626840 75.795 -105.0196
12441.131819 76.344 -105.3471
12531.285389 76.859 -105.6830
12622.092249 77.359 -105.9437
12713.557132 77.867 -106.0974
12805.684808 78.401 -106.1624
12898.480079 78.980 -106.2017
12991.947783 79.616 -106.3158
13086.092792 80.315 -106.6350
13180.920015 81.076 -107.3088
13276.434395 81.888 -108.4948
13372.640911 82.735 -110.3436
13469.544580 83.589 -112.9834
13567.150452 84.420 -116.5035
13665.463617 85.190 -120.9397
13764.489200 85.861 -126.2612
13864.232362 86.397 -132.3612
13964.698305 86.765 -139.0535
14065.892266 86.944 -146.0811
14167.819519 86.927 -153.1420
14270.485380 86.719 -159.9294
14373.895200 86.343 -166.1737
14478.054370 85.830 -171.6732
14582.968320 85.221 -176.3083
14688.642520 84.555 179.9602
14795.082478 83.871 177.1024
14902.293745 83.204 175.0350
15010.281908 82.583 173.6353
15119.052599 82.027 172.7523
15228.611486 81.550 172.2200
15338.964283 81.156 171.8704
15450.116741 80.842 171.5463
15562.074656 80.598 171.1101
15674.843864 80.409 170.4509
15788.430244 80.257 169.4882
15902.839718 80.122 168.1742
16018.078250 79.982 166.4957
16134.151848 79.817 164.4732
16251.066563 79.608 162.1581
16368.828491 79.341 159.6274
16487.443769 79.004 156.9740
16606.918584 78.593 154.2949
16727.259161 78.106 151.6799
16848.471777 77.546 149.2032
16970.562748 76.916 146.9225
17093.538442 76.218 144.8868
17217.405268 75.455 143.1606
17342.169684 74.621 141.8674
17467.838194 73.713 141.2498
17594.417350 72.732 141.7010
17721.913751 71.705 143.6439
17850.334044 70.693 147.1583
17979.684923 69.771 151.7042
18109.973131 68.989 156.4537
18241.205462 68.351 160.8430
18373.388756 67.834 164.7262
18506.529905 67.407 168.1984
18640.635849 67.049 171.4037
18775.713581 66.748 174.4437
18911.770141 66.499 177.3581
19048.812624 66.300 -179.8655
19186.848172 66.150 -177.2743
19325.883983 66.044 -174.9347
19465.927305 65.977 -172.9163
19606.985439 65.940 -171.2791
19749.065738 65.924 -170.0611
19892.175609 65.919 -169.2705
20036.322514 65.918 -168.8883
