* Measurement data measured by REW V5.31.3
* Source: Headset (2- CX31993 HIFI AUDIO), MICROPHONE (Master Volume), R, volume: 0.250
* Format: 256k Log Swept Sine, 1 sweep at -12.0 dBFS with no timing reference
* Dated: 11 24, 24 1:20:39 PM
* REW Settings:
*  C-weighting compensation: Off
*  Target level: 75.0 dB
* Note: ; 
* Measurement: Moondrop DUSK 1124 L
* Smoothing: 1/12 octave
* Frequency Step: 96 ppo
* Start Frequency: 0.36621094 Hz
*
* Freq(Hz) SPL(dB) Phase(degrees)
0.366211 40.827 -97.3627
0.368865 40.859 -97.5269
0.371538 40.905 -97.7697
0.374230 40.963 -98.0692
0.376942 41.027 -98.4066
0.379673 41.096 -98.7682
0.382424 41.168 -99.1448
0.385196 41.242 -99.5309
0.387987 41.317 -99.9232
0.390798 41.393 -100.3199
0.393630 41.470 -100.7198
0.396483 41.547 -101.1224
0.399356 41.625 -101.5273
0.402250 41.704 -101.9344
0.405165 41.783 -102.3433
0.408101 41.863 -102.7540
0.411058 41.943 -103.1664
0.414037 42.024 -103.5803
0.417037 42.105 -103.9957
0.420059 42.187 -104.4123
0.423103 42.270 -104.8302
0.426169 42.353 -105.2492
0.429257 42.437 -105.6693
0.432368 42.521 -106.0902
0.435501 42.606 -106.5120
0.438656 42.692 -106.9345
0.441835 42.778 -107.3577
0.445037 42.865 -107.7814
0.448262 42.953 -108.2056
0.451510 43.041 -108.6301
0.454782 43.130 -109.0550
0.458077 43.219 -109.4802
0.461397 43.309 -109.9055
0.464740 43.400 -110.3309
0.468108 43.491 -110.7563
0.471500 43.583 -111.1818
0.474917 43.676 -111.6071
0.478358 43.770 -112.0324
0.481825 43.864 -112.4574
0.485316 43.959 -112.8823
0.488833 44.054 -113.3069
0.492375 44.150 -113.7312
0.495943 44.247 -114.1551
0.499537 44.345 -114.5788
0.503157 44.443 -115.0020
0.506803 44.542 -115.4249
0.510475 44.642 -115.8473
0.514175 44.742 -116.2694
0.517900 44.843 -116.6910
0.521653 44.945 -117.1122
0.525434 45.048 -117.5330
0.529241 45.151 -117.9533
0.533076 45.255 -118.3733
0.536939 45.360 -118.7928
0.540830 45.466 -119.2120
0.544749 45.572 -119.6308
0.548696 45.679 -120.0492
0.552673 45.787 -120.4673
0.556677 45.896 -120.8852
0.560711 46.006 -121.3027
0.564774 46.116 -121.7201
0.568867 46.227 -122.1373
0.572989 46.339 -122.5543
0.577141 46.452 -122.9712
0.581324 46.565 -123.3881
0.585536 46.680 -123.8050
0.589779 46.795 -124.2219
0.594053 46.911 -124.6389
0.598358 47.028 -125.0560
0.602694 47.146 -125.4733
0.607061 47.264 -125.8909
0.611460 47.384 -126.3089
0.615891 47.504 -126.7272
0.620354 47.625 -127.1459
0.624849 47.747 -127.5652
0.629377 47.870 -127.9850
0.633938 47.994 -128.4055
0.638532 48.119 -128.8267
0.643159 48.245 -129.2487
0.647819 48.371 -129.6715
0.652514 48.499 -130.0953
0.657242 48.627 -130.5200
0.662005 48.756 -130.9458
0.666802 48.887 -131.3728
0.671634 49.018 -131.8009
0.676501 49.150 -132.2303
0.681403 49.283 -132.6611
0.686341 49.417 -133.0933
0.691314 49.552 -133.5269
0.696324 49.688 -133.9621
0.701370 49.825 -134.3988
0.706452 49.962 -134.8369
0.711571 50.100 -135.2764
0.716728 50.238 -135.7169
0.721921 50.375 -136.1579
0.727153 50.512 -136.5988
0.732422 50.646 -137.0385
0.737729 50.779 -137.4757
0.743075 50.911 -137.9093
0.748460 51.041 -138.3384
0.753883 51.171 -138.7622
0.759346 51.301 -139.1805
0.764849 51.430 -139.5930
0.770391 51.560 -139.9997
0.775974 51.690 -140.4007
0.781597 51.820 -140.7962
0.787261 51.951 -141.1864
0.792966 52.082 -141.5713
0.798712 52.213 -141.9513
0.804500 52.344 -142.3265
0.810329 52.476 -142.6972
0.816201 52.609 -143.0635
0.822116 52.741 -143.4258
0.828073 52.874 -143.7843
0.834074 53.008 -144.1391
0.840118 53.141 -144.4905
0.846206 53.275 -144.8388
0.852338 53.410 -145.1842
0.858514 53.544 -145.5269
0.864735 53.679 -145.8671
0.871001 53.815 -146.2052
0.877313 53.950 -146.5412
0.883670 54.086 -146.8756
0.890074 54.222 -147.2085
0.896524 54.359 -147.5401
0.903020 54.496 -147.8707
0.909564 54.633 -148.2004
0.916155 54.771 -148.5296
0.922794 54.908 -148.8585
0.929481 55.046 -149.1873
0.936216 55.185 -149.5162
0.943000 55.323 -149.8454
0.949834 55.462 -150.1752
0.956717 55.601 -150.5058
0.963649 55.741 -150.8374
0.970632 55.880 -151.1702
0.977666 56.020 -151.5045
0.984750 56.161 -151.8404
0.991886 56.301 -152.1782
0.999074 56.442 -152.5181
1.006314 56.583 -152.8602
1.013606 56.724 -153.2049
1.020951 56.866 -153.5523
1.028349 57.008 -153.9026
1.035801 57.150 -154.2559
1.043307 57.292 -154.6126
1.050867 57.434 -154.9726
1.058482 57.577 -155.3362
1.066152 57.720 -155.7033
1.073878 57.863 -156.0739
1.081660 58.007 -156.4476
1.089498 58.150 -156.8241
1.097393 58.293 -157.2025
1.105345 58.437 -157.5820
1.113355 58.580 -157.9615
1.121423 58.724 -158.3401
1.129549 58.867 -158.7174
1.137734 59.010 -159.0930
1.145979 59.153 -159.4667
1.154283 59.295 -159.8385
1.162647 59.438 -160.2083
1.171072 59.580 -160.5764
1.179558 59.722 -160.9428
1.188106 59.864 -161.3076
1.196715 60.005 -161.6710
1.205387 60.147 -162.0332
1.214122 60.288 -162.3943
1.222920 60.430 -162.7545
1.231782 60.571 -163.1140
1.240708 60.712 -163.4729
1.249699 60.853 -163.8314
1.258754 60.993 -164.1897
1.267876 61.134 -164.5479
1.277063 61.275 -164.9063
1.286318 61.415 -165.2651
1.295639 61.556 -165.6243
1.305027 61.696 -165.9843
1.314484 61.837 -166.3452
1.324009 61.977 -166.7071
1.333604 62.118 -167.0703
1.343268 62.259 -167.4351
1.353002 62.399 -167.8014
1.362806 62.540 -168.1697
1.372681 62.681 -168.5400
1.382628 62.823 -168.9126
1.392647 62.964 -169.2876
1.402739 63.105 -169.6651
1.412904 63.247 -170.0454
1.423142 63.389 -170.4284
1.433455 63.532 -170.8141
1.443843 63.674 -171.2023
1.454305 63.817 -171.5925
1.464844 63.960 -171.9843
1.475459 64.103 -172.3767
1.486150 64.245 -172.7691
1.496920 64.388 -173.1609
1.507767 64.530 -173.5518
1.518693 64.672 -173.9415
1.529698 64.813 -174.3302
1.540783 64.954 -174.7179
1.551948 65.095 -175.1049
1.563194 65.236 -175.4913
1.574521 65.376 -175.8776
1.585931 65.516 -176.2638
1.597423 65.656 -176.6504
1.608999 65.795 -177.0376
1.620658 65.934 -177.4258
1.632402 66.073 -177.8152
1.644232 66.212 -178.2061
1.656146 66.350 -178.5988
1.668147 66.489 -178.9938
1.680235 66.627 -179.3912
1.692411 66.765 -179.7915
1.704675 66.902 179.8052
1.717028 67.040 179.3984
1.729470 67.178 178.9878
1.742003 67.315 178.5731
1.754626 67.453 178.1541
1.767341 67.590 177.7303
1.780147 67.728 177.3018
1.793047 67.865 176.8682
1.806040 68.003 176.4295
1.819128 68.140 175.9859
1.832310 68.277 175.5377
1.845587 68.414 175.0854
1.858961 68.551 174.6296
1.872432 68.687 174.1707
1.886001 68.823 173.7092
1.899667 68.958 173.2455
1.913433 69.093 172.7798
1.927299 69.228 172.3123
1.941265 69.361 171.8432
1.955332 69.495 171.3726
1.969501 69.628 170.9004
1.983773 69.760 170.4269
1.998148 69.892 169.9519
2.012627 70.024 169.4756
2.027212 70.155 168.9978
2.041902 70.286 168.5185
2.056698 70.417 168.0377
2.071602 70.547 167.5551
2.086614 70.677 167.0709
2.101734 70.807 166.5847
2.116964 70.936 166.0964
2.132304 71.065 165.6059
2.147756 71.194 165.1129
2.163320 71.323 164.6172
2.178996 71.452 164.1186
2.194786 71.580 163.6169
2.210690 71.707 163.1119
2.226710 71.835 162.6036
2.242845 71.961 162.0921
2.259098 72.087 161.5776
2.275468 72.212 161.0602
2.291957 72.337 160.5404
2.308566 72.461 160.0184
2.325295 72.584 159.4944
2.342145 72.707 158.9688
2.359117 72.829 158.4418
2.376212 72.951 157.9136
2.393431 73.072 157.3845
2.410775 73.192 156.8544
2.428244 73.312 156.3238
2.445840 73.432 155.7925
2.463564 73.551 155.2606
2.481416 73.670 154.7282
2.499397 73.788 154.1952
2.517509 73.906 153.6613
2.535752 74.023 153.1263
2.554127 74.140 152.5898
2.572635 74.256 152.0513
2.591277 74.372 151.5103
2.610055 74.487 150.9665
2.628968 74.601 150.4199
2.648019 74.715 149.8706
2.667208 74.827 149.3189
2.686535 74.939 148.7653
2.706003 75.050 148.2099
2.725612 75.161 147.6534
2.745363 75.270 147.0962
2.765257 75.379 146.5386
2.785295 75.488 145.9811
2.805478 75.596 145.4239
2.825808 75.703 144.8674
2.846285 75.810 144.3118
2.866910 75.916 143.7570
2.887685 76.022 143.2031
2.908611 76.127 142.6497
2.929688 76.232 142.0962
2.950917 76.336 141.5421
2.972301 76.440 140.9869
2.993839 76.542 140.4301
3.015534 76.644 139.8718
3.037386 76.745 139.3121
3.059396 76.845 138.7512
3.081565 76.944 138.1898
3.103896 77.043 137.6281
3.126388 77.141 137.0668
3.149043 77.238 136.5064
3.171862 77.335 135.9473
3.194847 77.431 135.3900
3.217998 77.527 134.8347
3.241317 77.622 134.2816
3.264805 77.717 133.7306
3.288463 77.812 133.1816
3.312293 77.905 132.6339
3.336295 77.999 132.0872
3.360471 78.091 131.5409
3.384822 78.183 130.9948
3.409350 78.274 130.4489
3.434056 78.365 129.9033
3.458940 78.454 129.3584
3.484005 78.544 128.8143
3.509252 78.632 128.2716
3.534681 78.721 127.7305
3.560295 78.809 127.1913
3.586094 78.896 126.6544
3.612081 78.984 126.1199
3.638255 79.071 125.5878
3.664620 79.158 125.0579
3.691175 79.244 124.5299
3.717923 79.330 124.0035
3.744864 79.416 123.4785
3.772001 79.501 122.9546
3.799335 79.585 122.4318
3.826866 79.669 121.9100
3.854597 79.753 121.3893
3.882529 79.837 120.8699
3.910664 79.920 120.3517
3.939002 80.004 119.8350
3.967546 80.087 119.3196
3.996296 80.170 118.8058
4.025255 80.253 118.2935
4.054423 80.336 117.7826
4.083804 80.418 117.2729
4.113396 80.501 116.7643
4.143204 80.583 116.2565
4.173227 80.665 115.7493
4.203468 80.747 115.2426
4.233928 80.828 114.7361
4.264609 80.910 114.2296
4.295512 80.992 113.7229
4.326639 81.073 113.2159
4.357992 81.154 112.7084
4.389572 81.236 112.2004
4.421380 81.317 111.6918
4.453419 81.398 111.1826
4.485691 81.479 110.6726
4.518196 81.560 110.1618
4.550936 81.641 109.6500
4.583914 81.721 109.1370
4.617131 81.802 108.6227
4.650589 81.882 108.1067
4.684289 81.962 107.5889
4.718233 82.042 107.0690
4.752424 82.121 106.5468
4.786862 82.200 106.0222
4.821549 82.279 105.4952
4.856488 82.358 104.9656
4.891680 82.436 104.4335
4.927127 82.514 103.8992
4.962831 82.591 103.3625
4.998794 82.668 102.8236
5.035017 82.745 102.2823
5.071503 82.821 101.7388
5.108253 82.896 101.1926
5.145270 82.970 100.6436
5.182555 83.044 100.0916
5.220110 83.118 99.5367
5.257937 83.190 98.9790
5.296038 83.262 98.4189
5.334415 83.333 97.8569
5.373071 83.404 97.2932
5.412006 83.473 96.7283
5.451224 83.541 96.1623
5.490725 83.609 95.5951
5.530514 83.676 95.0264
5.570590 83.741 94.4562
5.610957 83.806 93.8847
5.651616 83.869 93.3122
5.692570 83.932 92.7393
5.733821 83.993 92.1667
5.775370 84.054 91.5949
5.817221 84.113 91.0245
5.859375 84.171 90.4555
5.901834 84.229 89.8878
5.944602 84.285 89.3214
5.987679 84.340 88.7564
6.031068 84.394 88.1931
6.074771 84.447 87.6320
6.118792 84.499 87.0739
6.163131 84.550 86.5192
6.207792 84.601 85.9683
6.252776 84.650 85.4213
6.298086 84.699 84.8781
6.343725 84.747 84.3387
6.389694 84.794 83.8031
6.435996 84.840 83.2716
6.482634 84.885 82.7443
6.529610 84.931 82.2215
6.576926 84.975 81.7034
6.624585 85.019 81.1901
6.672590 85.063 80.6815
6.720942 85.106 80.1773
6.769645 85.149 79.6774
6.818700 85.192 79.1814
6.868111 85.234 78.6893
6.917881 85.277 78.2007
6.968010 85.319 77.7157
7.018504 85.361 77.2339
7.069362 85.403 76.7553
7.120590 85.445 76.2795
7.172189 85.487 75.8058
7.224161 85.529 75.3341
7.276511 85.571 74.8636
7.329239 85.613 74.3943
7.382350 85.655 73.9258
7.435845 85.697 73.4578
7.489729 85.738 72.9902
7.544002 85.780 72.5226
7.598669 85.822 72.0546
7.653732 85.863 71.5860
7.709194 85.904 71.1165
7.765058 85.945 70.6460
7.821327 85.985 70.1744
7.878004 86.025 69.7018
7.935091 86.064 69.2283
7.992592 86.103 68.7538
8.050510 86.142 68.2786
8.108847 86.180 67.8024
8.167607 86.217 67.3257
8.226793 86.253 66.8485
8.286408 86.289 66.3712
8.346454 86.324 65.8944
8.406936 86.358 65.4183
8.467856 86.392 64.9431
8.529218 86.425 64.4692
8.591024 86.457 63.9968
8.653278 86.488 63.5262
8.715983 86.518 63.0580
8.779143 86.548 62.5925
8.842760 86.577 62.1299
8.906839 86.606 61.6703
8.971381 86.634 61.2139
9.036392 86.661 60.7607
9.101873 86.688 60.3109
9.167829 86.715 59.8645
9.234263 86.742 59.4214
9.301178 86.768 58.9815
9.368578 86.794 58.5445
9.436467 86.820 58.1102
9.504847 86.846 57.6783
9.573723 86.872 57.2484
9.643099 86.898 56.8203
9.712976 86.924 56.3937
9.783361 86.949 55.9681
9.854255 86.975 55.5430
9.925663 87.001 55.1183
9.997588 87.027 54.6934
10.070035 87.052 54.2684
10.143007 87.078 53.8428
10.216507 87.103 53.4166
10.290540 87.128 52.9896
10.365109 87.153 52.5617
10.440219 87.177 52.1331
10.515873 87.201 51.7038
10.592076 87.225 51.2740
10.668830 87.248 50.8437
10.746141 87.271 50.4133
10.824012 87.293 49.9829
10.902447 87.314 49.5528
10.981451 87.336 49.1233
11.061027 87.357 48.6945
11.141180 87.377 48.2666
11.221913 87.397 47.8397
11.303232 87.417 47.4140
11.385140 87.436 46.9893
11.467641 87.455 46.5658
11.550741 87.474 46.1432
11.634442 87.492 45.7214
11.718750 87.511 45.3003
11.803669 87.529 44.8795
11.889203 87.547 44.4590
11.975357 87.565 44.0384
12.062136 87.582 43.6175
12.149543 87.599 43.1964
12.237583 87.616 42.7747
12.326262 87.632 42.3528
12.415583 87.648 41.9307
12.505552 87.664 41.5085
12.596172 87.678 41.0868
12.687449 87.693 40.6659
12.779387 87.706 40.2463
12.871992 87.719 39.8287
12.965268 87.731 39.4137
13.059220 87.742 39.0018
13.153852 87.753 38.5937
13.249170 87.764 38.1898
13.345179 87.774 37.7906
13.441884 87.784 37.3962
13.539289 87.794 37.0067
13.637401 87.804 36.6219
13.736223 87.814 36.2416
13.835761 87.825 35.8651
13.936021 87.836 35.4916
14.037007 87.847 35.1205
14.138725 87.859 34.7506
14.241180 87.871 34.3810
14.344377 87.884 34.0107
14.448323 87.897 33.6390
14.553021 87.911 33.2650
14.658478 87.924 32.8884
14.764700 87.937 32.5088
14.871691 87.950 32.1263
14.979457 87.963 31.7412
15.088005 87.974 31.3541
15.197339 87.986 30.9659
15.307465 87.996 30.5775
15.418389 88.005 30.1901
15.530117 88.013 29.8048
15.642655 88.021 29.4225
15.756008 88.028 29.0443
15.870182 88.034 28.6708
15.985184 88.040 28.3023
16.101019 88.046 27.9390
16.217694 88.052 27.5805
16.335214 88.058 27.2263
16.453586 88.064 26.8755
16.572815 88.070 26.5272
16.692909 88.077 26.1804
16.813872 88.083 25.8339
16.935713 88.090 25.4868
17.058436 88.097 25.1385
17.182048 88.103 24.7889
17.306556 88.109 24.4379
17.431967 88.115 24.0861
17.558286 88.119 23.7341
17.685521 88.123 23.3831
17.813677 88.125 23.0344
17.942762 88.127 22.6891
18.072783 88.128 22.3486
18.203746 88.128 22.0137
18.335658 88.128 21.6849
18.468526 88.128 21.3625
18.602356 88.127 21.0460
18.737156 88.127 20.7347
18.872934 88.128 20.4275
19.009695 88.128 20.1228
19.147447 88.130 19.8192
19.286197 88.131 19.5150
19.425953 88.133 19.2092
19.566721 88.135 18.9007
19.708510 88.137 18.5892
19.851326 88.138 18.2747
19.995177 88.139 17.9578
20.140070 88.139 17.6396
20.286013 88.138 17.3212
20.433014 88.136 17.0042
20.581080 88.134 16.6896
20.730219 88.130 16.3787
20.880439 88.126 16.0718
21.031747 88.122 15.7693
21.184152 88.118 15.4707
21.337661 88.115 15.1750
21.492282 88.111 14.8811
21.648024 88.108 14.5875
21.804895 88.105 14.2928
21.962902 88.102 13.9955
22.122054 88.100 13.6949
22.282360 88.097 13.3905
22.443827 88.093 13.0823
22.606464 88.089 12.7711
22.770280 88.083 12.4579
22.935283 88.077 12.1442
23.101481 88.070 11.8318
23.268884 88.061 11.5225
23.437500 88.052 11.2178
23.607338 88.041 10.9191
23.778406 88.031 10.6274
23.950714 88.019 10.3431
24.124271 88.008 10.0663
24.299086 87.998 9.7964
24.475167 87.987 9.5322
24.652524 87.978 9.2726
24.831166 87.969 9.0159
25.011103 87.961 8.7603
25.192344 87.954 8.5040
25.374898 87.947 8.2457
25.558775 87.941 7.9844
25.743984 87.934 7.7195
25.930536 87.927 7.4510
26.118439 87.920 7.1798
26.307704 87.912 6.9070
26.498341 87.904 6.6343
26.690359 87.894 6.3635
26.883768 87.883 6.0964
27.078579 87.872 5.8344
27.274801 87.861 5.5782
27.472446 87.849 5.3279
27.671522 87.837 5.0829
27.872042 87.826 4.8418
28.074014 87.816 4.6029
28.277450 87.806 4.3644
28.482360 87.796 4.1245
28.688755 87.786 3.8821
28.896645 87.776 3.6367
29.106042 87.766 3.3884
29.316957 87.755 3.1378
29.529400 87.744 2.8859
29.743382 87.731 2.6340
29.958915 87.718 2.3832
30.176009 87.705 2.1339
30.394677 87.691 1.8866
30.614929 87.676 1.6411
30.836778 87.661 1.3973
31.060234 87.646 1.1547
31.285309 87.631 0.9133
31.512015 87.615 0.6733
31.740364 87.599 0.4354
31.970368 87.582 0.2002
32.202039 87.566 -0.0315
32.435388 87.549 -0.2592
32.670428 87.532 -0.4829
32.907171 87.516 -0.7034
33.145630 87.500 -0.9218
33.385817 87.485 -1.1396
33.627745 87.470 -1.3584
33.871425 87.455 -1.5790
34.116871 87.441 -1.8016
34.364096 87.426 -2.0251
34.613113 87.410 -2.2481
34.863934 87.394 -2.4684
35.116572 87.378 -2.6841
35.371041 87.361 -2.8942
35.627354 87.344 -3.0988
35.885525 87.329 -3.2994
36.145566 87.313 -3.4979
36.407492 87.299 -3.6969
36.671316 87.284 -3.8979
36.937051 87.269 -4.1019
37.204712 87.254 -4.3080
37.474313 87.238 -4.5150
37.745867 87.222 -4.7208
38.019389 87.205 -4.9244
38.294893 87.187 -5.1250
38.572394 87.169 -5.3231
38.851905 87.151 -5.5197
39.133442 87.133 -5.7159
39.417019 87.115 -5.9122
39.702651 87.096 -6.1086
39.990353 87.077 -6.3043
40.280140 87.058 -6.4987
40.572026 87.038 -6.6913
40.866028 87.019 -6.8821
41.162160 86.999 -7.0717
41.460438 86.980 -7.2604
41.760877 86.961 -7.4485
42.063494 86.942 -7.6354
42.368303 86.923 -7.8206
42.675322 86.904 -8.0029
42.984565 86.886 -8.1824
43.296048 86.868 -8.3591
43.609789 86.850 -8.5338
43.925804 86.833 -8.7074
44.244108 86.816 -8.8802
44.564719 86.800 -9.0518
44.887654 86.783 -9.2208
45.212928 86.766 -9.3862
45.540560 86.749 -9.5475
45.870565 86.733 -9.7057
46.202962 86.717 -9.8641
46.537768 86.702 -10.0273
46.875000 86.687 -10.2004
47.214676 86.671 -10.3864
47.556813 86.652 -10.5844
47.901429 86.630 -10.7889
48.248542 86.604 -10.9911
48.598171 86.574 -11.1812
48.950334 86.541 -11.3518
49.305048 86.508 -11.5008
49.662333 86.475 -11.6321
50.022206 86.445 -11.7539
50.384688 86.416 -11.8757
50.749796 86.388 -12.0046
51.117550 86.362 -12.1439
51.487969 86.335 -12.2922
51.861072 86.307 -12.4459
52.236879 86.280 -12.6012
52.615409 86.252 -12.7552
52.996681 86.224 -12.9072
53.380717 86.197 -13.0571
53.767536 86.170 -13.2043
54.157158 86.143 -13.3473
54.549603 86.117 -13.4833
54.944892 86.091 -13.6106
55.343045 86.066 -13.7291
55.744084 86.043 -13.8411
56.148028 86.022 -13.9504
56.554900 86.001 -14.0607
56.964720 85.981 -14.1733
57.377510 85.961 -14.2881
57.793291 85.940 -14.4037
58.212085 85.919 -14.5197
58.633914 85.898 -14.6366
59.058799 85.875 -14.7556
59.486764 85.852 -14.8773
59.917829 85.827 -15.0005
60.352019 85.801 -15.1232
60.789354 85.773 -15.2432
61.229859 85.745 -15.3591
61.673556 85.715 -15.4708
62.120468 85.686 -15.5791
62.570618 85.656 -15.6850
63.024031 85.627 -15.7897
63.480729 85.597 -15.8940
63.940736 85.567 -15.9979
64.404077 85.538 -16.1006
64.870776 85.508 -16.2010
65.340856 85.478 -16.2983
65.814343 85.449 -16.3921
66.291261 85.420 -16.4829
66.771635 85.391 -16.5715
67.255489 85.362 -16.6581
67.742850 85.334 -16.7424
68.233743 85.306 -16.8243
68.728193 85.278 -16.9037
69.226226 85.250 -16.9814
69.727867 85.223 -17.0590
70.233144 85.196 -17.1378
70.742083 85.170 -17.2191
71.254709 85.143 -17.3027
71.771050 85.115 -17.3869
72.291132 85.087 -17.4694
72.814984 85.058 -17.5478
73.342631 85.029 -17.6214
73.874102 84.999 -17.6903
74.409424 84.970 -17.7559
74.948626 84.941 -17.8199
75.491734 84.911 -17.8837
76.038779 84.881 -17.9478
76.589787 84.851 -18.0111
77.144788 84.820 -18.0725
77.703811 84.789 -18.1317
78.266885 84.758 -18.1892
78.834039 84.726 -18.2454
79.405303 84.695 -18.3005
79.980706 84.664 -18.3550
80.560280 84.633 -18.4094
81.144053 84.603 -18.4641
81.732056 84.573 -18.5189
82.324320 84.542 -18.5721
82.920876 84.511 -18.6215
83.521755 84.481 -18.6640
84.126988 84.450 -18.6975
84.736607 84.420 -18.7215
85.350643 84.390 -18.7377
85.969129 84.361 -18.7496
86.592097 84.332 -18.7603
87.219579 84.304 -18.7716
87.851608 84.275 -18.7841
88.488217 84.246 -18.7977
89.129439 84.216 -18.8124
89.775308 84.186 -18.8290
90.425856 84.155 -18.8488
91.081119 84.125 -18.8718
91.741131 84.093 -18.8972
92.405925 84.062 -18.9230
93.075536 84.030 -18.9470
93.750000 83.998 -18.9673
94.429351 83.966 -18.9824
95.113625 83.935 -18.9906
95.802858 83.904 -18.9912
96.497085 83.873 -18.9853
97.196342 83.843 -18.9761
97.900667 83.813 -18.9668
98.610096 83.784 -18.9591
99.324665 83.754 -18.9529
100.044413 83.724 -18.9475
100.769376 83.693 -18.9421
101.499592 83.663 -18.9358
102.235100 83.632 -18.9275
102.975938 83.601 -18.9158
103.722144 83.570 -18.8992
104.473757 83.540 -18.8773
105.230817 83.510 -18.8507
105.993363 83.480 -18.8208
106.761435 83.450 -18.7883
107.535072 83.420 -18.7539
108.314315 83.391 -18.7181
109.099206 83.361 -18.6818
109.889783 83.331 -18.6450
110.686090 83.301 -18.6073
111.488167 83.271 -18.5677
112.296056 83.242 -18.5253
113.109800 83.212 -18.4789
113.929440 83.183 -18.4287
114.755020 83.153 -18.3758
115.586582 83.122 -18.3209
116.424170 83.090 -18.2643
117.267827 83.057 -18.2056
118.117598 83.024 -18.1437
118.973527 82.992 -18.0780
119.835658 82.962 -18.0101
120.704037 82.934 -17.9441
121.578708 82.909 -17.8835
122.459718 82.886 -17.8275
123.347111 82.864 -17.7722
124.240935 82.842 -17.7130
125.141236 82.820 -17.6471
126.048061 82.797 -17.5742
126.961458 82.771 -17.4957
127.881473 82.744 -17.4128
128.808154 82.715 -17.3268
129.741551 82.685 -17.2390
130.681712 82.655 -17.1513
131.628686 82.626 -17.0655
132.582521 82.599 -16.9830
133.543269 82.573 -16.9037
134.510979 82.547 -16.8251
135.485701 82.523 -16.7429
136.467486 82.498 -16.6542
137.456386 82.473 -16.5588
138.452451 82.448 -16.4588
139.455735 82.422 -16.3576
140.466288 82.397 -16.2577
141.484165 82.371 -16.1595
142.509418 82.345 -16.0619
143.542100 82.319 -15.9634
144.582265 82.293 -15.8625
145.629968 82.267 -15.7576
146.685262 82.242 -15.6479
147.748204 82.217 -15.5347
148.818849 82.192 -15.4197
149.897251 82.169 -15.3044
150.983469 82.145 -15.1893
152.077557 82.122 -15.0735
153.179574 82.099 -14.9561
154.289576 82.077 -14.8356
155.407622 82.054 -14.7119
156.533770 82.032 -14.5855
157.668078 82.011 -14.4574
158.810606 81.989 -14.3286
159.961413 81.968 -14.2000
161.120559 81.947 -14.0719
162.288105 81.925 -13.9438
163.464112 81.903 -13.8147
164.648640 81.881 -13.6833
165.841752 81.859 -13.5491
167.043510 81.838 -13.4120
168.253976 81.817 -13.2723
169.473213 81.796 -13.1305
170.701286 81.776 -12.9865
171.938258 81.755 -12.8398
173.184194 81.735 -12.6904
174.439158 81.715 -12.5383
175.703216 81.696 -12.3834
176.976434 81.677 -12.2260
178.258878 81.658 -12.0659
179.550615 81.640 -11.9037
180.851713 81.622 -11.7399
182.162239 81.605 -11.5746
183.482262 81.588 -11.4080
184.811850 81.571 -11.2404
186.151073 81.554 -11.0708
187.500000 81.536 -10.8978
188.858702 81.517 -10.7195
190.227250 81.497 -10.5348
191.605715 81.476 -10.3434
192.994169 81.455 -10.1453
194.392685 81.435 -9.9390
195.801334 81.416 -9.7201
197.220191 81.399 -9.4818
198.649330 81.386 -9.2188
200.088825 81.378 -8.9310
201.538751 81.376 -8.6252
202.999184 81.380 -8.3143
204.470200 81.390 -8.0136
205.951875 81.405 -7.7383
207.444287 81.423 -7.4997
208.947514 81.443 -7.3041
210.461634 81.463 -7.1541
211.986726 81.481 -7.0492
213.522869 81.496 -6.9849
215.070144 81.508 -6.9514
216.628631 81.515 -6.9361
218.198411 81.518 -6.9258
219.779567 81.518 -6.9102
221.372180 81.514 -6.8831
222.976334 81.508 -6.8431
224.592112 81.499 -6.7911
226.219600 81.489 -6.7290
227.858880 81.478 -6.6578
229.510039 81.467 -6.5778
231.173164 81.456 -6.4882
232.848340 81.446 -6.3887
234.535655 81.437 -6.2797
236.235197 81.429 -6.1630
237.947054 81.423 -6.0410
239.671317 81.418 -5.9161
241.408074 81.412 -5.7900
243.157416 81.407 -5.6635
244.919435 81.401 -5.5357
246.694223 81.395 -5.4066
248.481871 81.387 -5.2766
250.282473 81.378 -5.1469
252.096123 81.369 -5.0184
253.922915 81.361 -4.8907
255.762945 81.354 -4.7622
257.616309 81.348 -4.6337
259.483103 81.342 -4.5084
261.363424 81.336 -4.3901
263.257372 81.329 -4.2799
265.165043 81.322 -4.1752
267.086538 81.315 -4.0717
269.021957 81.308 -3.9645
270.971401 81.301 -3.8507
272.934972 81.295 -3.7290
274.912771 81.289 -3.5986
276.904902 81.286 -3.4597
278.911469 81.283 -3.3147
280.932577 81.282 -3.1682
282.968330 81.281 -3.0243
285.018835 81.281 -2.8837
287.084199 81.281 -2.7459
289.164530 81.280 -2.6115
291.259935 81.280 -2.4809
293.370525 81.280 -2.3542
295.496408 81.279 -2.2313
297.637697 81.279 -2.1121
299.794503 81.279 -1.9965
301.966937 81.279 -1.8841
304.155114 81.279 -1.7742
306.359147 81.279 -1.6658
308.579152 81.278 -1.5582
310.815244 81.278 -1.4508
313.067539 81.277 -1.3428
315.336156 81.276 -1.2324
317.621211 81.275 -1.1191
319.922826 81.275 -1.0038
322.241118 81.274 -0.8887
324.576210 81.273 -0.7750
326.928223 81.271 -0.6628
329.297280 81.270 -0.5513
331.683504 81.268 -0.4384
334.087019 81.267 -0.3225
336.507952 81.265 -0.2031
338.946427 81.263 -0.0815
341.402572 81.261 0.0406
343.876516 81.259 0.1615
346.368387 81.257 0.2803
348.878315 81.255 0.3972
351.406431 81.254 0.5131
353.952867 81.252 0.6283
356.517756 81.251 0.7432
359.101230 81.249 0.8583
361.703426 81.248 0.9741
364.324478 81.247 1.0916
366.964523 81.245 1.2104
369.623699 81.243 1.3298
372.302145 81.241 1.4490
375.000000 81.239 1.5687
377.717405 81.236 1.6902
380.454501 81.234 1.8146
383.211431 81.231 1.9423
385.988339 81.229 2.0735
388.785369 81.227 2.2087
391.602668 81.226 2.3484
394.440383 81.226 2.4928
397.298660 81.227 2.6423
400.177650 81.228 2.7969
403.077502 81.230 2.9559
405.998368 81.233 3.1171
408.940400 81.237 3.2776
411.903750 81.241 3.4351
414.888575 81.245 3.5887
417.895028 81.250 3.7397
420.923268 81.256 3.8905
423.973452 81.262 4.0422
427.045738 81.270 4.1948
430.140287 81.279 4.3467
433.257261 81.289 4.4943
436.396822 81.301 4.6326
439.559133 81.314 4.7574
442.744360 81.328 4.8654
445.952668 81.341 4.9552
449.184225 81.354 5.0280
452.439199 81.365 5.0867
455.717760 81.373 5.1355
459.020079 81.380 5.1790
462.346327 81.384 5.2212
465.696680 81.387 5.2653
469.071310 81.388 5.3140
472.470394 81.388 5.3687
475.894109 81.387 5.4301
479.342634 81.385 5.4983
482.816148 81.382 5.5728
486.314833 81.380 5.6530
489.838871 81.377 5.7383
493.388445 81.375 5.8279
496.963741 81.372 5.9211
500.564945 81.369 6.0170
504.192245 81.367 6.1154
507.845830 81.365 6.2161
511.525890 81.362 6.3194
515.232618 81.360 6.4253
518.966206 81.358 6.5338
522.726849 81.355 6.6451
526.514743 81.353 6.7592
530.330086 81.351 6.8760
534.173076 81.348 6.9960
538.043915 81.346 7.1187
541.942803 81.344 7.2439
545.869944 81.342 7.3715
549.825542 81.340 7.5012
553.809805 81.339 7.6329
557.822939 81.337 7.7661
561.865154 81.336 7.9000
565.936660 81.335 8.0345
570.037671 81.334 8.1697
574.168399 81.333 8.3055
578.329060 81.331 8.4424
582.519870 81.330 8.5809
586.741049 81.329 8.7214
590.992817 81.328 8.8641
595.275394 81.326 9.0090
599.589005 81.325 9.1564
603.933874 81.324 9.3064
608.310228 81.323 9.4591
612.718295 81.322 9.6146
617.158304 81.321 9.7728
621.630488 81.320 9.9336
626.135079 81.320 10.0968
630.672311 81.319 10.2625
635.242423 81.319 10.4304
639.845651 81.318 10.6006
644.482237 81.318 10.7731
649.152421 81.318 10.9484
653.856447 81.318 11.1267
658.594560 81.319 11.3081
663.367008 81.319 11.4927
668.174039 81.320 11.6805
673.015903 81.320 11.8717
677.892854 81.322 12.0664
682.805145 81.323 12.2646
687.753032 81.325 12.4663
692.736774 81.327 12.6714
697.756631 81.330 12.8799
702.812863 81.333 13.0917
707.905735 81.337 13.3064
713.035511 81.341 13.5242
718.202461 81.345 13.7449
723.406852 81.350 13.9688
728.648956 81.355 14.1958
733.929047 81.361 14.4266
739.247399 81.367 14.6611
744.604290 81.375 14.8992
750.000000 81.383 15.1405
755.434809 81.391 15.3848
760.909001 81.401 15.6317
766.422861 81.411 15.8809
771.976677 81.423 16.1324
777.570739 81.435 16.3860
783.205337 81.448 16.6420
788.880766 81.461 16.9002
794.597321 81.476 17.1608
800.355301 81.491 17.4237
806.155005 81.507 17.6886
811.996736 81.525 17.9552
817.880799 81.543 18.2233
823.807501 81.562 18.4924
829.777150 81.582 18.7625
835.790057 81.604 19.0330
841.846536 81.626 19.3033
847.946903 81.649 19.5732
854.091476 81.674 19.8424
860.280575 81.700 20.1111
866.514523 81.727 20.3790
872.793644 81.755 20.6460
879.118267 81.785 20.9117
885.488720 81.815 21.1758
891.905336 81.847 21.4380
898.368450 81.881 21.6978
904.878398 81.915 21.9546
911.435520 81.951 22.2081
918.040157 81.989 22.4578
924.692655 82.027 22.7034
931.393359 82.067 22.9445
938.142619 82.108 23.1809
944.940787 82.150 23.4122
951.788218 82.194 23.6379
958.685268 82.239 23.8580
965.632296 82.284 24.0720
972.629666 82.331 24.2793
979.677741 82.379 24.4790
986.776890 82.428 24.6700
993.927482 82.478 24.8518
1001.129891 82.529 25.0237
1008.384491 82.581 25.1857
1015.691660 82.634 25.3374
1023.051781 82.687 25.4786
1030.465236 82.741 25.6094
1037.932411 82.796 25.7292
1045.453698 82.851 25.8381
1053.029486 82.906 25.9356
1060.660172 82.961 26.0215
1068.346153 83.017 26.0956
1076.087829 83.073 26.1580
1083.885605 83.129 26.2084
1091.739887 83.184 26.2469
1099.651084 83.240 26.2739
1107.619609 83.295 26.2896
1115.645878 83.350 26.2942
1123.730308 83.404 26.2883
1131.873321 83.458 26.2723
1140.075341 83.511 26.2465
1148.336797 83.564 26.2111
1156.658119 83.615 26.1664
1165.039741 83.666 26.1125
1173.482099 83.716 26.0499
1181.985634 83.764 25.9791
1190.550789 83.812 25.9007
1199.178011 83.859 25.8154
1207.867749 83.905 25.7239
1216.620457 83.950 25.6265
1225.436590 83.993 25.5234
1234.316609 84.036 25.4150
1243.260976 84.077 25.3018
1252.270157 84.117 25.1841
1261.344623 84.156 25.0626
1270.484846 84.194 24.9379
1279.691303 84.230 24.8107
1288.964474 84.265 24.6817
1298.304842 84.300 24.5514
1307.712894 84.333 24.4202
1317.189120 84.365 24.2881
1326.734016 84.396 24.1555
1336.348077 84.426 24.0226
1346.031806 84.454 23.8898
1355.785708 84.482 23.7579
1365.610290 84.510 23.6272
1375.506065 84.536 23.4981
1385.473549 84.561 23.3705
1395.513261 84.586 23.2444
1405.625726 84.610 23.1196
1415.811469 84.634 22.9963
1426.071023 84.656 22.8749
1436.404921 84.679 22.7559
1446.813703 84.700 22.6397
1457.297912 84.722 22.5266
1467.858093 84.742 22.4163
1478.494798 84.763 22.3087
1489.208581 84.783 22.2036
1500.000000 84.802 22.1006
1510.869618 84.822 21.9996
1521.818002 84.841 21.9006
1532.845723 84.860 21.8038
1543.953355 84.878 21.7091
1555.141477 84.897 21.6167
1566.410674 84.916 21.5266
1577.761531 84.934 21.4385
1589.194642 84.953 21.3527
1600.710601 84.971 21.2689
1612.310010 84.990 21.1870
1623.993473 85.009 21.1070
1635.761599 85.028 21.0284
1647.615002 85.047 20.9510
1659.554299 85.066 20.8748
1671.580114 85.086 20.7993
1683.693072 85.105 20.7249
1695.893807 85.126 20.6512
1708.182952 85.146 20.5784
1720.561150 85.167 20.5059
1733.029045 85.188 20.4337
1745.587288 85.209 20.3616
1758.236533 85.231 20.2895
1770.977440 85.253 20.2173
1783.810673 85.275 20.1451
1796.736900 85.298 20.0725
1809.756796 85.321 19.9991
1822.871040 85.344 19.9249
1836.080315 85.368 19.8495
1849.385310 85.392 19.7728
1862.786718 85.417 19.6946
1876.285239 85.442 19.6147
1889.881575 85.467 19.5327
1903.576436 85.493 19.4484
1917.370535 85.520 19.3618
1931.264593 85.546 19.2728
1945.259332 85.573 19.1813
1959.355483 85.601 19.0869
1973.553781 85.629 18.9897
1987.854965 85.657 18.8893
2002.259781 85.686 18.7854
2016.768981 85.715 18.6778
2031.383320 85.745 18.5663
2046.103561 85.775 18.4508
2060.930471 85.805 18.3310
2075.864823 85.835 18.2067
2090.907395 85.866 18.0776
2106.058972 85.897 17.9437
2121.320344 85.928 17.8046
2136.692305 85.960 17.6604
2152.175658 85.992 17.5107
2167.771210 86.024 17.3556
2183.479774 86.056 17.1945
2199.302169 86.089 17.0273
2215.239219 86.121 16.8539
2231.291755 86.154 16.6741
2247.460615 86.187 16.4877
2263.746641 86.220 16.2948
2280.150683 86.253 16.0951
2296.673595 86.286 15.8884
2313.316238 86.319 15.6747
2330.079481 86.352 15.4539
2346.964198 86.385 15.2258
2363.971268 86.418 14.9905
2381.101578 86.450 14.7479
2398.356022 86.483 14.4977
2415.735498 86.514 14.2399
2433.240913 86.546 13.9742
2450.873180 86.577 13.7009
2468.633217 86.608 13.4197
2486.521951 86.638 13.1307
2504.540314 86.668 12.8339
2522.689246 86.697 12.5294
2540.969692 86.725 12.2170
2559.382606 86.753 11.8967
2577.928947 86.780 11.5685
2596.609683 86.806 11.2327
2615.425787 86.832 10.8892
2634.378241 86.856 10.5385
2653.468031 86.880 10.1807
2672.696154 86.902 9.8163
2692.063613 86.924 9.4456
2711.571415 86.944 9.0685
2731.220579 86.963 8.6854
2751.012130 86.980 8.2965
2770.947098 86.997 7.9022
2791.026522 87.012 7.5026
2811.251451 87.025 7.0983
2831.622938 87.037 6.6895
2852.142045 87.048 6.2766
2872.809842 87.057 5.8602
2893.627406 87.065 5.4407
2914.595823 87.071 5.0186
2935.716186 87.075 4.5943
2956.989596 87.078 4.1683
2978.417161 87.079 3.7410
3000.000000 87.079 3.3131
3021.739237 87.077 2.8852
3043.636005 87.073 2.4576
3065.691446 87.067 2.0311
3087.906710 87.060 1.6062
3110.282955 87.050 1.1832
3132.821347 87.040 0.7628
3155.523062 87.027 0.3455
3178.389283 87.013 -0.0680
3201.421202 86.997 -0.4769
3224.620020 86.979 -0.8807
3247.986946 86.960 -1.2787
3271.523198 86.939 -1.6704
3295.230004 86.917 -2.0549
3319.108599 86.894 -2.4318
3343.160228 86.869 -2.8002
3367.386145 86.842 -3.1597
3391.787613 86.814 -3.5095
3416.365904 86.785 -3.8492
3441.122300 86.755 -4.1781
3466.058091 86.723 -4.4956
3491.174576 86.691 -4.8011
3516.473066 86.658 -5.0941
3541.954880 86.623 -5.3740
3567.621345 86.588 -5.6400
3593.473800 86.553 -5.8912
3619.513592 86.517 -6.1270
3645.742080 86.480 -6.3464
3672.160630 86.443 -6.5491
3698.770620 86.407 -6.7345
3725.573436 86.371 -6.9023
3752.570477 86.335 -7.0522
3779.763150 86.300 -7.1847
3807.152872 86.267 -7.3004
3834.741071 86.235 -7.4008
3862.529185 86.206 -7.4882
3890.518664 86.178 -7.5656
3918.710966 86.153 -7.6365
3947.107561 86.130 -7.7047
3975.709929 86.109 -7.7734
4004.519563 86.090 -7.8456
4033.537962 86.072 -7.9226
4062.766641 86.055 -8.0047
4092.207123 86.038 -8.0912
4121.860942 86.021 -8.1809
4151.729646 86.004 -8.2722
4181.814790 85.986 -8.3632
4212.117944 85.968 -8.4528
4242.640687 85.949 -8.5398
4273.384610 85.930 -8.6237
4304.351317 85.911 -8.7042
4335.542421 85.892 -8.7815
4366.959549 85.872 -8.8558
4398.604338 85.853 -8.9274
4430.478438 85.833 -8.9960
4462.583511 85.812 -9.0616
4494.921231 85.792 -9.1240
4527.493283 85.771 -9.1825
4560.301365 85.750 -9.2363
4593.347189 85.729 -9.2849
4626.632476 85.708 -9.3279
4660.158962 85.687 -9.3658
4693.928395 85.667 -9.4004
4727.942535 85.647 -9.4340
4762.203156 85.628 -9.4695
4796.712043 85.610 -9.5103
4831.470996 85.592 -9.5590
4866.481826 85.573 -9.6177
4901.746360 85.554 -9.6873
4937.266434 85.534 -9.7678
4973.043902 85.511 -9.8575
5009.080628 85.486 -9.9539
5045.378492 85.458 -10.0531
5081.939384 85.426 -10.1509
5118.765212 85.392 -10.2427
5155.857894 85.354 -10.3248
5193.219366 85.314 -10.3941
5230.851574 85.272 -10.4489
5268.756481 85.229 -10.4885
5306.936062 85.184 -10.5138
5345.392309 85.139 -10.5262
5384.127225 85.093 -10.5278
5423.142830 85.046 -10.5210
5462.441159 85.000 -10.5079
5502.024259 84.953 -10.4907
5541.894195 84.905 -10.4715
5582.053045 84.857 -10.4517
5622.502902 84.807 -10.4326
5663.245876 84.756 -10.4149
5704.284090 84.703 -10.3986
5745.619684 84.647 -10.3837
5787.254813 84.589 -10.3698
5829.191647 84.527 -10.3560
5871.432373 84.461 -10.3408
5913.979192 84.390 -10.3217
5956.834323 84.315 -10.2950
6000.000000 84.234 -10.2556
6043.478473 84.147 -10.1971
6087.272010 84.054 -10.1115
6131.382892 83.955 -9.9888
6175.813420 83.849 -9.8182
6220.565910 83.738 -9.5879
6265.642695 83.624 -9.2866
6311.046124 83.507 -8.9045
6356.778566 83.390 -8.4351
6402.842404 83.277 -7.8758
6449.240040 83.170 -7.2294
6495.973891 83.072 -6.5038
6543.046396 82.985 -5.7122
6590.460007 82.912 -4.8708
6638.217197 82.853 -3.9983
6686.320456 82.809 -3.1129
6734.772290 82.780 -2.2314
6783.575226 82.764 -1.3678
6832.731809 82.761 -0.5328
6882.244600 82.770 0.2656
6932.116181 82.790 1.0219
6982.349153 82.820 1.7321
7032.946133 82.860 2.3933
7083.909760 82.908 3.0029
7135.242690 82.965 3.5588
7186.947600 83.030 4.0592
7239.027185 83.102 4.5023
7291.484160 83.184 4.8853
7344.321260 83.274 5.2021
7397.541239 83.373 5.4423
7451.146872 83.482 5.5876
7505.140954 83.599 5.6152
7559.526299 83.720 5.5039
7614.305743 83.840 5.2457
7669.482141 83.955 4.8502
7725.058371 84.062 4.3364
7781.037328 84.159 3.7233
7837.421932 84.244 3.0271
7894.215122 84.316 2.2649
7951.419859 84.375 1.4591
8009.039125 84.422 0.6399
8067.075924 84.460 -0.1564
8125.533282 84.496 -0.8972
8184.414245 84.544 -1.5759
8243.721885 84.616 -2.2433
8303.459292 84.718 -3.0321
8363.629581 84.838 -4.1285
8424.235888 84.937 -5.6574
8485.281374 84.973 -7.5476
8546.769221 84.923 -9.5530
8608.702634 84.791 -11.4108
8671.084842 84.598 -12.9424
8733.919097 84.372 -14.0608
8797.208675 84.136 -14.7433
8860.956876 83.915 -15.0120
8925.167022 83.729 -14.9351
8989.842461 83.594 -14.6418
9054.986566 83.517 -14.3197
9120.602731 83.483 -14.1604
9186.694378 83.462 -14.2543
9253.264952 83.427 -14.5284
9320.317925 83.366 -14.8165
9387.856790 83.285 -14.9775
9455.885071 83.200 -14.9500
9524.406312 83.125 -14.7443
9593.424086 83.072 -14.4117
9662.941992 83.046 -14.0186
9732.963653 83.049 -13.6327
9803.492719 83.079 -13.3178
9874.532869 83.131 -13.1320
9946.087805 83.201 -13.1248
10018.161257 83.278 -13.3333
10090.756983 83.352 -13.7762
10163.878768 83.414 -14.4528
10237.530423 83.453 -15.3420
10311.715789 83.461 -16.4074
10386.438732 83.431 -17.6014
10461.703149 83.358 -18.8704
10537.512962 83.242 -20.1593
10613.872125 83.080 -21.4147
10690.784618 82.874 -22.5872
10768.254450 82.626 -23.6318
10846.285661 82.340 -24.5095
10924.882318 82.019 -25.1865
11004.048518 81.667 -25.6355
11083.788390 81.291 -25.8360
11164.106090 80.895 -25.7744
11245.005805 80.484 -25.4443
11326.491752 80.064 -24.8461
11408.568180 79.640 -23.9861
11491.239368 79.216 -22.8761
11574.509626 78.798 -21.5325
11658.383294 78.388 -19.9745
11742.864745 77.991 -18.2241
11827.958384 77.607 -16.3047
11913.668646 77.240 -14.2407
12000.000000 76.891 -12.0573
12086.956947 76.562 -9.7791
12174.544019 76.252 -7.4297
12262.765784 75.962 -5.0309
12351.626840 75.691 -2.6023
12441.131819 75.437 -0.1606
12531.285389 75.199 2.2814
12622.092249 74.975 4.7168
12713.557132 74.763 7.1475
12805.684808 74.562 9.5858
12898.480079 74.370 12.0544
12991.947783 74.191 14.5817
13086.092792 74.029 17.1910
13180.920015 73.891 19.8890
13276.434395 73.784 22.6579
13372.640911 73.715 25.4564
13469.544580 73.689 28.2325
13567.150452 73.706 30.9366
13665.463617 73.767 33.5323
13764.489200 73.870 35.9976
13864.232362 74.013 38.3219
13964.698305 74.196 40.5003
14065.892266 74.419 42.5287
14167.819519 74.682 44.4016
14270.485380 74.982 46.1133
14373.895200 75.321 47.6608
14478.054370 75.696 49.0444
14582.968320 76.108 50.2677
14688.642520 76.557 51.3343
14795.082478 77.043 52.2442
14902.293745 77.568 52.9914
15010.281908 78.132 53.5623
15119.052599 78.737 53.9344
15228.611486 79.382 54.0750
15338.964283 80.067 53.9406
15450.116741 80.788 53.4758
15562.074656 81.540 52.6145
15674.843864 82.314 51.2827
15788.430244 83.098 49.4030
15902.839718 83.875 46.9027
16018.078250 84.625 43.7221
16134.151848 85.323 39.8252
16251.066563 85.942 35.2103
16368.828491 86.453 29.9199
16487.443769 86.830 24.0477
16606.918584 87.049 17.7399
16727.259161 87.094 11.1875
16848.471777 86.958 4.6085
16970.562748 86.643 -1.7780
17093.538442 86.163 -7.7783
17217.405268 85.535 -13.2432
17342.169684 84.783 -18.0767
17467.838194 83.932 -22.2352
17594.417350 83.004 -25.7212
17721.913751 82.020 -28.5723
17850.334044 80.998 -30.8509
17979.684923 79.950 -32.6335
18109.973131 78.886 -34.0031
18241.205462 77.812 -35.0419
18373.388756 76.735 -35.8291
18506.529905 75.656 -36.4382
18640.635849 74.578 -36.9355
18775.713581 73.505 -37.3789
18911.770141 72.439 -37.8158
19048.812624 71.384 -38.2824
19186.848172 70.346 -38.8001
19325.883983 69.334 -39.3721
19465.927305 68.366 -39.9808
19606.985439 67.470 -40.5876
19749.065738 66.695 -41.1355
19892.175609 66.110 -41.5565
20036.322514 65.792 -41.7869
