* Measurement data measured by REW V5.31.3
* Source: Headset (CX31993 HIFI AUDIO), MICROPHONE (Master Volume), R, volume: 0.250
* Format: 256k Log Swept Sine, 1 sweep at -12.0 dBFS with no timing reference
* Dated: 03 3, 25 11:13:12 AM
* REW Settings:
*  C-weighting compensation: Off
*  Target level: 75.0 dB
* Note: ; 
* Measurement: Moondrop Aria nb 500 L
* Smoothing: 1/12 octave
* Frequency Step: 96 ppo
* Start Frequency: 0.36621094 Hz
*
* Freq(Hz) SPL(dB) Phase(degrees)
0.366211 20.813 127.3679
0.368865 20.853 127.2264
0.371538 20.912 127.0182
0.374230 20.984 126.7630
0.376942 21.065 126.4776
0.379673 21.153 126.1745
0.382424 21.243 125.8616
0.385196 21.336 125.5438
0.387987 21.431 125.2240
0.390798 21.526 124.9039
0.393630 21.623 124.5843
0.396483 21.720 124.2658
0.399356 21.818 123.9486
0.402250 21.917 123.6330
0.405165 22.016 123.3191
0.408101 22.116 123.0069
0.411058 22.217 122.6966
0.414037 22.319 122.3883
0.417037 22.421 122.0819
0.420059 22.525 121.7776
0.423103 22.629 121.4754
0.426169 22.733 121.1754
0.429257 22.839 120.8775
0.432368 22.945 120.5819
0.435501 23.052 120.2886
0.438656 23.160 119.9976
0.441835 23.268 119.7089
0.445037 23.377 119.4226
0.448262 23.488 119.1387
0.451510 23.598 118.8571
0.454782 23.710 118.5779
0.458077 23.823 118.3012
0.461397 23.936 118.0268
0.464740 24.050 117.7549
0.468108 24.165 117.4853
0.471500 24.281 117.2182
0.474917 24.398 116.9534
0.478358 24.515 116.6909
0.481825 24.634 116.4308
0.485316 24.753 116.1731
0.488833 24.873 115.9176
0.492375 24.994 115.6644
0.495943 25.116 115.4134
0.499537 25.238 115.1646
0.503157 25.362 114.9180
0.506803 25.487 114.6735
0.510475 25.612 114.4310
0.514175 25.738 114.1907
0.517900 25.866 113.9523
0.521653 25.994 113.7158
0.525434 26.123 113.4813
0.529241 26.253 113.2486
0.533076 26.384 113.0177
0.536939 26.516 112.7886
0.540830 26.649 112.5611
0.544749 26.783 112.3353
0.548696 26.917 112.1110
0.552673 27.053 111.8883
0.556677 27.190 111.6670
0.560711 27.328 111.4471
0.564774 27.467 111.2286
0.568867 27.606 111.0113
0.572989 27.747 110.7952
0.577141 27.889 110.5803
0.581324 28.032 110.3664
0.585536 28.176 110.1536
0.589779 28.321 109.9417
0.594053 28.467 109.7308
0.598358 28.614 109.5206
0.602694 28.762 109.3112
0.607061 28.911 109.1024
0.611460 29.062 108.8943
0.615891 29.213 108.6868
0.620354 29.365 108.4797
0.624849 29.519 108.2731
0.629377 29.674 108.0668
0.633938 29.830 107.8608
0.638532 29.987 107.6550
0.643159 30.145 107.4494
0.647819 30.304 107.2439
0.652514 30.464 107.0383
0.657242 30.626 106.8328
0.662005 30.789 106.6271
0.666802 30.952 106.4212
0.671634 31.118 106.2150
0.676501 31.284 106.0084
0.681403 31.451 105.8013
0.686341 31.620 105.5933
0.691314 31.790 105.3841
0.696324 31.960 105.1730
0.701370 32.132 104.9588
0.706452 32.304 104.7395
0.711571 32.476 104.5120
0.716728 32.647 104.2712
0.721921 32.816 104.0107
0.727153 32.983 103.7223
0.732422 33.145 103.3991
0.737729 33.302 103.0382
0.743075 33.455 102.6449
0.748460 33.605 102.2281
0.753883 33.752 101.7966
0.759346 33.897 101.3575
0.764849 34.041 100.9156
0.770391 34.185 100.4739
0.775974 34.327 100.0342
0.781597 34.469 99.5972
0.787261 34.611 99.1635
0.792966 34.752 98.7331
0.798712 34.892 98.3062
0.804500 35.033 97.8824
0.810329 35.172 97.4617
0.816201 35.312 97.0439
0.822116 35.450 96.6287
0.828073 35.589 96.2160
0.834074 35.727 95.8055
0.840118 35.864 95.3969
0.846206 36.002 94.9900
0.852338 36.139 94.5845
0.858514 36.275 94.1801
0.864735 36.411 93.7766
0.871001 36.547 93.3737
0.877313 36.683 92.9710
0.883670 36.818 92.5684
0.890074 36.953 92.1654
0.896524 37.088 91.7618
0.903020 37.222 91.3573
0.909564 37.357 90.9516
0.916155 37.491 90.5443
0.922794 37.625 90.1352
0.929481 37.759 89.7239
0.936216 37.892 89.3101
0.943000 38.026 88.8935
0.949834 38.160 88.4737
0.956717 38.294 88.0504
0.963649 38.427 87.6234
0.970632 38.561 87.1921
0.977666 38.695 86.7564
0.984750 38.829 86.3158
0.991886 38.964 85.8700
0.999074 39.098 85.4187
1.006314 39.233 84.9615
1.013606 39.369 84.4980
1.020951 39.504 84.0279
1.028349 39.641 83.5508
1.035801 39.777 83.0665
1.043307 39.915 82.5744
1.050867 40.053 82.0743
1.058482 40.191 81.5660
1.066152 40.331 81.0492
1.073878 40.471 80.5238
1.081660 40.612 79.9899
1.089498 40.753 79.4480
1.097393 40.895 78.8987
1.105345 41.037 78.3430
1.113355 41.179 77.7821
1.121423 41.322 77.2171
1.129549 41.464 76.6489
1.137734 41.605 76.0783
1.145979 41.747 75.5059
1.154283 41.888 74.9322
1.162647 42.029 74.3574
1.171072 42.169 73.7820
1.179558 42.309 73.2062
1.188106 42.449 72.6303
1.196715 42.588 72.0543
1.205387 42.727 71.4785
1.214122 42.866 70.9029
1.222920 43.005 70.3278
1.231782 43.143 69.7530
1.240708 43.281 69.1788
1.249699 43.419 68.6051
1.258754 43.556 68.0320
1.267876 43.694 67.4593
1.277063 43.831 66.8871
1.286318 43.968 66.3153
1.295639 44.105 65.7438
1.305027 44.241 65.1725
1.314484 44.378 64.6012
1.324009 44.515 64.0299
1.333604 44.651 63.4583
1.343268 44.788 62.8864
1.353002 44.924 62.3138
1.362806 45.061 61.7403
1.372681 45.197 61.1658
1.382628 45.334 60.5900
1.392647 45.471 60.0126
1.402739 45.608 59.4334
1.412904 45.746 58.8520
1.423142 45.883 58.2683
1.433455 46.021 57.6820
1.443843 46.159 57.0930
1.454305 46.297 56.5012
1.464844 46.435 55.9066
1.475459 46.573 55.3095
1.486150 46.711 54.7101
1.496920 46.849 54.1089
1.507767 46.986 53.5061
1.518693 47.123 52.9021
1.529698 47.259 52.2971
1.540783 47.395 51.6912
1.551948 47.531 51.0847
1.563194 47.666 50.4776
1.574521 47.800 49.8701
1.585931 47.935 49.2622
1.597423 48.068 48.6540
1.608999 48.202 48.0454
1.620658 48.335 47.4366
1.632402 48.468 46.8273
1.644232 48.600 46.2176
1.656146 48.732 45.6075
1.668147 48.864 44.9967
1.680235 48.996 44.3852
1.692411 49.127 43.7729
1.704675 49.258 43.1595
1.717028 49.390 42.5449
1.729470 49.520 41.9290
1.742003 49.651 41.3113
1.754626 49.782 40.6918
1.767341 49.913 40.0701
1.780147 50.043 39.4460
1.793047 50.174 38.8189
1.806040 50.304 38.1887
1.819128 50.435 37.5547
1.832310 50.565 36.9168
1.845587 50.695 36.2745
1.858961 50.824 35.6278
1.872432 50.953 34.9768
1.886001 51.081 34.3218
1.899667 51.209 33.6633
1.913433 51.336 33.0016
1.927299 51.463 32.3375
1.941265 51.589 31.6714
1.955332 51.715 31.0038
1.969501 51.840 30.3354
1.983773 51.964 29.6665
1.998148 52.088 28.9976
2.012627 52.212 28.3291
2.027212 52.335 27.6614
2.041902 52.458 26.9949
2.056698 52.580 26.3298
2.071602 52.702 25.6664
2.086614 52.824 25.0050
2.101734 52.946 24.3456
2.116964 53.067 23.6883
2.132304 53.188 23.0332
2.147756 53.309 22.3801
2.163320 53.430 21.7287
2.178996 53.550 21.0784
2.194786 53.671 20.4286
2.210690 53.790 19.7785
2.226710 53.910 19.1272
2.242845 54.029 18.4744
2.259098 54.147 17.8198
2.275468 54.264 17.1636
2.291957 54.381 16.5061
2.308566 54.497 15.8477
2.325295 54.613 15.1888
2.342145 54.728 14.5299
2.359117 54.842 13.8717
2.376212 54.956 13.2146
2.393431 55.070 12.5591
2.410775 55.183 11.9058
2.428244 55.295 11.2550
2.445840 55.408 10.6072
2.463564 55.520 9.9627
2.481416 55.632 9.3219
2.499397 55.744 8.6850
2.517509 55.856 8.0518
2.535752 55.968 7.4224
2.554127 56.079 6.7961
2.572635 56.191 6.1724
2.591277 56.301 5.5506
2.610055 56.412 4.9300
2.628968 56.521 4.3102
2.648019 56.630 3.6912
2.667208 56.739 3.0728
2.686535 56.847 2.4553
2.706003 56.955 1.8391
2.725612 57.062 1.2243
2.745363 57.169 0.6114
2.765257 57.276 0.0007
2.785295 57.383 -0.6074
2.805478 57.489 -1.2124
2.825808 57.595 -1.8142
2.846285 57.702 -2.4123
2.866910 57.808 -3.0065
2.887685 57.914 -3.5967
2.908611 58.021 -4.1829
2.929688 58.127 -4.7653
2.950917 58.234 -5.3441
2.972301 58.340 -5.9199
2.993839 58.446 -6.4928
3.015534 58.552 -7.0632
3.037386 58.658 -7.6313
3.059396 58.763 -8.1972
3.081565 58.869 -8.7610
3.103896 58.974 -9.3228
3.126388 59.079 -9.8825
3.149043 59.185 -10.4402
3.171862 59.290 -10.9959
3.194847 59.396 -11.5496
3.217998 59.501 -12.1011
3.241317 59.608 -12.6504
3.264805 59.714 -13.1975
3.288463 59.820 -13.7423
3.312293 59.927 -14.2846
3.336295 60.034 -14.8246
3.360471 60.141 -15.3622
3.384822 60.249 -15.8978
3.409350 60.356 -16.4314
3.434056 60.464 -16.9634
3.458940 60.571 -17.4942
3.484005 60.679 -18.0241
3.509252 60.787 -18.5536
3.534681 60.895 -19.0828
3.560295 61.004 -19.6123
3.586094 61.112 -20.1422
3.612081 61.221 -20.6727
3.638255 61.330 -21.2039
3.664620 61.439 -21.7358
3.691175 61.548 -22.2682
3.717923 61.658 -22.8010
3.744864 61.767 -23.3341
3.772001 61.877 -23.8675
3.799335 61.987 -24.4014
3.826866 62.097 -24.9358
3.854597 62.207 -25.4710
3.882529 62.317 -26.0074
3.910664 62.427 -26.5451
3.939002 62.537 -27.0845
3.967546 62.647 -27.6260
3.996296 62.756 -28.1698
4.025255 62.866 -28.7161
4.054423 62.975 -29.2649
4.083804 63.084 -29.8164
4.113396 63.192 -30.3702
4.143204 63.301 -30.9261
4.173227 63.409 -31.4839
4.203468 63.517 -32.0433
4.233928 63.625 -32.6039
4.264609 63.732 -33.1657
4.295512 63.838 -33.7286
4.326639 63.944 -34.2925
4.357992 64.049 -34.8578
4.389572 64.154 -35.4246
4.421380 64.258 -35.9932
4.453419 64.361 -36.5640
4.485691 64.463 -37.1367
4.518196 64.565 -37.7110
4.550936 64.666 -38.2863
4.583914 64.766 -38.8618
4.617131 64.865 -39.4368
4.650589 64.964 -40.0107
4.684289 65.062 -40.5829
4.718233 65.159 -41.1533
4.752424 65.254 -41.7219
4.786862 65.349 -42.2890
4.821549 65.443 -42.8550
4.856488 65.536 -43.4200
4.891680 65.628 -43.9836
4.927127 65.719 -44.5453
4.962831 65.809 -45.1043
4.998794 65.899 -45.6596
5.035017 65.987 -46.2105
5.071503 66.075 -46.7565
5.108253 66.162 -47.2972
5.145270 66.248 -47.8326
5.182555 66.334 -48.3631
5.220110 66.418 -48.8889
5.257937 66.502 -49.4100
5.296038 66.586 -49.9262
5.334415 66.668 -50.4373
5.373071 66.751 -50.9427
5.412006 66.833 -51.4421
5.451224 66.914 -51.9349
5.490725 66.996 -52.4212
5.530514 67.077 -52.9008
5.570590 67.158 -53.3741
5.610957 67.239 -53.8413
5.651616 67.320 -54.3028
5.692570 67.400 -54.7591
5.733821 67.481 -55.2104
5.775370 67.562 -55.6569
5.817221 67.643 -56.0989
5.859375 67.724 -56.5364
5.901834 67.806 -56.9696
5.944602 67.888 -57.3985
5.987679 67.970 -57.8238
6.031068 68.053 -58.2459
6.074771 68.136 -58.6658
6.118792 68.219 -59.0841
6.163131 68.303 -59.5015
6.207792 68.386 -59.9185
6.252776 68.471 -60.3354
6.298086 68.555 -60.7524
6.343725 68.640 -61.1695
6.389694 68.725 -61.5873
6.435996 68.810 -62.0060
6.482634 68.895 -62.4263
6.529610 68.980 -62.8487
6.576926 69.064 -63.2735
6.624585 69.149 -63.7009
6.672590 69.233 -64.1311
6.720942 69.317 -64.5638
6.769645 69.400 -64.9988
6.818700 69.483 -65.4357
6.868111 69.565 -65.8744
6.917881 69.646 -66.3148
6.968010 69.727 -66.7567
7.018504 69.806 -67.2000
7.069362 69.885 -67.6444
7.120590 69.962 -68.0892
7.172189 70.039 -68.5337
7.224161 70.114 -68.9768
7.276511 70.188 -69.4180
7.329239 70.261 -69.8566
7.382350 70.333 -70.2922
7.435845 70.404 -70.7246
7.489729 70.474 -71.1531
7.544002 70.543 -71.5770
7.598669 70.611 -71.9955
7.653732 70.678 -72.4077
7.709194 70.744 -72.8132
7.765058 70.810 -73.2118
7.821327 70.875 -73.6034
7.878004 70.940 -73.9881
7.935091 71.005 -74.3658
7.992592 71.070 -74.7364
8.050510 71.135 -75.1001
8.108847 71.200 -75.4569
8.167607 71.265 -75.8073
8.226793 71.331 -76.1522
8.286408 71.397 -76.4924
8.346454 71.464 -76.8289
8.406936 71.532 -77.1628
8.467856 71.601 -77.4948
8.529218 71.670 -77.8258
8.591024 71.741 -78.1570
8.653278 71.812 -78.4897
8.715983 71.884 -78.8254
8.779143 71.957 -79.1655
8.842760 72.030 -79.5108
8.906839 72.104 -79.8621
8.971381 72.179 -80.2203
9.036392 72.253 -80.5862
9.101873 72.328 -80.9605
9.167829 72.402 -81.3440
9.234263 72.476 -81.7367
9.301178 72.549 -82.1387
9.368578 72.621 -82.5496
9.436467 72.692 -82.9690
9.504847 72.762 -83.3963
9.573723 72.830 -83.8310
9.643099 72.897 -84.2721
9.712976 72.962 -84.7183
9.783361 73.024 -85.1682
9.854255 73.085 -85.6201
9.925663 73.143 -86.0726
9.997588 73.200 -86.5242
10.070035 73.254 -86.9732
10.143007 73.306 -87.4178
10.216507 73.356 -87.8560
10.290540 73.404 -88.2862
10.365109 73.451 -88.7071
10.440219 73.496 -89.1173
10.515873 73.540 -89.5156
10.592076 73.583 -89.9010
10.668830 73.625 -90.2727
10.746141 73.668 -90.6303
10.824012 73.710 -90.9741
10.902447 73.753 -91.3043
10.981451 73.797 -91.6216
11.061027 73.842 -91.9271
11.141180 73.889 -92.2221
11.221913 73.938 -92.5086
11.303232 73.989 -92.7890
11.385140 74.042 -93.0655
11.467641 74.097 -93.3406
11.550741 74.155 -93.6171
11.634442 74.216 -93.8980
11.718750 74.278 -94.1860
11.803669 74.343 -94.4839
11.889203 74.410 -94.7940
11.975357 74.478 -95.1183
12.062136 74.548 -95.4589
12.149543 74.618 -95.8171
12.237583 74.689 -96.1937
12.326262 74.759 -96.5889
12.415583 74.829 -97.0026
12.505552 74.898 -97.4341
12.596172 74.965 -97.8822
12.687449 75.030 -98.3449
12.779387 75.093 -98.8200
12.871992 75.154 -99.3050
12.965268 75.212 -99.7971
13.059220 75.266 -100.2933
13.153852 75.319 -100.7901
13.249170 75.368 -101.2846
13.345179 75.415 -101.7738
13.441884 75.459 -102.2552
13.539289 75.502 -102.7263
13.637401 75.543 -103.1853
13.736223 75.583 -103.6311
13.835761 75.623 -104.0633
13.936021 75.663 -104.4819
14.037007 75.703 -104.8879
14.138725 75.744 -105.2829
14.241180 75.786 -105.6691
14.344377 75.830 -106.0491
14.448323 75.875 -106.4256
14.553021 75.922 -106.8017
14.658478 75.971 -107.1803
14.764700 76.020 -107.5638
14.871691 76.071 -107.9540
14.979457 76.121 -108.3523
15.088005 76.172 -108.7591
15.197339 76.222 -109.1739
15.307465 76.270 -109.5952
15.418389 76.317 -110.0209
15.530117 76.363 -110.4483
15.642655 76.406 -110.8741
15.756008 76.447 -111.2948
15.870182 76.487 -111.7073
15.985184 76.526 -112.1086
16.101019 76.563 -112.4967
16.217694 76.601 -112.8705
16.335214 76.639 -113.2301
16.453586 76.678 -113.5769
16.572815 76.719 -113.9135
16.692909 76.762 -114.2437
16.813872 76.807 -114.5721
16.935713 76.855 -114.9037
17.058436 76.904 -115.2435
17.182048 76.955 -115.5959
17.306556 77.007 -115.9642
17.431967 77.058 -116.3503
17.558286 77.108 -116.7542
17.685521 77.156 -117.1744
17.813677 77.201 -117.6071
17.942762 77.242 -118.0472
18.072783 77.278 -118.4885
18.203746 77.310 -118.9240
18.335658 77.338 -119.3467
18.468526 77.362 -119.7504
18.602356 77.384 -120.1304
18.737156 77.404 -120.4836
18.872934 77.424 -120.8095
19.009695 77.445 -121.1099
19.147447 77.467 -121.3891
19.286197 77.493 -121.6529
19.425953 77.521 -121.9085
19.566721 77.552 -122.1632
19.708510 77.586 -122.4235
19.851326 77.621 -122.6944
19.995177 77.656 -122.9784
20.140070 77.691 -123.2756
20.286013 77.725 -123.5834
20.433014 77.756 -123.8973
20.581080 77.785 -124.2117
20.730219 77.812 -124.5208
20.880439 77.837 -124.8197
21.031747 77.862 -125.1058
21.184152 77.887 -125.3793
21.337661 77.915 -125.6435
21.492282 77.946 -125.9046
21.648024 77.980 -126.1713
21.804895 78.017 -126.4530
21.962902 78.057 -126.7585
22.122054 78.098 -127.0945
22.282360 78.138 -127.4642
22.443827 78.176 -127.8664
22.606464 78.210 -128.2958
22.770280 78.239 -128.7433
22.935283 78.262 -129.1973
23.101481 78.280 -129.6453
23.268884 78.293 -130.0762
23.437500 78.304 -130.4812
23.607338 78.314 -130.8562
23.778406 78.326 -131.2016
23.950714 78.341 -131.5231
24.124271 78.361 -131.8298
24.299086 78.386 -132.1333
24.475167 78.417 -132.4451
24.652524 78.453 -132.7753
24.831166 78.492 -133.1306
25.011103 78.532 -133.5142
25.192344 78.573 -133.9259
25.374898 78.614 -134.3628
25.558775 78.653 -134.8207
25.743984 78.690 -135.2947
25.930536 78.725 -135.7800
26.118439 78.757 -136.2714
26.307704 78.786 -136.7626
26.498341 78.812 -137.2453
26.690359 78.833 -137.7086
26.883768 78.850 -138.1384
27.078579 78.865 -138.5200
27.274801 78.880 -138.8403
27.472446 78.899 -139.0925
27.671522 78.927 -139.2803
27.872042 78.967 -139.4221
28.074014 79.024 -139.5509
28.277450 79.100 -139.7112
28.482360 79.191 -139.9517
28.688755 79.291 -140.3153
28.896645 79.393 -140.8284
29.106042 79.486 -141.4945
29.316957 79.559 -142.2910
29.529400 79.604 -143.1710
29.743382 79.615 -144.0691
29.958915 79.593 -144.9101
30.176009 79.541 -145.6198
30.394677 79.467 -146.1370
30.614929 79.384 -146.4258
30.836778 79.306 -146.4851
31.060234 79.244 -146.3510
31.285309 79.208 -146.0914
31.512015 79.201 -145.7893
31.740364 79.217 -145.5225
31.970368 79.250 -145.3456
32.202039 79.289 -145.2800
32.435388 79.325 -145.3152
32.670428 79.352 -145.4181
32.907171 79.369 -145.5467
33.145630 79.376 -145.6633
33.385817 79.380 -145.7451
33.627745 79.384 -145.7891
33.871425 79.395 -145.8109
34.116871 79.414 -145.8388
34.364096 79.441 -145.9047
34.613113 79.474 -146.0353
34.863934 79.509 -146.2462
35.116572 79.540 -146.5395
35.371041 79.565 -146.9046
35.627354 79.580 -147.3216
35.885525 79.584 -147.7643
36.145566 79.578 -148.2051
36.407492 79.562 -148.6182
36.671316 79.542 -148.9848
36.937051 79.521 -149.2964
37.204712 79.505 -149.5583
37.474313 79.496 -149.7887
37.745867 79.496 -150.0152
38.019389 79.506 -150.2667
38.294893 79.521 -150.5649
38.572394 79.537 -150.9173
38.851905 79.550 -151.3146
39.133442 79.556 -151.7335
39.417019 79.554 -152.1444
39.702651 79.547 -152.5210
39.990353 79.538 -152.8484
40.280140 79.531 -153.1273
40.572026 79.530 -153.3717
40.866028 79.535 -153.6029
41.162160 79.545 -153.8403
41.460438 79.557 -154.0950
41.760877 79.570 -154.3673
42.063494 79.581 -154.6487
42.368303 79.589 -154.9276
42.675322 79.596 -155.1946
42.984565 79.603 -155.4459
43.296048 79.611 -155.6840
43.609789 79.621 -155.9153
43.925804 79.632 -156.1463
44.244108 79.645 -156.3812
44.564719 79.658 -156.6198
44.887654 79.670 -156.8588
45.212928 79.683 -157.0939
45.540560 79.696 -157.3224
45.870565 79.711 -157.5450
46.202962 79.728 -157.7667
46.537768 79.747 -157.9953
46.875000 79.768 -158.2390
47.214676 79.788 -158.5029
47.556813 79.807 -158.7872
47.901429 79.821 -159.0859
48.248542 79.831 -159.3878
48.598171 79.835 -159.6792
48.950334 79.835 -159.9480
49.305048 79.832 -160.1874
49.662333 79.829 -160.3979
50.022206 79.827 -160.5877
50.384688 79.828 -160.7692
50.749796 79.829 -160.9551
51.117550 79.832 -161.1541
51.487969 79.834 -161.3697
51.861072 79.835 -161.6011
52.236879 79.834 -161.8450
52.615409 79.831 -162.0980
52.996681 79.826 -162.3561
53.380717 79.819 -162.6151
53.767536 79.811 -162.8705
54.157158 79.802 -163.1189
54.549603 79.794 -163.3587
54.944892 79.787 -163.5890
55.343045 79.780 -163.8093
55.744084 79.776 -164.0189
56.148028 79.773 -164.2183
56.554900 79.772 -164.4091
56.964720 79.772 -164.5912
57.377510 79.772 -164.7581
57.793291 79.773 -164.8979
58.212085 79.777 -165.0025
58.633914 79.787 -165.0807
59.058799 79.805 -165.1629
59.486764 79.830 -165.2883
59.917829 79.856 -165.4814
60.352019 79.876 -165.7357
60.789354 79.887 -166.0198
61.229859 79.888 -166.2996
61.673556 79.884 -166.5574
62.120468 79.878 -166.7947
62.570618 79.871 -167.0210
63.024031 79.864 -167.2429
63.480729 79.857 -167.4639
63.940736 79.851 -167.6888
64.404077 79.845 -167.9231
64.870776 79.840 -168.1683
65.340856 79.833 -168.4186
65.814343 79.824 -168.6665
66.291261 79.816 -168.9075
66.771635 79.807 -169.1396
67.255489 79.797 -169.3598
67.742850 79.788 -169.5645
68.233743 79.780 -169.7556
68.728193 79.774 -169.9404
69.226226 79.768 -170.1239
69.727867 79.762 -170.3036
70.233144 79.757 -170.4756
70.742083 79.753 -170.6455
71.254709 79.751 -170.8273
71.771050 79.750 -171.0314
72.291132 79.745 -171.2531
72.814984 79.738 -171.4780
73.342631 79.728 -171.6945
73.874102 79.718 -171.9014
74.409424 79.707 -172.1028
74.948626 79.697 -172.3014
75.491734 79.686 -172.4976
76.038779 79.676 -172.6915
76.589787 79.664 -172.8831
77.144788 79.652 -173.0690
77.703811 79.639 -173.2433
78.266885 79.628 -173.4040
78.834039 79.619 -173.5606
79.405303 79.613 -173.7328
79.980706 79.607 -173.9366
80.560280 79.597 -174.1652
81.144053 79.581 -174.3866
81.732056 79.561 -174.5656
82.324320 79.544 -174.6939
82.920876 79.534 -174.7975
83.521755 79.530 -174.9137
84.126988 79.529 -175.0623
84.736607 79.527 -175.2384
85.350643 79.522 -175.4281
85.969129 79.514 -175.6188
86.592097 79.503 -175.7990
87.219579 79.491 -175.9597
87.851608 79.482 -176.1058
88.488217 79.475 -176.2611
89.129439 79.471 -176.4503
89.775308 79.463 -176.6730
90.425856 79.449 -176.8999
91.081119 79.431 -177.0987
91.741131 79.412 -177.2583
92.405925 79.395 -177.3876
93.075536 79.379 -177.4964
93.750000 79.363 -177.5869
94.429351 79.349 -177.6620
95.113625 79.335 -177.7298
95.802858 79.320 -177.7980
96.497085 79.305 -177.8687
97.196342 79.291 -177.9465
97.900667 79.278 -178.0460
98.610096 79.267 -178.1848
99.324665 79.254 -178.3690
100.044413 79.237 -178.5856
100.769376 79.217 -178.8090
101.499592 79.193 -179.0119
102.235100 79.167 -179.1748
102.975938 79.144 -179.2911
103.722144 79.124 -179.3633
104.473757 79.109 -179.3987
105.230817 79.101 -179.4132
105.993363 79.102 -179.4361
106.761435 79.111 -179.5030
107.535072 79.123 -179.6379
108.314315 79.134 -179.8392
109.099206 79.141 179.9172
109.889783 79.141 179.6616
110.686090 79.136 179.4160
111.488167 79.123 179.1903
112.296056 79.101 178.9918
113.109800 79.067 178.8336
113.929440 79.022 178.7331
114.755020 78.968 178.7018
115.586582 78.911 178.7347
116.424170 78.859 178.8078
117.267827 78.819 178.8868
118.117598 78.795 178.9396
118.973527 78.789 178.9458
119.835658 78.804 178.8962
120.704037 78.838 178.7759
121.578708 78.886 178.5457
122.459718 78.939 178.1552
123.347111 78.978 177.5837
124.240935 78.985 176.8734
125.141236 78.952 176.1243
126.048061 78.882 175.4500
126.961458 78.789 174.9214
127.881473 78.691 174.5463
128.808154 78.601 174.2930
129.741551 78.523 174.1328
130.681712 78.459 174.0612
131.628686 78.408 174.0838
132.582521 78.367 174.1949
133.543269 78.337 174.3732
134.510979 78.316 174.5800
135.485701 78.301 174.7613
136.467486 78.285 174.8784
137.456386 78.262 174.9479
138.452451 78.230 175.0390
139.455735 78.194 175.2270
140.466288 78.165 175.5446
141.484165 78.150 175.9655
142.509418 78.152 176.4253
143.542100 78.166 176.8638
144.582265 78.186 177.2564
145.629968 78.206 177.6060
146.685262 78.225 177.9164
147.748204 78.242 178.1775
148.818849 78.255 178.3661
149.897251 78.262 178.4520
150.983469 78.263 178.4052
152.077557 78.255 178.2074
153.179574 78.240 177.8658
154.289576 78.220 177.4184
155.407622 78.201 176.9297
156.533770 78.188 176.4778
157.668078 78.184 176.1320
158.810606 78.189 175.9358
159.961413 78.199 175.8970
161.120559 78.208 175.9843
162.288105 78.213 176.1378
163.464112 78.210 176.2908
164.648640 78.198 176.3918
165.841752 78.180 176.4168
167.043510 78.159 176.3698
168.253976 78.139 176.2751
169.473213 78.120 176.1647
170.701286 78.103 176.0661
171.938258 78.087 175.9954
173.184194 78.069 175.9551
174.439158 78.051 175.9375
175.703216 78.031 175.9310
176.976434 78.011 175.9274
178.258878 77.990 175.9251
179.550615 77.969 175.9271
180.851713 77.946 175.9374
182.162239 77.923 175.9571
183.482262 77.897 175.9819
184.811850 77.870 176.0037
186.151073 77.842 176.0149
187.500000 77.812 176.0132
188.858702 77.783 176.0026
190.227250 77.755 175.9919
191.605715 77.730 175.9908
192.994169 77.708 176.0082
194.392685 77.689 176.0497
195.801334 77.672 176.1163
197.220191 77.656 176.2030
198.649330 77.640 176.3009
200.088825 77.625 176.4004
201.538751 77.611 176.4935
202.999184 77.599 176.5737
204.470200 77.589 176.6371
205.951875 77.578 176.6837
207.444287 77.568 176.7174
208.947514 77.556 176.7441
210.461634 77.542 176.7671
211.986726 77.528 176.7861
213.522869 77.514 176.7993
215.070144 77.502 176.8059
216.628631 77.490 176.8099
218.198411 77.479 176.8197
219.779567 77.468 176.8409
221.372180 77.456 176.8705
222.976334 77.441 176.9008
224.592112 77.423 176.9282
226.219600 77.404 176.9584
227.858880 77.386 177.0025
229.510039 77.370 177.0674
231.173164 77.357 177.1501
232.848340 77.346 177.2399
234.535655 77.336 177.3258
236.235197 77.328 177.4042
237.947054 77.320 177.4843
239.671317 77.313 177.5811
241.408074 77.304 177.7006
243.157416 77.293 177.8284
244.919435 77.279 177.9333
246.694223 77.263 177.9876
248.481871 77.246 177.9867
250.282473 77.228 177.9493
252.096123 77.210 177.8999
253.922915 77.194 177.8550
255.762945 77.181 177.8203
257.616309 77.171 177.7934
259.483103 77.164 177.7730
261.363424 77.157 177.7635
263.257372 77.151 177.7707
265.165043 77.144 177.7969
267.086538 77.136 177.8415
269.021957 77.127 177.9021
270.971401 77.116 177.9750
272.934972 77.105 178.0555
274.912771 77.093 178.1390
276.904902 77.080 178.2211
278.911469 77.065 178.2981
280.932577 77.049 178.3694
282.968330 77.031 178.4366
285.018835 77.012 178.5009
287.084199 76.992 178.5609
289.164530 76.972 178.6149
291.259935 76.953 178.6644
293.370525 76.935 178.7127
295.496408 76.919 178.7622
297.637697 76.904 178.8137
299.794503 76.890 178.8689
301.966937 76.876 178.9301
304.155114 76.862 178.9993
306.359147 76.849 179.0771
308.579152 76.836 179.1624
310.815244 76.823 179.2529
313.067539 76.811 179.3473
315.336156 76.800 179.4449
317.621211 76.788 179.5445
319.922826 76.776 179.6442
322.241118 76.763 179.7422
324.576210 76.749 179.8377
326.928223 76.736 179.9318
329.297280 76.724 -179.9735
331.683504 76.712 -179.8755
334.087019 76.701 -179.7729
336.507952 76.690 -179.6664
338.946427 76.679 -179.5584
341.402572 76.667 -179.4503
343.876516 76.656 -179.3419
346.368387 76.646 -179.2323
348.878315 76.636 -179.1214
351.406431 76.626 -179.0096
353.952867 76.616 -178.8968
356.517756 76.607 -178.7829
359.101230 76.597 -178.6679
361.703426 76.586 -178.5516
364.324478 76.576 -178.4333
366.964523 76.566 -178.3124
369.623699 76.556 -178.1893
372.302145 76.547 -178.0654
375.000000 76.537 -177.9427
377.717405 76.527 -177.8228
380.454501 76.518 -177.7055
383.211431 76.509 -177.5891
385.988339 76.500 -177.4716
388.785369 76.491 -177.3511
391.602668 76.482 -177.2264
394.440383 76.473 -177.0973
397.298660 76.465 -176.9645
400.177650 76.457 -176.8295
403.077502 76.449 -176.6934
405.998368 76.441 -176.5560
408.940400 76.433 -176.4169
411.903750 76.425 -176.2762
414.888575 76.417 -176.1347
417.895028 76.410 -175.9935
420.923268 76.403 -175.8529
423.973452 76.397 -175.7124
427.045738 76.391 -175.5708
430.140287 76.385 -175.4273
433.257261 76.380 -175.2821
436.396822 76.375 -175.1365
439.559133 76.369 -174.9907
442.744360 76.364 -174.8442
445.952668 76.358 -174.6962
449.184225 76.352 -174.5466
452.439199 76.346 -174.3959
455.717760 76.341 -174.2436
459.020079 76.335 -174.0888
462.346327 76.330 -173.9311
465.696680 76.325 -173.7709
469.071310 76.321 -173.6094
472.470394 76.317 -173.4475
475.894109 76.314 -173.2849
479.342634 76.311 -173.1218
482.816148 76.308 -172.9581
486.314833 76.305 -172.7943
489.838871 76.302 -172.6315
493.388445 76.300 -172.4703
496.963741 76.297 -172.3097
500.564945 76.294 -172.1478
504.192245 76.292 -171.9831
507.845830 76.290 -171.8148
511.525890 76.288 -171.6437
515.232618 76.286 -171.4706
518.966206 76.284 -171.2965
522.726849 76.282 -171.1226
526.514743 76.281 -170.9495
530.330086 76.280 -170.7766
534.173076 76.279 -170.6025
538.043915 76.278 -170.4254
541.942803 76.278 -170.2442
545.869944 76.277 -170.0588
549.825542 76.276 -169.8705
553.809805 76.275 -169.6809
557.822939 76.275 -169.4906
561.865154 76.274 -169.2998
565.936660 76.275 -169.1087
570.037671 76.275 -168.9180
574.168399 76.276 -168.7276
578.329060 76.278 -168.5369
582.519870 76.279 -168.3445
586.741049 76.281 -168.1490
590.992817 76.283 -167.9497
595.275394 76.285 -167.7475
599.589005 76.288 -167.5432
603.933874 76.291 -167.3366
608.310228 76.294 -167.1276
612.718295 76.297 -166.9166
617.158304 76.301 -166.7040
621.630488 76.305 -166.4894
626.135079 76.310 -166.2724
630.672311 76.314 -166.0536
635.242423 76.319 -165.8336
639.845651 76.325 -165.6127
644.482237 76.332 -165.3897
649.152421 76.338 -165.1637
653.856447 76.345 -164.9348
658.594560 76.352 -164.7040
663.367008 76.358 -164.4725
668.174039 76.366 -164.2401
673.015903 76.373 -164.0062
677.892854 76.381 -163.7700
682.805145 76.390 -163.5309
687.753032 76.399 -163.2887
692.736774 76.409 -163.0430
697.756631 76.419 -162.7943
702.812863 76.430 -162.5430
707.905735 76.441 -162.2895
713.035511 76.453 -162.0335
718.202461 76.465 -161.7746
723.406852 76.478 -161.5131
728.648956 76.492 -161.2496
733.929047 76.506 -160.9843
739.247399 76.521 -160.7170
744.604290 76.536 -160.4474
750.000000 76.553 -160.1760
755.434809 76.570 -159.9030
760.909001 76.588 -159.6278
766.422861 76.607 -159.3504
771.976677 76.626 -159.0714
777.570739 76.646 -158.7910
783.205337 76.667 -158.5093
788.880766 76.689 -158.2260
794.597321 76.712 -157.9414
800.355301 76.736 -157.6560
806.155005 76.762 -157.3703
811.996736 76.788 -157.0842
817.880799 76.814 -156.7974
823.807501 76.842 -156.5102
829.777150 76.871 -156.2227
835.790057 76.901 -155.9351
841.846536 76.933 -155.6476
847.946903 76.966 -155.3604
854.091476 77.000 -155.0735
860.280575 77.036 -154.7866
866.514523 77.074 -154.5000
872.793644 77.113 -154.2144
879.118267 77.153 -153.9310
885.488720 77.195 -153.6509
891.905336 77.238 -153.3746
898.368450 77.283 -153.1020
904.878398 77.328 -152.8332
911.435520 77.376 -152.5690
918.040157 77.425 -152.3110
924.692655 77.476 -152.0614
931.393359 77.528 -151.8225
938.142619 77.582 -151.5957
944.940787 77.638 -151.3822
951.788218 77.695 -151.1828
958.685268 77.753 -150.9981
965.632296 77.811 -150.8297
972.629666 77.871 -150.6807
979.677741 77.929 -150.5546
986.776890 77.987 -150.4546
993.927482 78.043 -150.3819
1001.129891 78.095 -150.3345
1008.384491 78.141 -150.3041
1015.691660 78.181 -150.2744
1023.051781 78.214 -150.2207
1030.465236 78.241 -150.1145
1037.932411 78.267 -149.9325
1045.453698 78.296 -149.6680
1053.029486 78.334 -149.3360
1060.660172 78.385 -148.9687
1068.346153 78.447 -148.6033
1076.087829 78.520 -148.2705
1083.885605 78.601 -147.9889
1091.739887 78.686 -147.7660
1099.651084 78.774 -147.6016
1107.619609 78.862 -147.4906
1115.645878 78.949 -147.4256
1123.730308 79.033 -147.3983
1131.873321 79.115 -147.4004
1140.075341 79.194 -147.4252
1148.336797 79.270 -147.4678
1156.658119 79.345 -147.5252
1165.039741 79.417 -147.5956
1173.482099 79.487 -147.6774
1181.985634 79.556 -147.7697
1190.550789 79.622 -147.8715
1199.178011 79.687 -147.9819
1207.867749 79.750 -148.1003
1216.620457 79.812 -148.2265
1225.436590 79.872 -148.3601
1234.316609 79.930 -148.5007
1243.260976 79.987 -148.6473
1252.270157 80.042 -148.7991
1261.344623 80.096 -148.9555
1270.484846 80.147 -149.1160
1279.691303 80.198 -149.2798
1288.964474 80.247 -149.4460
1298.304842 80.294 -149.6143
1307.712894 80.340 -149.7844
1317.189120 80.384 -149.9559
1326.734016 80.427 -150.1282
1336.348077 80.469 -150.3003
1346.031806 80.509 -150.4714
1355.785708 80.548 -150.6405
1365.610290 80.586 -150.8073
1375.506065 80.623 -150.9721
1385.473549 80.659 -151.1354
1395.513261 80.693 -151.2974
1405.625726 80.727 -151.4579
1415.811469 80.760 -151.6164
1426.071023 80.792 -151.7725
1436.404921 80.824 -151.9258
1446.813703 80.854 -152.0761
1457.297912 80.885 -152.2233
1467.858093 80.914 -152.3672
1478.494798 80.943 -152.5077
1489.208581 80.971 -152.6448
1500.000000 80.999 -152.7782
1510.869618 81.027 -152.9080
1521.818002 81.054 -153.0342
1532.845723 81.081 -153.1570
1543.953355 81.107 -153.2768
1555.141477 81.133 -153.3939
1566.410674 81.159 -153.5084
1577.761531 81.185 -153.6205
1589.194642 81.210 -153.7300
1600.710601 81.236 -153.8373
1612.310010 81.261 -153.9421
1623.993473 81.286 -154.0446
1635.761599 81.311 -154.1446
1647.615002 81.337 -154.2419
1659.554299 81.362 -154.3366
1671.580114 81.387 -154.4288
1683.693072 81.412 -154.5187
1695.893807 81.437 -154.6067
1708.182952 81.462 -154.6929
1720.561150 81.487 -154.7774
1733.029045 81.512 -154.8598
1745.587288 81.537 -154.9400
1758.236533 81.563 -155.0181
1770.977440 81.589 -155.0944
1783.810673 81.614 -155.1691
1796.736900 81.640 -155.2427
1809.756796 81.667 -155.3155
1822.871040 81.693 -155.3877
1836.080315 81.720 -155.4597
1849.385310 81.747 -155.5315
1862.786718 81.775 -155.6033
1876.285239 81.802 -155.6749
1889.881575 81.830 -155.7465
1903.576436 81.858 -155.8179
1917.370535 81.886 -155.8891
1931.264593 81.914 -155.9601
1945.259332 81.943 -156.0309
1959.355483 81.972 -156.1016
1973.553781 82.001 -156.1722
1987.854965 82.030 -156.2426
2002.259781 82.060 -156.3130
2016.768981 82.090 -156.3835
2031.383320 82.120 -156.4541
2046.103561 82.150 -156.5249
2060.930471 82.180 -156.5961
2075.864823 82.211 -156.6676
2090.907395 82.242 -156.7400
2106.058972 82.274 -156.8134
2121.320344 82.305 -156.8881
2136.692305 82.338 -156.9639
2152.175658 82.370 -157.0406
2167.771210 82.402 -157.1182
2183.479774 82.435 -157.1966
2199.302169 82.468 -157.2760
2215.239219 82.501 -157.3569
2231.291755 82.535 -157.4397
2247.460615 82.569 -157.5243
2263.746641 82.603 -157.6107
2280.150683 82.637 -157.6984
2296.673595 82.672 -157.7869
2313.316238 82.706 -157.8760
2330.079481 82.741 -157.9659
2346.964198 82.776 -158.0569
2363.971268 82.811 -158.1495
2381.101578 82.847 -158.2440
2398.356022 82.882 -158.3401
2415.735498 82.918 -158.4375
2433.240913 82.955 -158.5354
2450.873180 82.991 -158.6329
2468.633217 83.027 -158.7297
2486.521951 83.063 -158.8253
2504.540314 83.099 -158.9191
2522.689246 83.136 -159.0106
2540.969692 83.173 -159.0989
2559.382606 83.211 -159.1830
2577.928947 83.250 -159.2620
2596.609683 83.290 -159.3349
2615.425787 83.332 -159.4017
2634.378241 83.376 -159.4632
2653.468031 83.424 -159.5217
2672.696154 83.475 -159.5810
2692.063613 83.530 -159.6465
2711.571415 83.589 -159.7248
2731.220579 83.652 -159.8230
2751.012130 83.718 -159.9478
2770.947098 83.787 -160.1043
2791.026522 83.857 -160.2957
2811.251451 83.927 -160.5225
2831.622938 83.996 -160.7831
2852.142045 84.064 -161.0742
2872.809842 84.129 -161.3914
2893.627406 84.193 -161.7300
2914.595823 84.253 -162.0856
2935.716186 84.312 -162.4547
2956.989596 84.368 -162.8344
2978.417161 84.423 -163.2229
3000.000000 84.476 -163.6189
3021.739237 84.528 -164.0223
3043.636005 84.579 -164.4333
3065.691446 84.629 -164.8526
3087.906710 84.679 -165.2814
3110.282955 84.728 -165.7211
3132.821347 84.776 -166.1732
3155.523062 84.824 -166.6387
3178.389283 84.871 -167.1185
3201.421202 84.918 -167.6133
3224.620020 84.963 -168.1238
3247.986946 85.007 -168.6509
3271.523198 85.050 -169.1955
3295.230004 85.091 -169.7583
3319.108599 85.131 -170.3402
3343.160228 85.170 -170.9412
3367.386145 85.206 -171.5613
3391.787613 85.240 -172.2001
3416.365904 85.271 -172.8570
3441.122300 85.300 -173.5318
3466.058091 85.325 -174.2240
3491.174576 85.347 -174.9334
3516.473066 85.366 -175.6594
3541.954880 85.382 -176.4014
3567.621345 85.393 -177.1588
3593.473800 85.401 -177.9306
3619.513592 85.405 -178.7159
3645.742080 85.404 -179.5135
3672.160630 85.398 179.6779
3698.770620 85.388 178.8594
3725.573436 85.372 178.0328
3752.570477 85.351 177.2000
3779.763150 85.324 176.3633
3807.152872 85.291 175.5254
3834.741071 85.253 174.6895
3862.529185 85.209 173.8586
3890.518664 85.159 173.0361
3918.710966 85.103 172.2249
3947.107561 85.042 171.4274
3975.709929 84.975 170.6454
4004.519563 84.904 169.8799
4033.537962 84.828 169.1316
4062.766641 84.747 168.4006
4092.207123 84.662 167.6876
4121.860942 84.573 166.9931
4151.729646 84.480 166.3183
4181.814790 84.383 165.6643
4212.117944 84.281 165.0323
4242.640687 84.175 164.4235
4273.384610 84.066 163.8393
4304.351317 83.952 163.2811
4335.542421 83.834 162.7505
4366.959549 83.713 162.2494
4398.604338 83.589 161.7794
4430.478438 83.462 161.3420
4462.583511 83.332 160.9387
4494.921231 83.199 160.5701
4527.493283 83.064 160.2370
4560.301365 82.928 159.9393
4593.347189 82.789 159.6770
4626.632476 82.650 159.4499
4660.158962 82.510 159.2581
4693.928395 82.369 159.1016
4727.942535 82.228 158.9807
4762.203156 82.087 158.8954
4796.712043 81.945 158.8460
4831.470996 81.804 158.8324
4866.481826 81.663 158.8545
4901.746360 81.524 158.9120
4937.266434 81.385 159.0044
4973.043902 81.248 159.1310
5009.080628 81.113 159.2911
5045.378492 80.979 159.4840
5081.939384 80.848 159.7091
5118.765212 80.718 159.9656
5155.857894 80.591 160.2530
5193.219366 80.467 160.5704
5230.851574 80.345 160.9173
5268.756481 80.226 161.2933
5306.936062 80.110 161.6981
5345.392309 79.998 162.1313
5384.127225 79.889 162.5923
5423.142830 79.784 163.0799
5462.441159 79.683 163.5930
5502.024259 79.586 164.1306
5541.894195 79.494 164.6916
5582.053045 79.406 165.2746
5622.502902 79.323 165.8777
5663.245876 79.245 166.4993
5704.284090 79.171 167.1381
5745.619684 79.103 167.7942
5787.254813 79.039 168.4692
5829.191647 78.979 169.1659
5871.432373 78.925 169.8878
5913.979192 78.877 170.6381
5956.834323 78.836 171.4183
6000.000000 78.804 172.2253
6043.478473 78.783 173.0473
6087.272010 78.774 173.8636
6131.382892 78.777 174.6495
6175.813420 78.788 175.3865
6220.565910 78.804 176.0734
6265.642695 78.821 176.7253
6311.046124 78.839 177.3640
6356.778566 78.859 178.0071
6402.842404 78.882 178.6644
6449.240040 78.911 179.3374
6495.973891 78.948 -179.9773
6543.046396 78.994 -179.2860
6590.460007 79.050 -178.5958
6638.217197 79.116 -177.9141
6686.320456 79.192 -177.2485
6734.772290 79.280 -176.6063
6783.575226 79.380 -175.9950
6832.731809 79.491 -175.4224
6882.244600 79.615 -174.8972
6932.116181 79.751 -174.4284
6982.349153 79.899 -174.0257
7032.946133 80.059 -173.6996
7083.909760 80.231 -173.4612
7135.242690 80.414 -173.3218
7186.947600 80.607 -173.2919
7239.027185 80.808 -173.3813
7291.484160 81.017 -173.5987
7344.321260 81.232 -173.9524
7397.541239 81.453 -174.4509
7451.146872 81.678 -175.1034
7505.140954 81.905 -175.9208
7559.526299 82.134 -176.9156
7614.305743 82.361 -178.1015
7669.482141 82.584 -179.4933
7725.058371 82.800 178.8950
7781.037328 83.003 177.0514
7837.421932 83.189 174.9677
7894.215122 83.351 172.6423
7951.419859 83.483 170.0817
8009.039125 83.575 167.3030
8067.075924 83.622 164.3350
8125.533282 83.617 161.2187
8184.414245 83.554 158.0060
8243.721885 83.428 154.7579
8303.459292 83.240 151.5403
8363.629581 82.989 148.4207
8424.235888 82.678 145.4635
8485.281374 82.311 142.7264
8546.769221 81.896 140.2570
8608.702634 81.440 138.0917
8671.084842 80.950 136.2545
8733.919097 80.435 134.7581
8797.208675 79.902 133.6053
8860.956876 79.360 132.7900
8925.167022 78.813 132.2996
8989.842461 78.269 132.1161
9054.986566 77.731 132.2180
9120.602731 77.202 132.5822
9186.694378 76.686 133.1848
9253.264952 76.186 134.0021
9320.317925 75.701 135.0112
9387.856790 75.235 136.1914
9455.885071 74.786 137.5244
9524.406312 74.355 138.9937
9593.424086 73.942 140.5847
9662.941992 73.546 142.2851
9732.963653 73.166 144.0850
9803.492719 72.801 145.9768
9874.532869 72.451 147.9545
9946.087805 72.115 150.0126
10018.161257 71.792 152.1468
10090.756983 71.482 154.3536
10163.878768 71.184 156.6312
10237.530423 70.898 158.9788
10311.715789 70.624 161.3978
10386.438732 70.360 163.8912
10461.703149 70.107 166.4644
10537.512962 69.864 169.1245
10613.872125 69.631 171.8810
10690.784618 69.408 174.7460
10768.254450 69.196 177.7344
10846.285661 68.997 -179.1339
10924.882318 68.812 -175.8325
11004.048518 68.645 -172.3282
11083.788390 68.501 -168.5826
11164.106090 68.390 -164.5551
11245.005805 68.324 -160.2099
11326.491752 68.317 -155.5279
11408.568180 68.391 -150.5265
11491.239368 68.564 -145.2834
11574.509626 68.855 -139.9580
11658.383294 69.268 -134.7895
11742.864745 69.796 -130.0605
11827.958384 70.418 -126.0342
11913.668646 71.100 -122.8933
12000.000000 71.805 -120.7078
12086.956947 72.500 -119.4384
12174.544019 73.158 -118.9642
12262.765784 73.760 -119.1176
12351.626840 74.300 -119.7162
12441.131819 74.776 -120.5892
12531.285389 75.198 -121.5943
12622.092249 75.576 -122.6266
12713.557132 75.924 -123.6217
12805.684808 76.256 -124.5536
12898.480079 76.585 -125.4297
12991.947783 76.920 -126.2823
13086.092792 77.268 -127.1618
13180.920015 77.633 -128.1285
13276.434395 78.015 -129.2458
13372.640911 78.411 -130.5749
13469.544580 78.816 -132.1698
13567.150452 79.220 -134.0732
13665.463617 79.614 -136.3132
13764.489200 79.986 -138.9013
13864.232362 80.324 -141.8295
13964.698305 80.617 -145.0697
14065.892266 80.857 -148.5752
14167.819519 81.035 -152.2831
14270.485380 81.146 -156.1195
14373.895200 81.189 -160.0050
14478.054370 81.163 -163.8606
14582.968320 81.074 -167.6133
14688.642520 80.927 -171.2001
14795.082478 80.729 -174.5698
14902.293745 80.489 -177.6841
15010.281908 80.218 179.4774
15119.052599 79.928 176.9131
15228.611486 79.627 174.6015
15338.964283 79.325 172.5044
15450.116741 79.027 170.5738
15562.074656 78.734 168.7578
15674.843864 78.447 167.0060
15788.430244 78.161 165.2752
15902.839718 77.872 163.5329
16018.078250 77.573 161.7598
16134.151848 77.258 159.9507
16251.066563 76.919 158.1135
16368.828491 76.551 156.2651
16487.443769 76.150 154.4268
16606.918584 75.712 152.6178
16727.259161 75.238 150.8504
16848.471777 74.725 149.1277
16970.562748 74.172 147.4488
17093.538442 73.573 145.8246
17217.405268 72.917 144.3146
17342.169684 72.186 143.0860
17467.838194 71.363 142.4894
17594.417350 70.444 143.0782
17721.913751 69.462 145.4032
17850.334044 68.492 149.4970
17979.684923 67.624 154.5897
18109.973131 66.907 159.6369
18241.205462 66.339 164.0212
18373.388756 65.883 167.6645
18506.529905 65.499 170.7543
18640.635849 65.160 173.5100
18775.713581 64.851 176.0901
18911.770141 64.568 178.5790
19048.812624 64.311 -178.9993
19186.848172 64.081 -176.6625
19325.883983 63.879 -174.4551
19465.927305 63.705 -172.4375
19606.985439 63.561 -170.6803
19749.065738 63.449 -169.2609
19892.175609 63.371 -168.2566
20036.322514 63.330 -167.7342
