* Measurement data measured by REW V5.31.3
* Source: Headset (2- CX31993 HIFI AUDIO), MICROPHONE (Master Volume), R, volume: 0.250
* Format: 256k Log Swept Sine, 1 sweep at -12.0 dBFS with no timing reference
* Dated: 12 17, 24 9:20:57 AM
* REW Settings:
*  C-weighting compensation: Off
*  Target level: 75.0 dB
* Note: ; 
* Measurement: Moondrop Blessing 2 S2 L
* Smoothing: 1/12 octave
* Frequency Step: 96 ppo
* Start Frequency: 0.36621094 Hz
*
* Freq(Hz) SPL(dB) Phase(degrees)
0.366211 45.325 -54.5024
0.368865 45.335 -54.6131
0.371538 45.349 -54.7783
0.374230 45.366 -54.9847
0.376942 45.386 -55.2206
0.379673 45.407 -55.4778
0.382424 45.429 -55.7505
0.385196 45.451 -56.0355
0.387987 45.474 -56.3308
0.390798 45.497 -56.6352
0.393630 45.521 -56.9483
0.396483 45.544 -57.2698
0.399356 45.568 -57.5996
0.402250 45.592 -57.9378
0.405165 45.616 -58.2842
0.408101 45.640 -58.6390
0.411058 45.665 -59.0023
0.414037 45.690 -59.3741
0.417037 45.714 -59.7544
0.420059 45.739 -60.1434
0.423103 45.765 -60.5410
0.426169 45.790 -60.9473
0.429257 45.816 -61.3625
0.432368 45.841 -61.7864
0.435501 45.867 -62.2191
0.438656 45.893 -62.6608
0.441835 45.920 -63.1113
0.445037 45.946 -63.5708
0.448262 45.973 -64.0392
0.451510 46.000 -64.5165
0.454782 46.027 -65.0028
0.458077 46.054 -65.4981
0.461397 46.082 -66.0023
0.464740 46.109 -66.5153
0.468108 46.137 -67.0373
0.471500 46.165 -67.5682
0.474917 46.194 -68.1078
0.478358 46.222 -68.6562
0.481825 46.251 -69.2134
0.485316 46.280 -69.7792
0.488833 46.309 -70.3535
0.492375 46.338 -70.9364
0.495943 46.368 -71.5277
0.499537 46.398 -72.1273
0.503157 46.427 -72.7351
0.506803 46.458 -73.3511
0.510475 46.488 -73.9750
0.514175 46.519 -74.6067
0.517900 46.550 -75.2462
0.521653 46.581 -75.8932
0.525434 46.612 -76.5477
0.529241 46.643 -77.2094
0.533076 46.675 -77.8782
0.536939 46.707 -78.5540
0.540830 46.739 -79.2364
0.544749 46.772 -79.9255
0.548696 46.805 -80.6208
0.552673 46.837 -81.3224
0.556677 46.871 -82.0299
0.560711 46.904 -82.7432
0.564774 46.938 -83.4620
0.568867 46.972 -84.1861
0.572989 47.006 -84.9154
0.577141 47.040 -85.6495
0.581324 47.075 -86.3884
0.585536 47.110 -87.1316
0.589779 47.145 -87.8791
0.594053 47.180 -88.6307
0.598358 47.216 -89.3860
0.602694 47.252 -90.1448
0.607061 47.288 -90.9071
0.611460 47.324 -91.6724
0.615891 47.361 -92.4408
0.620354 47.398 -93.2118
0.624849 47.435 -93.9853
0.629377 47.473 -94.7612
0.633938 47.510 -95.5392
0.638532 47.548 -96.3192
0.643159 47.587 -97.1010
0.647819 47.625 -97.8843
0.652514 47.664 -98.6691
0.657242 47.703 -99.4553
0.662005 47.743 -100.2425
0.666802 47.783 -101.0308
0.671634 47.823 -101.8200
0.676501 47.863 -102.6100
0.681403 47.904 -103.4007
0.686341 47.944 -104.1919
0.691314 47.986 -104.9837
0.696324 48.028 -105.7759
0.701370 48.070 -106.5685
0.706452 48.113 -107.3615
0.711571 48.157 -108.1547
0.716728 48.203 -108.9481
0.721921 48.251 -109.7417
0.727153 48.303 -110.5354
0.732422 48.358 -111.3289
0.737729 48.419 -112.1220
0.743075 48.484 -112.9143
0.748460 48.554 -113.7055
0.753883 48.626 -114.4951
0.759346 48.702 -115.2826
0.764849 48.781 -116.0676
0.770391 48.861 -116.8497
0.775974 48.944 -117.6285
0.781597 49.030 -118.4036
0.787261 49.117 -119.1747
0.792966 49.206 -119.9415
0.798712 49.297 -120.7035
0.804500 49.390 -121.4606
0.810329 49.485 -122.2126
0.816201 49.582 -122.9591
0.822116 49.681 -123.7001
0.828073 49.782 -124.4352
0.834074 49.885 -125.1644
0.840118 49.989 -125.8874
0.846206 50.096 -126.6043
0.852338 50.204 -127.3149
0.858514 50.313 -128.0192
0.864735 50.425 -128.7170
0.871001 50.538 -129.4084
0.877313 50.653 -130.0934
0.883670 50.769 -130.7719
0.890074 50.886 -131.4441
0.896524 51.006 -132.1099
0.903020 51.126 -132.7693
0.909564 51.248 -133.4226
0.916155 51.371 -134.0697
0.922794 51.495 -134.7108
0.929481 51.621 -135.3459
0.936216 51.748 -135.9752
0.943000 51.875 -136.5989
0.949834 52.004 -137.2171
0.956717 52.133 -137.8299
0.963649 52.263 -138.4376
0.970632 52.394 -139.0402
0.977666 52.525 -139.6380
0.984750 52.657 -140.2312
0.991886 52.789 -140.8199
0.999074 52.921 -141.4044
1.006314 53.054 -141.9849
1.013606 53.187 -142.5616
1.020951 53.319 -143.1347
1.028349 53.452 -143.7045
1.035801 53.584 -144.2711
1.043307 53.715 -144.8348
1.050867 53.846 -145.3959
1.058482 53.977 -145.9545
1.066152 54.106 -146.5108
1.073878 54.235 -147.0650
1.081660 54.363 -147.6172
1.089498 54.491 -148.1675
1.097393 54.617 -148.7157
1.105345 54.743 -149.2617
1.113355 54.869 -149.8052
1.121423 54.995 -150.3461
1.129549 55.121 -150.8841
1.137734 55.247 -151.4192
1.145979 55.374 -151.9511
1.154283 55.501 -152.4800
1.162647 55.628 -153.0057
1.171072 55.755 -153.5282
1.179558 55.883 -154.0475
1.188106 56.011 -154.5636
1.196715 56.140 -155.0766
1.205387 56.268 -155.5863
1.214122 56.397 -156.0929
1.222920 56.527 -156.5964
1.231782 56.656 -157.0968
1.240708 56.786 -157.5941
1.249699 56.916 -158.0883
1.258754 57.047 -158.5795
1.267876 57.177 -159.0677
1.277063 57.308 -159.5531
1.286318 57.439 -160.0355
1.295639 57.571 -160.5151
1.305027 57.702 -160.9919
1.314484 57.834 -161.4659
1.324009 57.966 -161.9373
1.333604 58.098 -162.4061
1.343268 58.230 -162.8723
1.353002 58.362 -163.3360
1.362806 58.495 -163.7973
1.372681 58.627 -164.2563
1.382628 58.760 -164.7129
1.392647 58.893 -165.1673
1.402739 59.025 -165.6195
1.412904 59.158 -166.0696
1.423142 59.291 -166.5176
1.433455 59.424 -166.9634
1.443843 59.557 -167.4070
1.454305 59.690 -167.8483
1.464844 59.822 -168.2870
1.475459 59.955 -168.7229
1.486150 60.087 -169.1557
1.496920 60.219 -169.5853
1.507767 60.351 -170.0117
1.518693 60.482 -170.4350
1.529698 60.614 -170.8553
1.540783 60.745 -171.2727
1.551948 60.876 -171.6875
1.563194 61.006 -172.0999
1.574521 61.137 -172.5103
1.585931 61.267 -172.9187
1.597423 61.397 -173.3255
1.608999 61.527 -173.7310
1.620658 61.657 -174.1354
1.632402 61.786 -174.5389
1.644232 61.916 -174.9418
1.656146 62.045 -175.3444
1.668147 62.174 -175.7469
1.680235 62.303 -176.1496
1.692411 62.433 -176.5527
1.704675 62.562 -176.9565
1.717028 62.691 -177.3612
1.729470 62.820 -177.7671
1.742003 62.949 -178.1744
1.754626 63.079 -178.5833
1.767341 63.208 -178.9941
1.780147 63.338 -179.4068
1.793047 63.467 -179.8216
1.806040 63.597 179.7615
1.819128 63.727 179.3427
1.832310 63.857 178.9222
1.845587 63.986 178.5005
1.858961 64.116 178.0779
1.872432 64.245 177.6547
1.886001 64.374 177.2312
1.899667 64.503 176.8076
1.913433 64.631 176.3839
1.927299 64.759 175.9603
1.941265 64.887 175.5366
1.955332 65.014 175.1128
1.969501 65.141 174.6890
1.983773 65.268 174.2650
1.998148 65.395 173.8407
2.012627 65.521 173.4162
2.027212 65.648 172.9912
2.041902 65.774 172.5657
2.056698 65.900 172.1395
2.071602 66.026 171.7126
2.086614 66.151 171.2849
2.101734 66.277 170.8561
2.116964 66.403 170.4261
2.132304 66.529 169.9950
2.147756 66.654 169.5624
2.163320 66.780 169.1285
2.178996 66.906 168.6931
2.194786 67.031 168.2562
2.210690 67.156 167.8182
2.226710 67.282 167.3790
2.242845 67.406 166.9388
2.259098 67.531 166.4979
2.275468 67.655 166.0561
2.291957 67.779 165.6137
2.308566 67.902 165.1706
2.325295 68.025 164.7267
2.342145 68.148 164.2822
2.359117 68.270 163.8369
2.376212 68.393 163.3907
2.393431 68.515 162.9437
2.410775 68.636 162.4956
2.428244 68.758 162.0464
2.445840 68.879 161.5960
2.463564 69.000 161.1442
2.481416 69.121 160.6910
2.499397 69.241 160.2362
2.517509 69.362 159.7797
2.535752 69.482 159.3213
2.554127 69.602 158.8611
2.572635 69.722 158.3990
2.591277 69.842 157.9350
2.610055 69.961 157.4692
2.628968 70.080 157.0017
2.648019 70.199 156.5326
2.667208 70.317 156.0620
2.686535 70.434 155.5899
2.706003 70.551 155.1163
2.725612 70.668 154.6414
2.745363 70.785 154.1651
2.765257 70.901 153.6874
2.785295 71.016 153.2083
2.805478 71.132 152.7277
2.825808 71.247 152.2455
2.846285 71.361 151.7617
2.866910 71.476 151.2761
2.887685 71.590 150.7885
2.908611 71.704 150.2989
2.929688 71.817 149.8070
2.950917 71.930 149.3126
2.972301 72.043 148.8157
2.993839 72.155 148.3163
3.015534 72.266 147.8145
3.037386 72.377 147.3104
3.059396 72.488 146.8042
3.081565 72.598 146.2961
3.103896 72.707 145.7863
3.126388 72.816 145.2750
3.149043 72.925 144.7623
3.171862 73.033 144.2482
3.194847 73.140 143.7330
3.217998 73.247 143.2164
3.241317 73.354 142.6986
3.264805 73.460 142.1793
3.288463 73.566 141.6582
3.312293 73.671 141.1351
3.336295 73.775 140.6097
3.360471 73.879 140.0818
3.384822 73.982 139.5515
3.409350 74.085 139.0188
3.434056 74.187 138.4841
3.458940 74.288 137.9476
3.484005 74.389 137.4096
3.509252 74.489 136.8704
3.534681 74.588 136.3302
3.560295 74.687 135.7893
3.586094 74.785 135.2476
3.612081 74.882 134.7051
3.638255 74.979 134.1617
3.664620 75.076 133.6169
3.691175 75.171 133.0703
3.717923 75.266 132.5216
3.744864 75.360 131.9707
3.772001 75.453 131.4177
3.799335 75.545 130.8630
3.826866 75.637 130.3068
3.854597 75.728 129.7498
3.882529 75.818 129.1923
3.910664 75.907 128.6348
3.939002 75.996 128.0776
3.967546 76.084 127.5208
3.996296 76.171 126.9645
4.025255 76.258 126.4083
4.054423 76.343 125.8518
4.083804 76.428 125.2946
4.113396 76.512 124.7365
4.143204 76.595 124.1776
4.173227 76.677 123.6180
4.203468 76.759 123.0582
4.233928 76.839 122.4989
4.264609 76.919 121.9404
4.295512 76.998 121.3832
4.326639 77.076 120.8277
4.357992 77.154 120.2739
4.389572 77.230 119.7217
4.421380 77.306 119.1708
4.453419 77.382 118.6208
4.485691 77.456 118.0715
4.518196 77.529 117.5229
4.550936 77.602 116.9752
4.583914 77.674 116.4288
4.617131 77.745 115.8843
4.650589 77.816 115.3420
4.684289 77.885 114.8024
4.718233 77.955 114.2657
4.752424 78.023 113.7319
4.786862 78.091 113.2008
4.821549 78.159 112.6723
4.856488 78.226 112.1460
4.891680 78.292 111.6219
4.927127 78.357 111.1001
4.962831 78.422 110.5807
4.998794 78.487 110.0639
5.035017 78.551 109.5500
5.071503 78.614 109.0393
5.108253 78.678 108.5318
5.145270 78.741 108.0275
5.182555 78.803 107.5262
5.220110 78.866 107.0278
5.257937 78.928 106.5320
5.296038 78.989 106.0387
5.334415 79.051 105.5477
5.373071 79.112 105.0590
5.412006 79.173 104.5726
5.451224 79.234 104.0883
5.490725 79.295 103.6061
5.530514 79.356 103.1261
5.570590 79.416 102.6480
5.610957 79.477 102.1717
5.651616 79.537 101.6968
5.692570 79.598 101.2231
5.733821 79.658 100.7502
5.775370 79.719 100.2778
5.817221 79.779 99.8058
5.859375 79.840 99.3338
5.901834 79.900 98.8618
5.944602 79.961 98.3897
5.987679 80.021 97.9173
6.031068 80.081 97.4445
6.074771 80.142 96.9708
6.118792 80.202 96.4960
6.163131 80.262 96.0198
6.207792 80.321 95.5419
6.252776 80.381 95.0622
6.298086 80.440 94.5806
6.343725 80.500 94.0970
6.389694 80.559 93.6114
6.435996 80.617 93.1239
6.482634 80.675 92.6345
6.529610 80.733 92.1430
6.576926 80.790 91.6494
6.624585 80.847 91.1536
6.672590 80.903 90.6555
6.720942 80.958 90.1555
6.769645 81.013 89.6536
6.818700 81.067 89.1502
6.868111 81.121 88.6458
6.917881 81.174 88.1404
6.968010 81.225 87.6343
7.018504 81.276 87.1276
7.069362 81.326 86.6203
7.120590 81.375 86.1129
7.172189 81.424 85.6058
7.224161 81.471 85.0998
7.276511 81.518 84.5951
7.329239 81.563 84.0922
7.382350 81.608 83.5913
7.435845 81.652 83.0925
7.489729 81.695 82.5962
7.544002 81.737 82.1028
7.598669 81.778 81.6128
7.653732 81.819 81.1266
7.709194 81.859 80.6445
7.765058 81.899 80.1667
7.821327 81.937 79.6933
7.878004 81.976 79.2243
7.935091 82.013 78.7599
7.992592 82.051 78.3002
8.050510 82.088 77.8454
8.108847 82.125 77.3955
8.167607 82.162 76.9504
8.226793 82.199 76.5099
8.286408 82.235 76.0737
8.346454 82.272 75.6417
8.406936 82.308 75.2135
8.467856 82.345 74.7890
8.529218 82.382 74.3678
8.591024 82.419 73.9497
8.653278 82.457 73.5342
8.715983 82.494 73.1207
8.779143 82.532 72.7090
8.842760 82.570 72.2985
8.906839 82.609 71.8890
8.971381 82.647 71.4802
9.036392 82.686 71.0716
9.101873 82.725 70.6628
9.167829 82.764 70.2535
9.234263 82.803 69.8435
9.301178 82.842 69.4326
9.368578 82.881 69.0205
9.436467 82.920 68.6072
9.504847 82.959 68.1926
9.573723 82.997 67.7766
9.643099 83.036 67.3591
9.712976 83.074 66.9402
9.783361 83.112 66.5200
9.854255 83.149 66.0987
9.925663 83.186 65.6763
9.997588 83.223 65.2531
10.070035 83.259 64.8290
10.143007 83.294 64.4045
10.216507 83.329 63.9798
10.290540 83.364 63.5549
10.365109 83.398 63.1302
10.440219 83.431 62.7059
10.515873 83.464 62.2821
10.592076 83.496 61.8591
10.668830 83.528 61.4372
10.746141 83.559 61.0165
10.824012 83.589 60.5972
10.902447 83.619 60.1795
10.981451 83.649 59.7636
11.061027 83.677 59.3497
11.141180 83.706 58.9379
11.221913 83.733 58.5285
11.303232 83.761 58.1216
11.385140 83.787 57.7174
11.467641 83.814 57.3160
11.550741 83.839 56.9176
11.634442 83.865 56.5222
11.718750 83.890 56.1301
11.803669 83.914 55.7412
11.889203 83.939 55.3556
11.975357 83.963 54.9734
12.062136 83.987 54.5945
12.149543 84.011 54.2189
12.237583 84.034 53.8464
12.326262 84.058 53.4770
12.415583 84.081 53.1103
12.505552 84.104 52.7462
12.596172 84.128 52.3845
12.687449 84.151 52.0248
12.779387 84.174 51.6667
12.871992 84.198 51.3099
12.965268 84.221 50.9542
13.059220 84.245 50.5991
13.153852 84.268 50.2442
13.249170 84.292 49.8894
13.345179 84.315 49.5344
13.441884 84.338 49.1789
13.539289 84.361 48.8229
13.637401 84.384 48.4662
13.736223 84.406 48.1090
13.835761 84.428 47.7512
13.936021 84.450 47.3931
14.037007 84.470 47.0349
14.138725 84.491 46.6769
14.241180 84.511 46.3195
14.344377 84.530 45.9632
14.448323 84.548 45.6083
14.553021 84.566 45.2555
14.658478 84.584 44.9051
14.764700 84.601 44.5576
14.871691 84.617 44.2135
14.979457 84.633 43.8731
15.088005 84.648 43.5368
15.197339 84.663 43.2047
15.307465 84.678 42.8766
15.418389 84.694 42.5527
15.530117 84.709 42.2325
15.642655 84.724 41.9155
15.756008 84.739 41.6012
15.870182 84.755 41.2887
15.985184 84.772 40.9771
16.101019 84.788 40.6655
16.217694 84.805 40.3528
16.335214 84.822 40.0381
16.453586 84.839 39.7207
16.572815 84.856 39.3998
16.692909 84.873 39.0751
16.813872 84.890 38.7467
16.935713 84.905 38.4149
17.058436 84.920 38.0803
17.182048 84.934 37.7441
17.306556 84.946 37.4077
17.431967 84.957 37.0728
17.558286 84.967 36.7411
17.685521 84.975 36.4146
17.813677 84.983 36.0948
17.942762 84.989 35.7834
18.072783 84.995 35.4813
18.203746 85.001 35.1891
18.335658 85.007 34.9066
18.468526 85.013 34.6334
18.602356 85.021 34.3680
18.737156 85.029 34.1088
18.872934 85.039 33.8537
19.009695 85.049 33.6003
19.147447 85.062 33.3464
19.286197 85.075 33.0898
19.425953 85.089 32.8286
19.566721 85.104 32.5617
19.708510 85.119 32.2881
19.851326 85.135 32.0075
19.995177 85.150 31.7200
20.140070 85.165 31.4261
20.286013 85.179 31.1264
20.433014 85.192 30.8217
20.581080 85.204 30.5129
20.730219 85.216 30.2007
20.880439 85.226 29.8861
21.031747 85.236 29.5701
21.184152 85.243 29.2538
21.337661 85.250 28.9391
21.492282 85.255 28.6280
21.648024 85.258 28.3229
21.804895 85.260 28.0269
21.962902 85.260 27.7429
22.122054 85.260 27.4736
22.282360 85.260 27.2212
22.443827 85.260 26.9863
22.606464 85.262 26.7681
22.770280 85.266 26.5636
22.935283 85.274 26.3680
23.101481 85.285 26.1745
23.268884 85.300 25.9751
23.437500 85.319 25.7617
23.607338 85.340 25.5269
23.778406 85.363 25.2649
23.950714 85.385 24.9731
24.124271 85.406 24.6521
24.299086 85.424 24.3060
24.475167 85.437 23.9424
24.652524 85.444 23.5710
24.831166 85.446 23.2030
25.011103 85.443 22.8495
25.192344 85.436 22.5203
25.374898 85.425 22.2220
25.558775 85.414 21.9581
25.743984 85.404 21.7274
25.930536 85.397 21.5251
26.118439 85.392 21.3433
26.307704 85.392 21.1720
26.498341 85.396 21.0012
26.690359 85.404 20.8223
26.883768 85.413 20.6288
27.078579 85.424 20.4178
27.274801 85.434 20.1895
27.472446 85.444 19.9467
27.671522 85.451 19.6942
27.872042 85.456 19.4374
28.074014 85.459 19.1815
28.277450 85.461 18.9307
28.482360 85.461 18.6873
28.688755 85.461 18.4523
28.896645 85.461 18.2252
29.106042 85.461 18.0046
29.316957 85.461 17.7887
29.529400 85.462 17.5757
29.743382 85.464 17.3643
29.958915 85.466 17.1532
30.176009 85.468 16.9417
30.394677 85.471 16.7288
30.614929 85.474 16.5140
30.836778 85.478 16.2965
31.060234 85.481 16.0756
31.285309 85.484 15.8512
31.512015 85.487 15.6237
31.740364 85.490 15.3943
31.970368 85.492 15.1652
32.202039 85.493 14.9386
32.435388 85.493 14.7167
32.670428 85.494 14.5007
32.907171 85.495 14.2907
33.145630 85.496 14.0849
33.385817 85.499 13.8803
33.627745 85.504 13.6733
33.871425 85.508 13.4606
34.116871 85.514 13.2402
34.364096 85.518 13.0123
34.613113 85.521 12.7789
34.863934 85.523 12.5440
35.116572 85.523 12.3118
35.371041 85.522 12.0861
35.627354 85.520 11.8690
35.885525 85.518 11.6606
36.145566 85.516 11.4595
36.407492 85.514 11.2632
36.671316 85.512 11.0696
36.937051 85.511 10.8773
37.204712 85.509 10.6868
37.474313 85.506 10.4987
37.745867 85.503 10.3142
38.019389 85.500 10.1340
38.294893 85.497 9.9572
38.572394 85.495 9.7825
38.851905 85.493 9.6080
39.133442 85.490 9.4319
39.417019 85.488 9.2529
39.702651 85.486 9.0707
39.990353 85.484 8.8846
40.280140 85.482 8.6945
40.572026 85.479 8.5003
40.866028 85.475 8.3022
41.162160 85.471 8.1011
41.460438 85.467 7.8986
41.760877 85.461 7.6964
42.063494 85.456 7.4960
42.368303 85.450 7.2975
42.675322 85.445 7.1001
42.984565 85.440 6.9025
43.296048 85.435 6.7042
43.609789 85.431 6.5060
43.925804 85.427 6.3091
44.244108 85.424 6.1143
44.564719 85.422 5.9199
44.887654 85.421 5.7224
45.212928 85.422 5.5165
45.540560 85.423 5.2990
45.870565 85.423 5.0704
46.202962 85.422 4.8356
46.537768 85.419 4.6021
46.875000 85.414 4.3760
47.214676 85.409 4.1593
47.556813 85.405 3.9485
47.901429 85.400 3.7383
48.248542 85.395 3.5250
48.598171 85.388 3.3107
48.950334 85.379 3.1025
49.305048 85.367 2.9102
49.662333 85.355 2.7395
50.022206 85.344 2.5891
50.384688 85.336 2.4504
50.749796 85.330 2.3109
51.117550 85.327 2.1602
51.487969 85.323 1.9935
51.861072 85.319 1.8137
52.236879 85.312 1.6282
52.615409 85.304 1.4455
52.996681 85.295 1.2711
53.380717 85.286 1.1060
53.767536 85.279 0.9465
54.157158 85.273 0.7870
54.549603 85.269 0.6223
54.944892 85.264 0.4498
55.343045 85.260 0.2706
55.744084 85.254 0.0885
56.148028 85.247 -0.0920
56.554900 85.240 -0.2676
56.964720 85.231 -0.4353
57.377510 85.221 -0.5934
57.793291 85.211 -0.7407
58.212085 85.201 -0.8777
58.633914 85.192 -1.0080
59.058799 85.184 -1.1377
59.486764 85.177 -1.2738
59.917829 85.169 -1.4208
60.352019 85.161 -1.5792
60.789354 85.152 -1.7469
61.229859 85.142 -1.9218
61.673556 85.131 -2.1040
62.120468 85.121 -2.2958
62.570618 85.111 -2.4994
63.024031 85.100 -2.7137
63.480729 85.089 -2.9340
63.940736 85.079 -3.1534
64.404077 85.070 -3.3667
64.870776 85.062 -3.5721
65.340856 85.058 -3.7707
65.814343 85.057 -3.9634
66.291261 85.059 -4.1525
66.771635 85.064 -4.3447
67.255489 85.071 -4.5529
67.742850 85.078 -4.7877
68.233743 85.079 -5.0446
68.728193 85.071 -5.2970
69.226226 85.054 -5.5087
69.727867 85.032 -5.6567
70.233144 85.010 -5.7479
70.742083 84.991 -5.8118
71.254709 84.974 -5.8773
71.771050 84.957 -5.9561
72.291132 84.937 -6.0436
72.814984 84.916 -6.1333
73.342631 84.894 -6.2249
73.874102 84.873 -6.3229
74.409424 84.852 -6.4306
74.948626 84.833 -6.5477
75.491734 84.814 -6.6727
76.038779 84.796 -6.8047
76.589787 84.780 -6.9438
77.144788 84.765 -7.0903
77.703811 84.751 -7.2430
78.266885 84.737 -7.3989
78.834039 84.722 -7.5544
79.405303 84.708 -7.7075
79.980706 84.693 -7.8585
80.560280 84.678 -8.0081
81.144053 84.663 -8.1559
81.732056 84.647 -8.3013
82.324320 84.631 -8.4455
82.920876 84.615 -8.5914
83.521755 84.600 -8.7413
84.126988 84.584 -8.8948
84.736607 84.567 -9.0488
85.350643 84.550 -9.1998
85.969129 84.533 -9.3445
86.592097 84.516 -9.4816
87.219579 84.499 -9.6121
87.851608 84.482 -9.7388
88.488217 84.465 -9.8640
89.129439 84.448 -9.9882
89.775308 84.430 -10.1105
90.425856 84.411 -10.2297
91.081119 84.393 -10.3450
91.741131 84.375 -10.4583
92.405925 84.357 -10.5748
93.075536 84.341 -10.6998
93.750000 84.323 -10.8342
94.429351 84.305 -10.9746
95.113625 84.286 -11.1161
95.802858 84.267 -11.2563
96.497085 84.247 -11.3962
97.196342 84.227 -11.5372
97.900667 84.206 -11.6802
98.610096 84.184 -11.8235
99.324665 84.162 -11.9649
100.044413 84.139 -12.1024
100.769376 84.117 -12.2352
101.499592 84.095 -12.3642
102.235100 84.074 -12.4901
102.975938 84.053 -12.6135
103.722144 84.033 -12.7350
104.473757 84.012 -12.8558
105.230817 83.992 -12.9777
105.993363 83.970 -13.1014
106.761435 83.948 -13.2243
107.535072 83.923 -13.3411
108.314315 83.897 -13.4485
109.099206 83.871 -13.5474
109.889783 83.845 -13.6405
110.686090 83.819 -13.7308
111.488167 83.793 -13.8219
112.296056 83.768 -13.9175
113.109800 83.742 -14.0219
113.929440 83.717 -14.1390
114.755020 83.691 -14.2710
115.586582 83.664 -14.4183
116.424170 83.635 -14.5793
117.267827 83.603 -14.7478
118.117598 83.566 -14.9103
118.973527 83.527 -15.0488
119.835658 83.486 -15.1493
120.704037 83.445 -15.2117
121.578708 83.408 -15.2507
122.459718 83.374 -15.2849
123.347111 83.341 -15.3254
124.240935 83.309 -15.3744
125.141236 83.276 -15.4301
126.048061 83.244 -15.4923
126.961458 83.212 -15.5618
127.881473 83.179 -15.6353
128.808154 83.145 -15.7041
129.741551 83.110 -15.7563
130.681712 83.075 -15.7772
131.628686 83.042 -15.7505
132.582521 83.010 -15.6615
133.543269 82.981 -15.5009
134.510979 82.956 -15.2657
135.485701 82.931 -14.9607
136.467486 82.905 -14.5938
137.456386 82.876 -14.1714
138.452451 82.843 -13.7032
139.455735 82.812 -13.2125
140.466288 82.787 -12.7391
141.484165 82.775 -12.3316
142.509418 82.782 -12.0417
143.542100 82.810 -11.9153
144.582265 82.856 -11.9705
145.629968 82.911 -12.1862
146.685262 82.965 -12.5179
147.748204 83.011 -12.9148
148.818849 83.039 -13.3234
149.897251 83.048 -13.6970
150.983469 83.039 -14.0135
152.077557 83.019 -14.2802
153.179574 82.992 -14.5193
154.289576 82.963 -14.7487
155.407622 82.935 -14.9733
156.533770 82.910 -15.1884
157.668078 82.887 -15.3877
158.810606 82.866 -15.5683
159.961413 82.843 -15.7306
161.120559 82.819 -15.8764
162.288105 82.792 -16.0078
163.464112 82.764 -16.1262
164.648640 82.733 -16.2329
165.841752 82.703 -16.3281
167.043510 82.673 -16.4119
168.253976 82.643 -16.4862
169.473213 82.614 -16.5555
170.701286 82.586 -16.6248
171.938258 82.557 -16.6957
173.184194 82.529 -16.7667
174.439158 82.502 -16.8348
175.703216 82.473 -16.8973
176.976434 82.445 -16.9528
178.258878 82.415 -17.0021
179.550615 82.384 -17.0460
180.851713 82.352 -17.0852
182.162239 82.319 -17.1208
183.482262 82.286 -17.1542
184.811850 82.254 -17.1859
186.151073 82.222 -17.2151
187.500000 82.190 -17.2395
188.858702 82.157 -17.2567
190.227250 82.125 -17.2664
191.605715 82.093 -17.2710
192.994169 82.061 -17.2744
194.392685 82.029 -17.2806
195.801334 81.998 -17.2919
197.220191 81.968 -17.3080
198.649330 81.937 -17.3260
200.088825 81.906 -17.3432
201.538751 81.875 -17.3574
202.999184 81.843 -17.3669
204.470200 81.811 -17.3704
205.951875 81.780 -17.3673
207.444287 81.749 -17.3575
208.947514 81.719 -17.3428
210.461634 81.688 -17.3254
211.986726 81.658 -17.3071
213.522869 81.628 -17.2883
215.070144 81.597 -17.2682
216.628631 81.567 -17.2444
218.198411 81.538 -17.2159
219.779567 81.509 -17.1827
221.372180 81.480 -17.1465
222.976334 81.451 -17.1092
224.592112 81.421 -17.0710
226.219600 81.391 -17.0312
227.858880 81.360 -16.9891
229.510039 81.329 -16.9451
231.173164 81.298 -16.9001
232.848340 81.267 -16.8549
234.535655 81.237 -16.8091
236.235197 81.207 -16.7621
237.947054 81.177 -16.7130
239.671317 81.146 -16.6608
241.408074 81.116 -16.6054
243.157416 81.085 -16.5475
244.919435 81.055 -16.4880
246.694223 81.024 -16.4275
248.481871 80.994 -16.3659
250.282473 80.963 -16.3026
252.096123 80.933 -16.2365
253.922915 80.903 -16.1655
255.762945 80.873 -16.0889
257.616309 80.842 -16.0068
259.483103 80.811 -15.9203
261.363424 80.780 -15.8284
263.257372 80.748 -15.7311
265.165043 80.717 -15.6300
267.086538 80.687 -15.5265
269.021957 80.659 -15.4193
270.971401 80.631 -15.3059
272.934972 80.603 -15.1843
274.912771 80.576 -15.0558
276.904902 80.550 -14.9221
278.911469 80.523 -14.7818
280.932577 80.495 -14.6318
282.968330 80.467 -14.4746
285.018835 80.437 -14.3214
287.084199 80.405 -14.1884
289.164530 80.370 -14.0835
291.259935 80.334 -13.9988
293.370525 80.298 -13.9189
295.496408 80.263 -13.8300
297.637697 80.229 -13.7236
299.794503 80.196 -13.5967
301.966937 80.164 -13.4489
304.155114 80.133 -13.2806
306.359147 80.103 -13.0944
308.579152 80.074 -12.8931
310.815244 80.046 -12.6783
313.067539 80.020 -12.4504
315.336156 79.997 -12.2111
317.621211 79.977 -11.9645
319.922826 79.960 -11.7166
322.241118 79.947 -11.4726
324.576210 79.939 -11.2368
326.928223 79.936 -11.0132
329.297280 79.936 -10.8066
331.683504 79.939 -10.6232
334.087019 79.943 -10.4683
336.507952 79.945 -10.3448
338.946427 79.945 -10.2525
341.402572 79.942 -10.1871
343.876516 79.935 -10.1417
346.368387 79.924 -10.1072
348.878315 79.911 -10.0740
351.406431 79.895 -10.0343
353.952867 79.876 -9.9836
356.517756 79.855 -9.9216
359.101230 79.832 -9.8505
361.703426 79.807 -9.7714
364.324478 79.781 -9.6833
366.964523 79.756 -9.5855
369.623699 79.730 -9.4783
372.302145 79.705 -9.3627
375.000000 79.679 -9.2398
377.717405 79.654 -9.1107
380.454501 79.630 -8.9760
383.211431 79.605 -8.8353
385.988339 79.580 -8.6876
388.785369 79.556 -8.5325
391.602668 79.532 -8.3712
394.440383 79.509 -8.2061
397.298660 79.485 -8.0389
400.177650 79.462 -7.8712
403.077502 79.440 -7.7043
405.998368 79.417 -7.5381
408.940400 79.396 -7.3707
411.903750 79.375 -7.1990
414.888575 79.355 -7.0219
417.895028 79.335 -6.8407
420.923268 79.316 -6.6571
423.973452 79.297 -6.4726
427.045738 79.278 -6.2876
430.140287 79.259 -6.1024
433.257261 79.240 -5.9168
436.396822 79.221 -5.7302
439.559133 79.202 -5.5419
442.744360 79.183 -5.3512
445.952668 79.165 -5.1584
449.184225 79.146 -4.9639
452.439199 79.127 -4.7674
455.717760 79.109 -4.5685
459.020079 79.091 -4.3668
462.346327 79.073 -4.1623
465.696680 79.056 -3.9547
469.071310 79.039 -3.7435
472.470394 79.023 -3.5282
475.894109 79.006 -3.3094
479.342634 78.991 -3.0891
482.816148 78.975 -2.8690
486.314833 78.959 -2.6500
489.838871 78.943 -2.4313
493.388445 78.927 -2.2114
496.963741 78.910 -1.9890
500.564945 78.893 -1.7640
504.192245 78.876 -1.5380
507.845830 78.860 -1.3123
511.525890 78.846 -1.0862
515.232618 78.831 -0.8582
518.966206 78.817 -0.6274
522.726849 78.803 -0.3942
526.514743 78.789 -0.1586
530.330086 78.775 0.0799
534.173076 78.760 0.3215
538.043915 78.746 0.5659
541.942803 78.732 0.8127
545.869944 78.719 1.0614
549.825542 78.707 1.3124
553.809805 78.696 1.5662
557.822939 78.685 1.8231
561.865154 78.674 2.0825
565.936660 78.663 2.3434
570.037671 78.653 2.6044
574.168399 78.643 2.8637
578.329060 78.633 3.1210
582.519870 78.623 3.3774
586.741049 78.612 3.6356
590.992817 78.602 3.8973
595.275394 78.592 4.1642
599.589005 78.581 4.4370
603.933874 78.571 4.7156
608.310228 78.561 4.9984
612.718295 78.552 5.2828
617.158304 78.543 5.5676
621.630488 78.534 5.8536
626.135079 78.526 6.1430
630.672311 78.517 6.4370
635.242423 78.509 6.7361
639.845651 78.500 7.0406
644.482237 78.492 7.3500
649.152421 78.484 7.6631
653.856447 78.476 7.9788
658.594560 78.469 8.2965
663.367008 78.462 8.6160
668.174039 78.457 8.9371
673.015903 78.452 9.2596
677.892854 78.448 9.5835
682.805145 78.445 9.9097
687.753032 78.444 10.2399
692.736774 78.443 10.5746
697.756631 78.443 10.9130
702.812863 78.445 11.2523
707.905735 78.447 11.5902
713.035511 78.450 11.9263
718.202461 78.453 12.2618
723.406852 78.456 12.5992
728.648956 78.460 12.9407
733.929047 78.464 13.2876
739.247399 78.468 13.6407
744.604290 78.472 14.0005
750.000000 78.476 14.3669
755.434809 78.480 14.7386
760.909001 78.485 15.1135
766.422861 78.491 15.4887
771.976677 78.498 15.8618
777.570739 78.507 16.2321
783.205337 78.517 16.6011
788.880766 78.529 16.9718
794.597321 78.542 17.3464
800.355301 78.556 17.7258
806.155005 78.571 18.1096
811.996736 78.588 18.4972
817.880799 78.605 18.8878
823.807501 78.623 19.2812
829.777150 78.642 19.6766
835.790057 78.661 20.0732
841.846536 78.681 20.4709
847.946903 78.702 20.8693
854.091476 78.725 21.2677
860.280575 78.748 21.6654
866.514523 78.773 22.0622
872.793644 78.798 22.4584
879.118267 78.824 22.8550
885.488720 78.852 23.2528
891.905336 78.881 23.6512
898.368450 78.912 24.0486
904.878398 78.944 24.4427
911.435520 78.977 24.8328
918.040157 79.012 25.2190
924.692655 79.048 25.6022
931.393359 79.085 25.9830
938.142619 79.123 26.3611
944.940787 79.163 26.7356
951.788218 79.204 27.1057
958.685268 79.246 27.4705
965.632296 79.290 27.8290
972.629666 79.336 28.1809
979.677741 79.382 28.5263
986.776890 79.430 28.8654
993.927482 79.479 29.1979
1001.129891 79.529 29.5232
1008.384491 79.579 29.8405
1015.691660 79.631 30.1491
1023.051781 79.683 30.4491
1030.465236 79.736 30.7415
1037.932411 79.790 31.0271
1045.453698 79.845 31.3064
1053.029486 79.900 31.5787
1060.660172 79.956 31.8426
1068.346153 80.013 32.0970
1076.087829 80.069 32.3412
1083.885605 80.127 32.5753
1091.739887 80.184 32.8001
1099.651084 80.241 33.0165
1107.619609 80.298 33.2254
1115.645878 80.356 33.4271
1123.730308 80.413 33.6215
1131.873321 80.470 33.8087
1140.075341 80.527 33.9890
1148.336797 80.585 34.1624
1156.658119 80.642 34.3289
1165.039741 80.699 34.4884
1173.482099 80.756 34.6410
1181.985634 80.813 34.7864
1190.550789 80.870 34.9250
1199.178011 80.926 35.0570
1207.867749 80.982 35.1832
1216.620457 81.038 35.3047
1225.436590 81.093 35.4222
1234.316609 81.148 35.5356
1243.260976 81.203 35.6447
1252.270157 81.258 35.7493
1261.344623 81.313 35.8497
1270.484846 81.368 35.9460
1279.691303 81.423 36.0382
1288.964474 81.478 36.1262
1298.304842 81.532 36.2099
1307.712894 81.587 36.2891
1317.189120 81.641 36.3637
1326.734016 81.695 36.4341
1336.348077 81.748 36.5003
1346.031806 81.802 36.5623
1355.785708 81.855 36.6193
1365.610290 81.908 36.6708
1375.506065 81.961 36.7166
1385.473549 82.013 36.7567
1395.513261 82.065 36.7914
1405.625726 82.116 36.8212
1415.811469 82.168 36.8463
1426.071023 82.218 36.8673
1436.404921 82.268 36.8849
1446.813703 82.317 36.8993
1457.297912 82.366 36.9107
1467.858093 82.415 36.9194
1478.494798 82.462 36.9256
1489.208581 82.510 36.9295
1500.000000 82.556 36.9315
1510.869618 82.602 36.9315
1521.818002 82.648 36.9301
1532.845723 82.693 36.9279
1543.953355 82.737 36.9252
1555.141477 82.781 36.9224
1566.410674 82.824 36.9197
1577.761531 82.867 36.9173
1589.194642 82.910 36.9155
1600.710601 82.952 36.9145
1612.310010 82.994 36.9146
1623.993473 83.035 36.9160
1635.761599 83.076 36.9188
1647.615002 83.118 36.9232
1659.554299 83.158 36.9295
1671.580114 83.199 36.9379
1683.693072 83.240 36.9485
1695.893807 83.281 36.9612
1708.182952 83.321 36.9760
1720.561150 83.362 36.9929
1733.029045 83.404 37.0119
1745.587288 83.445 37.0328
1758.236533 83.486 37.0554
1770.977440 83.528 37.0794
1783.810673 83.571 37.1046
1796.736900 83.613 37.1309
1809.756796 83.657 37.1579
1822.871040 83.701 37.1855
1836.080315 83.745 37.2133
1849.385310 83.790 37.2413
1862.786718 83.836 37.2691
1876.285239 83.882 37.2968
1889.881575 83.929 37.3238
1903.576436 83.977 37.3499
1917.370535 84.025 37.3747
1931.264593 84.074 37.3979
1945.259332 84.124 37.4194
1959.355483 84.174 37.4390
1973.553781 84.225 37.4565
1987.854965 84.278 37.4714
2002.259781 84.330 37.4834
2016.768981 84.384 37.4922
2031.383320 84.439 37.4978
2046.103561 84.494 37.4999
2060.930471 84.550 37.4987
2075.864823 84.608 37.4938
2090.907395 84.666 37.4853
2106.058972 84.725 37.4726
2121.320344 84.785 37.4552
2136.692305 84.847 37.4321
2152.175658 84.909 37.4022
2167.771210 84.973 37.3641
2183.479774 85.038 37.3164
2199.302169 85.104 37.2578
2215.239219 85.171 37.1871
2231.291755 85.239 37.1036
2247.460615 85.308 37.0070
2263.746641 85.377 36.8972
2280.150683 85.446 36.7745
2296.673595 85.516 36.6392
2313.316238 85.585 36.4913
2330.079481 85.654 36.3311
2346.964198 85.724 36.1584
2363.971268 85.793 35.9734
2381.101578 85.863 35.7759
2398.356022 85.933 35.5659
2415.735498 86.002 35.3428
2433.240913 86.071 35.1062
2450.873180 86.140 34.8556
2468.633217 86.209 34.5905
2486.521951 86.277 34.3108
2504.540314 86.345 34.0162
2522.689246 86.412 33.7067
2540.969692 86.478 33.3816
2559.382606 86.544 33.0405
2577.928947 86.608 32.6832
2596.609683 86.672 32.3095
2615.425787 86.734 31.9195
2634.378241 86.795 31.5133
2653.468031 86.854 31.0911
2672.696154 86.912 30.6529
2692.063613 86.967 30.1992
2711.571415 87.021 29.7302
2731.220579 87.073 29.2463
2751.012130 87.122 28.7480
2770.947098 87.168 28.2355
2791.026522 87.212 27.7096
2811.251451 87.253 27.1710
2831.622938 87.291 26.6204
2852.142045 87.326 26.0587
2872.809842 87.358 25.4868
2893.627406 87.386 24.9056
2914.595823 87.411 24.3162
2935.716186 87.433 23.7195
2956.989596 87.450 23.1165
2978.417161 87.464 22.5081
3000.000000 87.475 21.8954
3021.739237 87.481 21.2795
3043.636005 87.483 20.6619
3065.691446 87.481 20.0439
3087.906710 87.475 19.4272
3110.282955 87.465 18.8136
3132.821347 87.451 18.2049
3155.523062 87.432 17.6031
3178.389283 87.409 17.0103
3201.421202 87.382 16.4285
3224.620020 87.351 15.8596
3247.986946 87.316 15.3054
3271.523198 87.278 14.7676
3295.230004 87.236 14.2476
3319.108599 87.190 13.7471
3343.160228 87.142 13.2673
3367.386145 87.091 12.8094
3391.787613 87.038 12.3741
3416.365904 86.983 11.9618
3441.122300 86.926 11.5728
3466.058091 86.867 11.2069
3491.174576 86.807 10.8640
3516.473066 86.745 10.5437
3541.954880 86.683 10.2456
3567.621345 86.620 9.9694
3593.473800 86.555 9.7152
3619.513592 86.490 9.4830
3645.742080 86.425 9.2730
3672.160630 86.358 9.0855
3698.770620 86.292 8.9209
3725.573436 86.224 8.7796
3752.570477 86.157 8.6620
3779.763150 86.090 8.5685
3807.152872 86.022 8.4994
3834.741071 85.955 8.4547
3862.529185 85.888 8.4341
3890.518664 85.822 8.4372
3918.710966 85.757 8.4636
3947.107561 85.692 8.5132
3975.709929 85.629 8.5857
4004.519563 85.566 8.6812
4033.537962 85.505 8.7994
4062.766641 85.445 8.9404
4092.207123 85.387 9.1040
4121.860942 85.331 9.2898
4151.729646 85.276 9.4973
4181.814790 85.223 9.7256
4212.117944 85.173 9.9739
4242.640687 85.125 10.2410
4273.384610 85.080 10.5258
4304.351317 85.037 10.8268
4335.542421 84.997 11.1428
4366.959549 84.960 11.4724
4398.604338 84.925 11.8145
4430.478438 84.893 12.1683
4462.583511 84.863 12.5338
4494.921231 84.835 12.9113
4527.493283 84.810 13.3021
4560.301365 84.787 13.7079
4593.347189 84.766 14.1304
4626.632476 84.748 14.5713
4660.158962 84.734 15.0312
4693.928395 84.723 15.5100
4727.942535 84.716 16.0067
4762.203156 84.715 16.5194
4796.712043 84.718 17.0454
4831.470996 84.727 17.5819
4866.481826 84.742 18.1260
4901.746360 84.762 18.6755
4937.266434 84.788 19.2285
4973.043902 84.820 19.7836
5009.080628 84.857 20.3397
5045.378492 84.902 20.8961
5081.939384 84.952 21.4520
5118.765212 85.010 22.0066
5155.857894 85.075 22.5586
5193.219366 85.148 23.1062
5230.851574 85.231 23.6466
5268.756481 85.323 24.1754
5306.936062 85.426 24.6868
5345.392309 85.541 25.1731
5384.127225 85.668 25.6244
5423.142830 85.809 26.0282
5462.441159 85.964 26.3693
5502.024259 86.132 26.6296
5541.894195 86.315 26.7883
5582.053045 86.511 26.8222
5622.502902 86.717 26.7061
5663.245876 86.932 26.4143
5704.284090 87.151 25.9232
5745.619684 87.367 25.2126
5787.254813 87.575 24.2703
5829.191647 87.767 23.0947
5871.432373 87.934 21.6980
5913.979192 88.067 20.1078
5956.834323 88.160 18.3672
6000.000000 88.206 16.5343
6043.478473 88.203 14.6777
6087.272010 88.149 12.8727
6131.382892 88.047 11.1936
6175.813420 87.903 9.7085
6220.565910 87.724 8.4724
6265.642695 87.522 7.5240
6311.046124 87.307 6.8833
6356.778566 87.089 6.5513
6402.842404 86.879 6.5122
6449.240040 86.687 6.7369
6495.973891 86.520 7.1863
6543.046396 86.382 7.8164
6590.460007 86.278 8.5814
6638.217197 86.210 9.4370
6686.320456 86.179 10.3420
6734.772290 86.185 11.2587
6783.575226 86.227 12.1527
6832.731809 86.305 12.9930
6882.244600 86.416 13.7510
6932.116181 86.560 14.3996
6982.349153 86.736 14.9127
7032.946133 86.940 15.2634
7083.909760 87.173 15.4235
7135.242690 87.430 15.3622
7186.947600 87.709 15.0472
7239.027185 88.006 14.4465
7291.484160 88.314 13.5312
7344.321260 88.627 12.2797
7397.541239 88.938 10.6770
7451.146872 89.239 8.7118
7505.140954 89.522 6.3746
7559.526299 89.776 3.6638
7614.305743 89.990 0.5932
7669.482141 90.153 -2.8050
7725.058371 90.253 -6.4793
7781.037328 90.282 -10.3615
7837.421932 90.232 -14.3700
7894.215122 90.101 -18.4150
7951.419859 89.887 -22.4031
8009.039125 89.592 -26.2424
8067.075924 89.220 -29.8477
8125.533282 88.779 -33.1411
8184.414245 88.275 -36.0527
8243.721885 87.719 -38.5167
8303.459292 87.119 -40.4668
8363.629581 86.490 -41.8348
8424.235888 85.848 -42.5588
8485.281374 85.219 -42.6121
8546.769221 84.635 -42.0530
8608.702634 84.128 -41.0692
8671.084842 83.717 -39.9590
8733.919097 83.396 -39.0263
8797.208675 83.134 -38.4568
8860.956876 82.894 -38.2648
8925.167022 82.643 -38.3335
8989.842461 82.365 -38.4990
9054.986566 82.056 -38.6184
9120.602731 81.724 -38.5984
9186.694378 81.376 -38.3954
9253.264952 81.024 -38.0033
9320.317925 80.674 -37.4378
9387.856790 80.332 -36.7257
9455.885071 80.001 -35.8961
9524.406312 79.681 -34.9759
9593.424086 79.374 -33.9878
9662.941992 79.078 -32.9498
9732.963653 78.792 -31.8755
9803.492719 78.513 -30.7733
9874.532869 78.241 -29.6473
9946.087805 77.974 -28.4973
10018.161257 77.710 -27.3207
10090.756983 77.450 -26.1143
10163.878768 77.192 -24.8755
10237.530423 76.939 -23.6031
10311.715789 76.688 -22.2963
10386.438732 76.441 -20.9536
10461.703149 76.197 -19.5734
10537.512962 75.956 -18.1538
10613.872125 75.717 -16.6920
10690.784618 75.482 -15.1853
10768.254450 75.251 -13.6315
10846.285661 75.024 -12.0293
10924.882318 74.802 -10.3796
11004.048518 74.587 -8.6847
11083.788390 74.378 -6.9484
11164.106090 74.176 -5.1750
11245.005805 73.983 -3.3689
11326.491752 73.799 -1.5332
11408.568180 73.625 0.3303
11491.239368 73.462 2.2208
11574.509626 73.311 4.1365
11658.383294 73.176 6.0704
11742.864745 73.058 8.0078
11827.958384 72.959 9.9244
11913.668646 72.879 11.7912
12000.000000 72.817 13.5817
12086.956947 72.771 15.2795
12174.544019 72.737 16.8812
12262.765784 72.712 18.3939
12351.626840 72.696 19.8296
12441.131819 72.688 21.2006
12531.285389 72.687 22.5164
12622.092249 72.694 23.7833
12713.557132 72.710 25.0052
12805.684808 72.735 26.1848
12898.480079 72.769 27.3245
12991.947783 72.812 28.4271
13086.092792 72.864 29.4980
13180.920015 72.925 30.5450
13276.434395 72.995 31.5784
13372.640911 73.075 32.6104
13469.544580 73.165 33.6548
13567.150452 73.268 34.7261
13665.463617 73.386 35.8379
13764.489200 73.523 37.0018
13864.232362 73.681 38.2261
13964.698305 73.866 39.5145
14065.892266 74.085 40.8634
14167.819519 74.343 42.2580
14270.485380 74.648 43.6674
14373.895200 75.007 45.0408
14478.054370 75.423 46.3049
14582.968320 75.899 47.3653
14688.642520 76.432 48.1120
14795.082478 77.015 48.4265
14902.293745 77.634 48.1923
15010.281908 78.269 47.3075
15119.052599 78.896 45.6979
15228.611486 79.486 43.3300
15338.964283 80.009 40.2207
15450.116741 80.435 36.4434
15562.074656 80.739 32.1297
15674.843864 80.900 27.4634
15788.430244 80.909 22.6664
15902.839718 80.766 17.9746
16018.078250 80.481 13.6101
16134.151848 80.075 9.7571
16251.066563 79.576 6.5463
16368.828491 79.013 4.0497
16487.443769 78.422 2.2786
16606.918584 77.835 1.1843
16727.259161 77.284 0.6588
16848.471777 76.798 0.5396
16970.562748 76.397 0.6202
17093.538442 76.091 0.6743
17217.405268 75.875 0.4924
17342.169684 75.728 -0.0734
17467.838194 75.624 -1.0756
17594.417350 75.537 -2.4647
17721.913751 75.450 -4.1227
17850.334044 75.363 -5.9176
17979.684923 75.283 -7.7516
18109.973131 75.224 -9.5803
18241.205462 75.197 -11.4044
18373.388756 75.208 -13.2498
18506.529905 75.258 -15.1469
18640.635849 75.342 -17.1194
18775.713581 75.453 -19.1815
18911.770141 75.582 -21.3391
19048.812624 75.720 -23.5939
19186.848172 75.856 -25.9418
19325.883983 75.983 -28.3672
19465.927305 76.090 -30.8276
19606.985439 76.174 -33.2315
19749.065738 76.232 -35.4155
19892.175609 76.266 -37.1359
20036.322514 76.281 -38.1053
