* Measurement data measured by REW V5.31
* Source: Headset (CX31993 HIFI AUDIO), MICROPHONE (Master Volume), R, volume: 0.600
* Format: 256k Log Swept Sine, 1 sweep at -12.0 dBFS with no timing reference
* Dated: May 10, 2024 6:59:25 PM
* REW Settings:
*  C-weighting compensation: Off
*  Target level: 75.0 dB
* Note: ; 
* Measurement: Moondrop ChuII nobass L
* Smoothing: 1/24 octave
* Frequency Step: 96 ppo
* Start Frequency: 20.141602 Hz
*
* Freq(Hz) SPL(dB) Phase(degrees)
20.141602 92.585 -146.8200
20.287556 92.589 -146.8058
20.434568 92.597 -146.7838
20.582645 92.614 -146.7707
20.731796 92.644 -146.7846
20.882027 92.685 -146.8504
21.033346 92.736 -146.9872
21.185763 92.791 -147.2042
21.339284 92.847 -147.5042
21.493917 92.898 -147.8787
21.649671 92.940 -148.3074
21.806553 92.969 -148.7674
21.964572 92.982 -149.2243
22.123737 92.979 -149.6431
22.284054 92.959 -149.9913
22.445534 92.925 -150.2354
22.608183 92.881 -150.3549
22.772012 92.833 -150.3371
22.937027 92.785 -150.1829
23.103238 92.745 -149.9127
23.270654 92.717 -149.5566
23.439282 92.707 -149.1631
23.609133 92.715 -148.7845
23.780215 92.740 -148.4733
23.952536 92.780 -148.2774
24.126106 92.830 -148.2268
24.300934 92.882 -148.3394
24.477028 92.934 -148.6126
24.654399 92.978 -149.0288
24.833055 93.013 -149.5604
25.013005 93.037 -150.1677
25.194260 93.049 -150.8133
25.376828 93.052 -151.4562
25.560719 93.050 -152.0658
25.745942 93.045 -152.6172
25.932508 93.041 -153.0990
26.120426 93.042 -153.5102
26.309705 93.050 -153.8594
26.500356 93.064 -154.1632
26.692388 93.083 -154.4387
26.885812 93.106 -154.7032
27.080638 93.127 -154.9670
27.276876 93.145 -155.2349
27.474535 93.156 -155.5038
27.673627 93.159 -155.7661
27.874161 93.154 -156.0110
28.076149 93.143 -156.2291
28.279600 93.127 -156.4146
28.484526 93.110 -156.5675
28.690937 93.096 -156.6951
28.898843 93.087 -156.8098
29.108256 93.083 -156.9273
29.319186 93.085 -157.0620
29.531645 93.090 -157.2239
29.745644 93.096 -157.4149
29.961193 93.099 -157.6290
30.178304 93.098 -157.8511
30.396989 93.090 -158.0629
30.617258 93.076 -158.2448
30.839123 93.059 -158.3818
31.062596 93.041 -158.4679
31.287688 93.026 -158.5084
31.514412 93.018 -158.5193
31.742778 93.019 -158.5244
31.972800 93.028 -158.5504
32.204488 93.045 -158.6181
32.437855 93.066 -158.7394
32.672913 93.088 -158.9123
32.909674 93.107 -159.1239
33.148151 93.122 -159.3523
33.388356 93.131 -159.5757
33.630302 93.138 -159.7766
33.874001 93.142 -159.9470
34.119466 93.147 -160.0899
34.366710 93.153 -160.2164
34.615745 93.160 -160.3428
34.866585 93.167 -160.4819
35.119243 93.172 -160.6409
35.373731 93.174 -160.8191
35.630064 93.173 -161.0093
35.888254 93.169 -161.2019
36.148315 93.163 -161.3881
36.410261 93.159 -161.5628
36.674104 93.156 -161.7256
36.939860 93.156 -161.8784
37.207542 93.159 -162.0246
37.477163 93.165 -162.1667
37.748738 93.171 -162.3065
38.022281 93.178 -162.4460
38.297806 93.186 -162.5883
38.575327 93.195 -162.7371
38.854860 93.204 -162.8955
39.136419 93.212 -163.0644
39.420017 93.221 -163.2412
39.705671 93.231 -163.4205
39.993395 93.241 -163.5964
40.283203 93.253 -163.7639
40.575112 93.267 -163.9202
40.869136 93.282 -164.0645
41.165290 93.297 -164.1962
41.463591 93.309 -164.3138
41.764053 93.316 -164.4154
42.066693 93.319 -164.5001
42.371525 93.317 -164.5705
42.678567 93.312 -164.6326
42.987834 93.304 -164.6952
43.299341 93.296 -164.7678
43.613106 93.290 -164.8588
43.929145 93.286 -164.9744
44.247473 93.285 -165.1162
44.568109 93.286 -165.2786
44.891068 93.287 -165.4467
45.216367 93.286 -165.5981
45.544023 93.285 -165.7111
45.874054 93.285 -165.7768
46.206476 93.289 -165.8087
46.541307 93.299 -165.8413
46.878565 93.312 -165.9139
47.218266 93.323 -166.0459
47.560429 93.327 -166.2221
47.905072 93.323 -166.4007
48.252212 93.313 -166.5407
48.601867 93.305 -166.6290
48.954056 93.305 -166.6869
49.308798 93.312 -166.7505
49.666109 93.319 -166.8417
50.026010 93.322 -166.9556
50.388520 93.320 -167.0740
50.753656 93.318 -167.1915
51.121437 93.320 -167.3243
51.491884 93.324 -167.4900
51.865016 93.327 -167.6772
52.240851 93.324 -167.8400
52.619410 93.319 -167.9306
53.000712 93.319 -167.9455
53.384777 93.327 -167.9368
53.771625 93.338 -167.9711
54.161276 93.343 -168.0730
54.553751 93.334 -168.2098
54.949070 93.319 -168.3348
55.347254 93.308 -168.4397
55.748323 93.307 -168.5577
56.152298 93.311 -168.7109
56.559201 93.311 -168.8655
56.969052 93.305 -168.9604
57.381873 93.302 -168.9856
57.797686 93.310 -169.0186
58.216512 93.323 -169.1561
58.638373 93.325 -169.4054
59.063291 93.311 -169.6617
59.491288 93.292 -169.8060
59.922386 93.291 -169.8280
60.356608 93.313 -169.8324
60.793977 93.340 -169.9121
61.234515 93.348 -170.0432
61.678246 93.333 -170.1275
62.125192 93.310 -170.1255
62.575377 93.298 -170.1177
63.028824 93.297 -170.2147
63.485557 93.295 -170.4285
63.945599 93.287 -170.6629
64.408975 93.279 -170.8182
64.875709 93.278 -170.8757
65.345825 93.285 -170.8814
65.819348 93.295 -170.8910
66.296302 93.304 -170.9519
66.776713 93.308 -171.0944
67.260604 93.300 -171.2845
67.748002 93.281 -171.3996
68.238932 93.267 -171.3320
68.733420 93.285 -171.1507
69.231490 93.333 -171.0889
69.733170 93.373 -171.2921
70.238485 93.367 -171.6312
70.747463 93.321 -171.8364
71.260128 93.279 -171.8194
71.776508 93.277 -171.7889
72.296630 93.299 -171.9821
72.820521 93.303 -172.3521
73.348209 93.276 -172.6256
73.879720 93.246 -172.6334
74.415083 93.243 -172.4915
74.954326 93.265 -172.4328
75.497475 93.284 -172.5419
76.044561 93.284 -172.7244
76.595612 93.269 -172.8717
77.150655 93.247 -172.9525
77.709720 93.224 -172.9643
78.272837 93.214 -172.9187
78.840034 93.228 -172.9273
79.411342 93.258 -173.1857
79.986789 93.268 -173.7509
80.566406 93.227 -174.3637
81.150224 93.152 -174.5997
81.738272 93.107 -174.2551
82.330581 93.139 -173.5899
82.927182 93.228 -173.1353
83.528107 93.302 -173.2303
84.133386 93.302 -173.7836
84.743051 93.225 -174.3718
85.357134 93.128 -174.5402
85.975667 93.082 -174.1289
86.598682 93.112 -173.4373
87.226212 93.175 -173.0812
87.858289 93.193 -173.6344
88.494946 93.097 -175.1952
89.136217 92.881 -177.0956
89.782135 92.642 -178.1694
90.432733 92.546 -177.6956
91.088046 92.670 -176.1839
91.748108 92.921 -174.7511
92.412952 93.155 -174.0412
93.082615 93.297 -174.1307
93.757130 93.336 -174.8303
94.436533 93.289 -175.7863
95.120859 93.192 -176.6030
95.810144 93.090 -177.0044
96.504423 93.025 -176.8407
97.203734 93.036 -176.0972
97.908112 93.134 -175.0368
98.617595 93.281 -174.1636
99.332219 93.401 -173.8955
100.052021 93.448 -174.3352
100.777039 93.425 -175.2799
101.507311 93.364 -176.3045
102.242875 93.281 -176.9098
102.983769 93.164 -176.7883
103.730032 92.998 -176.0275
104.481702 92.798 -175.0215
105.238820 92.623 -174.1556
106.001424 92.532 -173.5354
106.769554 92.529 -173.0228
107.543250 92.577 -172.6220
108.322553 92.643 -172.7345
109.107503 92.729 -173.7658
109.898141 92.843 -175.5038
110.694508 92.973 -177.1864
111.496646 93.065 -178.1832
112.304596 93.067 -178.3975
113.118402 92.982 -178.1490
113.938104 92.858 -177.9090
114.763747 92.752 -178.0800
115.595372 92.712 -178.8851
116.433024 92.760 179.7596
117.276746 92.889 178.4014
118.126581 93.071 177.7706
118.982575 93.254 178.1375
119.844772 93.374 179.1476
120.713217 93.399 -179.7429
121.587954 93.354 -178.8986
122.469031 93.299 -178.3414
123.356492 93.262 -177.7928
124.250384 93.213 -177.0409
125.150753 93.095 -176.1584
126.057647 92.896 -175.4154
126.971113 92.674 -175.1930
127.891198 92.498 -175.7043
128.817950 92.409 -176.7549
129.751418 92.428 -177.9521
130.691651 92.546 -178.9525
131.638696 92.724 -179.5137
132.592604 92.899 -179.4936
133.553425 93.012 -178.8728
134.521208 93.031 -177.8355
135.496004 92.947 -176.8060
136.477864 92.778 -176.3179
137.466839 92.572 -176.7477
138.462981 92.394 -178.0529
139.466340 92.300 -179.6420
140.476971 92.316 179.4169
141.494925 92.417 179.7935
142.520256 92.528 -178.6259
143.553016 92.555 -176.5454
144.593260 92.427 -174.6017
145.641043 92.147 -173.1595
146.696418 91.817 -172.5194
147.759441 91.605 -172.8820
148.830166 91.638 -174.1081
149.908651 91.883 -175.6092
150.994951 92.180 -176.5663
152.089123 92.389 -176.4078
153.191223 92.476 -175.1352
154.301310 92.516 -173.3832
155.419441 92.618 -172.1001
156.545674 92.814 -171.7047
157.680069 93.043 -171.8144
158.822683 93.181 -171.8219
159.973578 93.128 -171.6216
161.132813 92.873 -171.8410
162.300447 92.533 -173.0426
163.476543 92.270 -174.6113
164.661162 92.111 -175.1210
165.854364 91.920 -174.2766
167.056213 91.605 -173.4850
168.266772 91.278 -174.3160
169.486102 91.156 -176.5126
170.714268 91.279 -178.2793
171.951334 91.506 -178.9941
173.197364 91.764 -179.4420
174.452424 92.071 -179.8190
175.716578 92.382 -179.4874
176.989893 92.595 -178.4914
178.272434 92.688 -177.6458
179.564270 92.726 -177.2494
180.865467 92.749 -176.9637
182.176092 92.755 -176.7032
183.496216 92.755 -176.5177
184.825905 92.748 -176.1907
186.165229 92.704 -175.8162
187.514259 92.631 -175.8555
188.873065 92.592 -176.3500
190.241717 92.619 -176.8172
191.620287 92.674 -176.9285
193.008847 92.707 -176.7052
194.407468 92.696 -176.4006
195.816225 92.658 -176.3269
197.235190 92.622 -176.4585
198.664438 92.599 -176.5294
200.104042 92.585 -176.5145
201.554078 92.575 -176.4956
203.014622 92.559 -176.4699
204.485750 92.537 -176.4767
205.967538 92.523 -176.5475
207.460064 92.516 -176.6100
208.963405 92.502 -176.5826
210.477640 92.480 -176.5158
212.002848 92.461 -176.4765
213.539108 92.450 -176.4606
215.086500 92.437 -176.4568
216.645105 92.419 -176.4591
218.215005 92.403 -176.4335
219.796281 92.392 -176.3829
221.389015 92.386 -176.3402
222.993292 92.384 -176.3206
224.609193 92.382 -176.2828
226.236804 92.377 -176.1927
227.876209 92.368 -176.0699
229.527494 92.356 -175.9520
231.190745 92.341 -175.8687
232.866048 92.324 -175.8076
234.553491 92.310 -175.7370
236.253163 92.302 -175.6831
237.965150 92.303 -175.6623
239.689544 92.309 -175.6530
241.426433 92.314 -175.6338
243.175909 92.313 -175.6014
244.938062 92.303 -175.5555
246.712984 92.285 -175.4949
248.500768 92.266 -175.4288
250.301507 92.248 -175.3748
252.115295 92.231 -175.3427
253.942226 92.217 -175.3230
255.782396 92.209 -175.3030
257.635901 92.206 -175.2804
259.502837 92.203 -175.2473
261.383301 92.199 -175.2081
263.277392 92.192 -175.1755
265.185209 92.181 -175.1478
267.106850 92.167 -175.1039
269.042417 92.153 -175.0333
270.992009 92.141 -174.9442
272.955729 92.130 -174.8555
274.933678 92.114 -174.7972
276.925961 92.092 -174.7588
278.932681 92.069 -174.7144
280.953942 92.052 -174.6556
282.989850 92.045 -174.5987
285.040511 92.043 -174.5550
287.106032 92.041 -174.4728
289.186521 92.041 -174.3552
291.282086 92.041 -174.2685
293.392836 92.037 -174.1717
295.518881 92.031 -174.1053
297.660333 92.019 -174.0523
299.817302 92.007 -173.9281
301.989902 91.996 -173.8656
304.178245 91.985 -173.8102
306.382446 91.979 -173.7288
308.602620 91.976 -173.7286
310.838882 91.964 -173.6974
313.091348 91.950 -173.6013
315.360137 91.939 -173.4641
317.645367 91.930 -173.3656
319.947156 91.918 -173.2736
322.265625 91.910 -173.1377
324.600895 91.904 -173.0438
326.953086 91.897 -172.9654
329.322323 91.887 -172.9126
331.708729 91.873 -172.8464
334.112427 91.860 -172.7359
336.533543 91.848 -172.6047
338.972204 91.837 -172.4584
341.428536 91.824 -172.3272
343.902668 91.805 -172.2027
346.394729 91.784 -172.0284
348.904848 91.770 -171.8107
351.433156 91.765 -171.6211
353.979786 91.765 -171.5029
356.544869 91.760 -171.4466
359.128540 91.749 -171.3963
361.730934 91.740 -171.3018
364.352185 91.735 -171.1774
366.992431 91.729 -171.0468
369.651810 91.718 -170.9077
372.330459 91.705 -170.7831
375.028519 91.695 -170.6991
377.746130 91.690 -170.6214
380.483434 91.688 -170.5015
383.240574 91.689 -170.3562
386.017693 91.689 -170.2095
388.814937 91.686 -170.0563
391.632450 91.676 -169.8903
394.470380 91.664 -169.7217
397.328875 91.651 -169.5699
400.208084 91.641 -169.4316
403.108157 91.634 -169.3008
406.029245 91.630 -169.1886
408.971500 91.624 -169.0884
411.935076 91.615 -168.9486
414.920127 91.603 -168.7439
417.926810 91.592 -168.5244
420.955280 91.583 -168.3478
424.005695 91.571 -168.2237
427.078215 91.555 -168.1273
430.173000 91.536 -168.0441
433.290211 91.521 -167.9734
436.430010 91.520 -167.8575
439.592562 91.528 -167.5976
442.778031 91.529 -167.1863
445.986583 91.513 -166.7969
449.218386 91.494 -166.6268
452.473607 91.491 -166.6092
455.752418 91.503 -166.4975
459.054987 91.506 -166.2534
462.381489 91.494 -166.0401
465.732096 91.477 -165.9460
469.106983 91.472 -165.9048
472.506325 91.479 -165.7712
475.930301 91.485 -165.4853
479.379088 91.477 -165.1706
482.852867 91.462 -164.9431
486.351817 91.451 -164.7784
489.876123 91.447 -164.5983
493.425968 91.443 -164.4005
497.001536 91.440 -164.2233
500.603014 91.438 -164.0491
504.230589 91.436 -163.8449
507.884452 91.433 -163.6262
511.564792 91.429 -163.4146
515.271802 91.427 -163.2108
519.005673 91.425 -163.0051
522.766602 91.423 -162.7943
526.554785 91.419 -162.5822
530.370418 91.414 -162.3654
534.213700 91.408 -162.1375
538.084833 91.403 -161.9033
541.984018 91.400 -161.6777
545.911457 91.398 -161.4699
549.867357 91.394 -161.2555
553.851922 91.389 -161.0141
557.865362 91.386 -160.7650
561.907884 91.382 -160.5146
565.979700 91.376 -160.2482
570.081022 91.373 -159.9667
574.212064 91.373 -159.6845
578.373042 91.375 -159.4150
582.564171 91.376 -159.1587
586.785671 91.374 -158.9061
591.037762 91.372 -158.6517
595.320665 91.370 -158.3992
599.634604 91.369 -158.1460
603.979804 91.370 -157.8828
608.356491 91.372 -157.6020
612.764893 91.374 -157.3053
617.205240 91.378 -156.9998
621.677763 91.382 -156.6929
626.182696 91.386 -156.3874
630.720274 91.391 -156.0846
635.290733 91.397 -155.7829
639.894312 91.405 -155.4781
644.531250 91.412 -155.1622
649.201789 91.418 -154.8379
653.906173 91.425 -154.5190
658.644647 91.433 -154.2136
663.417457 91.442 -153.9160
668.224854 91.451 -153.6190
673.067086 91.460 -153.3143
677.944408 91.471 -152.9954
682.857073 91.482 -152.6600
687.805336 91.491 -152.3156
692.789457 91.500 -151.9774
697.809695 91.510 -151.6471
702.866312 91.524 -151.3197
707.959571 91.540 -150.9958
713.089738 91.556 -150.6726
718.257080 91.571 -150.3526
723.461867 91.585 -150.0299
728.704370 91.598 -149.6976
733.984862 91.612 -149.3579
739.303619 91.626 -149.0149
744.660918 91.641 -148.6681
750.057038 91.658 -148.3153
755.492260 91.678 -147.9563
760.966869 91.699 -147.5925
766.481148 91.720 -147.2230
772.035387 91.740 -146.8488
777.629873 91.761 -146.4752
783.264900 91.783 -146.1078
788.940760 91.806 -145.7416
794.657750 91.830 -145.3677
800.416168 91.855 -144.9896
806.216313 91.881 -144.6111
812.058489 91.907 -144.2289
817.943000 91.933 -143.8403
823.870152 91.962 -143.4482
829.840255 91.992 -143.0612
835.853619 92.025 -142.6790
841.910559 92.059 -142.2937
848.011390 92.093 -141.9021
854.156430 92.128 -141.5028
860.346000 92.164 -141.1021
866.580422 92.201 -140.7089
872.860020 92.241 -140.3210
879.185124 92.282 -139.9339
885.556062 92.324 -139.5412
891.973166 92.366 -139.1453
898.436771 92.411 -138.7501
904.947215 92.456 -138.3574
911.504835 92.504 -137.9698
918.109975 92.553 -137.5866
924.762978 92.604 -137.2044
931.464192 92.655 -136.8265
938.213966 92.708 -136.4553
945.012651 92.762 -136.0911
951.860602 92.817 -135.7344
958.758176 92.874 -135.3836
965.705733 92.932 -135.0397
972.703635 92.992 -134.7020
979.752246 93.054 -134.3669
986.851935 93.118 -134.0344
994.003071 93.182 -133.7059
1001.206027 93.248 -133.3837
1008.461179 93.314 -133.0723
1015.768904 93.382 -132.7762
1023.129584 93.450 -132.4950
1030.543603 93.518 -132.2228
1038.011347 93.587 -131.9538
1045.533205 93.657 -131.6885
1053.109569 93.728 -131.4328
1060.740836 93.799 -131.1889
1068.427401 93.872 -130.9550
1076.169666 93.944 -130.7320
1083.968035 94.017 -130.5226
1091.822915 94.090 -130.3256
1099.734713 94.163 -130.1381
1107.703844 94.237 -129.9577
1115.730723 94.310 -129.7839
1123.815768 94.383 -129.6196
1131.959400 94.456 -129.4667
1140.162045 94.528 -129.3248
1148.424129 94.601 -129.1934
1156.746083 94.672 -129.0707
1165.128342 94.744 -128.9559
1173.571343 94.815 -128.8495
1182.075524 94.886 -128.7498
1190.641331 94.955 -128.6548
1199.269209 95.025 -128.5656
1207.959608 95.094 -128.4826
1216.712981 95.163 -128.4054
1225.529785 95.230 -128.3341
1234.410479 95.297 -128.2677
1243.355526 95.363 -128.2064
1252.365393 95.428 -128.1492
1261.440549 95.493 -128.0952
1270.581467 95.557 -128.0445
1279.788624 95.621 -127.9974
1289.062500 95.684 -127.9537
1298.403578 95.746 -127.9103
1307.812346 95.808 -127.8659
1317.289293 95.869 -127.8226
1326.834914 95.929 -127.7817
1336.449707 95.989 -127.7426
1346.134173 96.048 -127.7038
1355.888816 96.107 -127.6634
1365.714145 96.165 -127.6208
1375.610673 96.223 -127.5767
1385.578915 96.281 -127.5333
1395.619391 96.338 -127.4908
1405.732624 96.395 -127.4477
1415.919142 96.452 -127.4044
1426.179476 96.509 -127.3612
1436.514160 96.566 -127.3160
1446.923734 96.623 -127.2679
1457.408740 96.680 -127.2174
1467.969724 96.737 -127.1657
1478.607238 96.794 -127.1131
1489.321836 96.851 -127.0592
1500.114076 96.909 -127.0035
1510.984521 96.967 -126.9468
1521.933737 97.025 -126.8904
1532.962297 97.083 -126.8346
1544.070773 97.142 -126.7794
1555.259747 97.201 -126.7254
1566.529800 97.261 -126.6724
1577.881521 97.321 -126.6189
1589.315501 97.381 -126.5640
1600.832336 97.442 -126.5078
1612.432627 97.503 -126.4526
1624.116978 97.565 -126.3997
1635.886000 97.627 -126.3490
1647.740304 97.690 -126.3002
1659.680509 97.753 -126.2522
1671.707238 97.817 -126.2048
1683.821118 97.882 -126.1594
1696.022780 97.947 -126.1174
1708.312860 98.012 -126.0799
1720.692000 98.078 -126.0471
1733.160843 98.144 -126.0187
1745.720041 98.212 -125.9933
1758.370248 98.280 -125.9704
1771.112124 98.348 -125.9505
1783.946332 98.417 -125.9340
1796.873543 98.486 -125.9205
1809.894429 98.556 -125.9101
1823.009670 98.626 -125.9039
1836.219950 98.697 -125.9017
1849.525956 98.769 -125.9041
1862.928384 98.841 -125.9119
1876.427931 98.914 -125.9247
1890.025301 98.987 -125.9422
1903.721204 99.060 -125.9639
1917.516352 99.135 -125.9898
1931.411466 99.209 -126.0203
1945.407270 99.285 -126.0567
1959.504493 99.361 -126.0995
1973.703870 99.437 -126.1489
1988.006142 99.514 -126.2049
2002.412054 99.592 -126.2678
2016.922357 99.670 -126.3377
2031.537808 99.749 -126.4148
2046.259169 99.828 -126.4992
2061.087206 99.908 -126.5910
2076.022694 99.988 -126.6902
2091.066410 100.068 -126.7968
2106.219139 100.149 -126.9116
2121.481671 100.230 -127.0358
2136.854802 100.312 -127.1700
2152.339333 100.394 -127.3140
2167.936071 100.477 -127.4677
2183.645829 100.560 -127.6310
2199.469427 100.643 -127.8047
2215.407689 100.726 -127.9893
2231.461446 100.810 -128.1852
2247.631536 100.893 -128.3924
2263.918800 100.977 -128.6115
2280.324089 101.060 -128.8429
2296.848258 101.144 -129.0874
2313.492167 101.228 -129.3455
2330.256685 101.311 -129.6174
2347.142685 101.395 -129.9028
2364.151049 101.478 -130.2014
2381.282662 101.560 -130.5130
2398.538418 101.642 -130.8380
2415.919216 101.723 -131.1776
2433.425962 101.804 -131.5324
2451.059570 101.883 -131.9023
2468.820958 101.962 -132.2871
2486.711052 102.040 -132.6867
2504.730786 102.117 -133.1012
2522.881098 102.193 -133.5311
2541.162934 102.267 -133.9762
2559.577248 102.340 -134.4356
2578.125000 102.411 -134.9091
2596.807157 102.480 -135.3967
2615.624692 102.548 -135.8980
2634.578586 102.613 -136.4126
2653.669829 102.676 -136.9403
2672.899414 102.738 -137.4807
2692.268345 102.797 -138.0332
2711.777632 102.853 -138.5968
2731.428290 102.907 -139.1714
2751.221345 102.958 -139.7563
2771.157829 103.006 -140.3507
2791.238781 103.051 -140.9532
2811.465248 103.094 -141.5631
2831.838284 103.133 -142.1799
2852.358952 103.170 -142.8029
2873.028321 103.203 -143.4313
2893.847468 103.234 -144.0638
2914.817480 103.261 -144.6997
2935.939449 103.284 -145.3372
2957.214476 103.304 -145.9747
2978.643672 103.321 -146.6113
3000.228152 103.334 -147.2459
3021.969041 103.344 -147.8770
3043.867475 103.351 -148.5035
3065.924593 103.354 -149.1240
3088.141547 103.354 -149.7372
3110.519493 103.351 -150.3411
3133.059600 103.345 -150.9333
3155.763041 103.336 -151.5121
3178.631001 103.323 -152.0753
3201.664672 103.308 -152.6214
3224.865254 103.292 -153.1486
3248.233957 103.273 -153.6561
3271.771999 103.254 -154.1435
3295.480608 103.235 -154.6119
3319.361019 103.216 -155.0639
3343.414477 103.197 -155.5033
3367.642236 103.179 -155.9346
3392.045560 103.162 -156.3628
3416.625721 103.144 -156.7902
3441.383999 103.126 -157.2171
3466.321686 103.107 -157.6424
3491.440082 103.087 -158.0637
3516.740496 103.067 -158.4801
3542.224247 103.046 -158.8913
3567.892664 103.025 -159.2988
3593.747085 103.004 -159.7056
3619.788858 102.982 -160.1146
3646.019340 102.959 -160.5272
3672.439900 102.934 -160.9424
3699.051913 102.907 -161.3577
3725.856768 102.878 -161.7692
3752.855862 102.847 -162.1735
3780.050603 102.814 -162.5685
3807.442408 102.780 -162.9530
3835.032705 102.746 -163.3268
3862.822933 102.711 -163.6904
3890.814540 102.675 -164.0447
3919.008986 102.639 -164.3915
3947.407741 102.602 -164.7326
3976.012284 102.565 -165.0691
4004.824108 102.528 -165.4017
4033.844715 102.491 -165.7306
4063.075616 102.454 -166.0559
4092.518337 102.416 -166.3773
4122.174412 102.378 -166.6948
4152.045387 102.339 -167.0089
4182.132820 102.300 -167.3207
4212.438278 102.260 -167.6322
4242.963342 102.221 -167.9442
4273.709604 102.181 -168.2569
4304.678665 102.140 -168.5710
4335.872141 102.099 -168.8868
4367.291658 102.058 -169.2049
4398.938854 102.015 -169.5261
4430.815378 101.972 -169.8508
4462.922893 101.927 -170.1796
4495.263072 101.881 -170.5126
4527.837601 101.833 -170.8497
4560.648179 101.784 -171.1904
4593.696515 101.733 -171.5347
4626.984334 101.679 -171.8825
4660.513370 101.624 -172.2327
4694.285371 101.567 -172.5843
4728.302098 101.507 -172.9373
4762.565324 101.444 -173.2915
4797.076835 101.379 -173.6467
4831.838432 101.311 -174.0025
4866.851925 101.239 -174.3591
4902.119140 101.165 -174.7166
4937.641916 101.086 -175.0745
4973.422105 101.004 -175.4313
5009.461572 100.916 -175.7840
5045.762195 100.823 -176.1282
5082.325868 100.725 -176.4592
5119.154496 100.620 -176.7718
5156.250000 100.509 -177.0600
5193.614313 100.392 -177.3173
5231.249383 100.270 -177.5381
5269.157173 100.144 -177.7168
5307.339658 100.013 -177.8481
5345.798829 99.879 -177.9285
5384.536691 99.742 -177.9557
5423.555263 99.603 -177.9276
5462.856580 99.463 -177.8427
5502.442691 99.322 -177.6994
5542.315659 99.182 -177.4973
5582.477563 99.043 -177.2372
5622.930497 98.906 -176.9203
5663.676569 98.772 -176.5469
5704.717904 98.641 -176.1164
5746.056642 98.514 -175.6287
5787.694937 98.392 -175.0850
5829.634960 98.277 -174.4885
5871.878898 98.168 -173.8454
5914.428953 98.068 -173.1635
5957.287343 97.975 -172.4497
6000.456303 97.891 -171.7091
6043.938083 97.815 -170.9472
6087.734950 97.747 -170.1681
6131.849187 97.687 -169.3759
6176.283094 97.634 -168.5739
6221.038987 97.590 -167.7647
6266.119200 97.552 -166.9487
6311.526083 97.522 -166.1263
6357.262002 97.499 -165.2980
6403.329344 97.483 -164.4651
6449.730508 97.475 -163.6295
6496.467914 97.474 -162.7926
6543.543998 97.481 -161.9552
6590.961215 97.496 -161.1180
6638.722037 97.520 -160.2818
6686.828954 97.553 -159.4475
6735.284473 97.596 -158.6166
6784.091120 97.648 -157.7917
6833.251441 97.711 -156.9770
6882.767998 97.786 -156.1772
6932.643372 97.873 -155.3977
6982.880164 97.974 -154.6430
7033.480992 98.088 -153.9185
7084.448495 98.217 -153.2312
7135.785329 98.361 -152.5911
7187.494171 98.523 -152.0108
7239.577717 98.702 -151.5055
7292.038681 98.900 -151.0933
7344.879799 99.117 -150.7948
7398.103826 99.353 -150.6317
7451.713536 99.607 -150.6272
7505.711724 99.878 -150.8057
7560.101205 100.167 -151.1943
7614.884815 100.470 -151.8258
7670.065409 100.787 -152.7392
7725.645865 101.112 -153.9778
7781.629080 101.438 -155.5841
7838.017972 101.756 -157.5955
7894.815481 102.055 -160.0381
7952.024569 102.320 -162.9209
8009.648217 102.538 -166.2297
8067.689429 102.692 -169.9220
8126.151233 102.768 -173.9244
8185.036674 102.754 -178.1341
8244.348824 102.643 177.5746
8304.090774 102.432 173.3372
8364.265639 102.127 169.2874
8424.876556 101.735 165.5421
8485.926684 101.271 162.1922
8547.419207 100.750 159.2966
8609.357330 100.190 156.8819
8671.744282 99.604 154.9487
8734.583316 99.006 153.4761
8797.877707 98.407 152.4309
8861.630756 97.814 151.7739
8925.845785 97.234 151.4644
8990.526143 96.670 151.4614
9055.675202 96.127 151.7229
9121.296357 95.605 152.2097
9187.393031 95.106 152.8892
9253.968668 94.627 153.7376
9321.026740 94.169 154.7400
9388.570742 93.730 155.8854
9456.604196 93.311 157.1636
9525.130648 92.913 158.5618
9594.153671 92.536 160.0652
9663.676863 92.180 161.6591
9733.703850 91.844 163.3315
9804.238280 91.528 165.0728
9875.283832 91.232 166.8763
9946.844210 90.954 168.7368
10018.923143 90.696 170.6490
10091.524390 90.455 172.6068
10164.651736 90.233 174.6045
10238.308993 90.028 176.6387
10312.500000 89.843 178.7031
10387.228626 89.678 -179.2076
10462.498767 89.535 -177.0978
10538.314345 89.414 -174.9735
10614.679315 89.313 -172.8383
10691.597657 89.230 -170.6955
10769.073381 89.165 -168.5503
10847.110526 89.119 -166.4084
10925.713161 89.096 -164.2790
11004.885382 89.097 -162.1706
11084.631318 89.122 -160.0916
11164.955126 89.172 -158.0505
11245.860993 89.249 -156.0560
11327.353138 89.351 -154.1160
11409.435808 89.483 -152.2418
11492.113283 89.644 -150.4515
11575.389873 89.838 -148.7694
11659.269920 90.064 -147.2227
11743.757796 90.322 -145.8358
11828.857906 90.613 -144.6392
11914.574686 90.938 -143.6782
12000.912606 91.297 -143.0111
12087.876166 91.688 -142.7087
12175.469900 92.108 -142.8569
12263.698373 92.547 -143.5587
12352.566187 92.989 -144.9265
12442.077974 93.406 -147.0659
12532.238400 93.757 -150.0419
12623.052165 93.989 -153.8206
12714.524005 94.034 -158.1816
12806.658687 93.830 -162.5998
12899.461015 93.342 -166.1068
12992.935827 92.635 -167.2268
13087.087996 91.970 -164.4396
13181.922430 91.805 -158.0894
13277.444074 92.382 -152.0227
13373.657907 93.395 -149.9833
13470.568945 94.389 -152.2184
13568.182241 95.116 -157.2036
13666.502883 95.515 -163.4384
13765.535996 95.610 -169.8676
13865.286744 95.467 -175.8487
13965.760328 95.157 178.9454
14066.961984 94.747 174.6205
14168.896989 94.290 171.1427
14271.570658 93.827 168.4035
14374.988342 93.385 166.2646
14479.155433 92.979 164.5829
14584.077362 92.619 163.2246
14689.759598 92.310 162.0725
14796.207652 92.052 161.0264
14903.427072 91.844 159.9996
15011.423448 91.684 158.9149
15120.202410 91.570 157.7004
15229.769630 91.497 156.2878
15340.130819 91.461 154.6094
15451.291730 91.454 152.6019
15563.258160 91.466 150.2070
15676.035944 91.486 147.3757
15789.630962 91.500 144.0741
15904.049137 91.490 140.2900
16019.296433 91.438 136.0424
16135.378859 91.328 131.3849
16252.302465 91.145 126.4061
16370.073348 90.876 121.2214
16488.697648 90.518 115.9620
16608.181548 90.071 110.7592
16728.531278 89.542 105.7308
16849.753112 88.943 100.9695
16971.853368 88.292 96.5357
17094.838414 87.605 92.4492
17218.714660 86.902 88.7022
17343.488565 86.197 85.2664
17469.166632 85.503 82.0956
17595.755415 84.831 79.1300
17723.261512 84.186 76.3036
17851.691571 83.577 73.5458
17981.052287 83.005 70.7853
18111.350404 82.475 67.9479
18242.592715 81.985 64.9577
18374.786062 81.535 61.7345
18507.937336 81.122 58.1966
18642.053479 80.743 54.2610
18777.141484 80.390 49.8422
18913.208391 80.050 44.8528
19050.261296 79.710 39.2096
19188.307342 79.347 32.8482
19327.353727 78.936 25.7348
19467.407699 78.451 17.8840
19608.476560 77.880 9.3962
19750.567664 77.249 0.5639
19893.688419 76.668 -7.7727
20037.846286 76.322 -13.4978
