* Measurement data measured by REW V5.30.4
* Source: Headset (2- CX31993 HIFI AUDIO), MICROPHONE (Master Volume), L, volume: 0.500
* Format: 256k Log Swept Sine, 1 sweep at -12.0 dBFS with no timing reference
* Dated: 08 7, 24 4:06:01 PM
* REW Settings:
*  C-weighting compensation: Off
*  Target level: 75.0 dB
* Note: ; 
* Measurement: Moondrop Quarks2 L
* Smoothing: 1/12 octave
* Frequency Step: 96 ppo
* Start Frequency: 20.141602 Hz
*
* Freq(Hz) SPL(dB) Phase(degrees)
20.141602 102.787 149.6668
20.287556 102.771 149.6039
20.434568 102.747 149.5211
20.582645 102.717 149.4245
20.731796 102.683 149.3189
20.882027 102.646 149.2078
21.033346 102.607 149.0931
21.185762 102.568 148.9760
21.339283 102.529 148.8570
21.493916 102.489 148.7366
21.649670 102.450 148.6154
21.806553 102.412 148.4940
21.964573 102.373 148.3732
22.123737 102.335 148.2539
22.284056 102.297 148.1368
22.445536 102.259 148.0228
22.608185 102.221 147.9123
22.772013 102.184 147.8055
22.937029 102.146 147.7024
23.103241 102.108 147.6027
23.270657 102.070 147.5056
23.439285 102.033 147.4107
23.609137 101.995 147.3171
23.780218 101.956 147.2244
23.952539 101.918 147.1319
24.126110 101.879 147.0397
24.300938 101.841 146.9476
24.477032 101.802 146.8558
24.654402 101.763 146.7646
24.833057 101.725 146.6743
25.013008 101.687 146.5852
25.194263 101.649 146.4974
25.376831 101.612 146.4108
25.560722 101.576 146.3252
25.745945 101.541 146.2406
25.932510 101.505 146.1568
26.120428 101.471 146.0737
26.309708 101.436 145.9914
26.500359 101.402 145.9102
26.692390 101.367 145.8305
26.885815 101.332 145.7529
27.080641 101.296 145.6778
27.276878 101.261 145.6055
27.474539 101.224 145.5362
27.673630 101.188 145.4694
27.874165 101.151 145.4047
28.076153 101.115 145.3414
28.279604 101.079 145.2788
28.484529 101.043 145.2159
28.690941 101.008 145.1525
28.898848 100.972 145.0882
29.108261 100.937 145.0231
29.319191 100.902 144.9577
29.531651 100.868 144.8927
29.745649 100.833 144.8286
29.961199 100.799 144.7661
30.178310 100.765 144.7056
30.396996 100.731 144.6474
30.617264 100.697 144.5914
30.839128 100.663 144.5375
31.062601 100.629 144.4854
31.287693 100.595 144.4346
31.514416 100.561 144.3849
31.742783 100.527 144.3360
31.972803 100.494 144.2875
32.204491 100.460 144.2393
32.437859 100.427 144.1914
32.672916 100.393 144.1436
32.909679 100.360 144.0961
33.148155 100.327 144.0490
33.388359 100.295 144.0027
33.630306 100.262 143.9575
33.874004 100.230 143.9137
34.119469 100.198 143.8715
34.366711 100.165 143.8310
34.615746 100.134 143.7919
34.866585 100.102 143.7538
35.119244 100.070 143.7162
35.373734 100.039 143.6787
35.630066 100.008 143.6408
35.888256 99.976 143.6025
36.148315 99.945 143.5639
36.410259 99.914 143.5254
36.674103 99.882 143.4873
36.939857 99.851 143.4499
37.207539 99.820 143.4135
37.477161 99.789 143.3780
37.748737 99.759 143.3435
38.022282 99.728 143.3097
38.297806 99.698 143.2766
38.575329 99.668 143.2443
38.854862 99.638 143.2129
39.136421 99.608 143.1825
39.420021 99.578 143.1532
39.705673 99.549 143.1249
39.993397 99.519 143.0972
40.283207 99.489 143.0698
40.575115 99.459 143.0422
40.869141 99.430 143.0142
41.165295 99.400 142.9858
41.463596 99.371 142.9569
41.764057 99.341 142.9280
42.066696 99.312 142.8991
42.371529 99.282 142.8704
42.678570 99.253 142.8420
42.987835 99.224 142.8138
43.299343 99.195 142.7855
43.613110 99.166 142.7571
43.929150 99.137 142.7283
44.247478 99.108 142.6991
44.568115 99.080 142.6696
44.891075 99.051 142.6398
45.216373 99.023 142.6099
45.544029 98.994 142.5800
45.874062 98.966 142.5505
46.206486 98.938 142.5212
46.541317 98.909 142.4923
46.878574 98.881 142.4636
47.218277 98.853 142.4348
47.560440 98.826 142.4057
47.905083 98.798 142.3760
48.252224 98.770 142.3457
48.601879 98.743 142.3149
48.954067 98.715 142.2838
49.308807 98.687 142.2528
49.666119 98.660 142.2222
50.026020 98.632 142.1922
50.388531 98.604 142.1625
50.753666 98.577 142.1331
51.121449 98.550 142.1035
51.491894 98.522 142.0736
51.865025 98.495 142.0432
52.240860 98.468 142.0122
52.619419 98.440 141.9807
53.000721 98.413 141.9489
53.384785 98.386 141.9168
53.771633 98.359 141.8846
54.161285 98.332 141.8522
54.553761 98.305 141.8198
54.949081 98.278 141.7874
55.347263 98.251 141.7546
55.748333 98.224 141.7210
56.152309 98.196 141.6862
56.559212 98.169 141.6497
56.969063 98.142 141.6118
57.381886 98.115 141.5731
57.797699 98.088 141.5348
58.216526 98.061 141.4980
58.638386 98.034 141.4633
59.063305 98.008 141.4305
59.491302 97.982 141.3985
59.922401 97.955 141.3663
60.356625 97.929 141.3329
60.793995 97.903 141.2980
61.234531 97.876 141.2619
61.678261 97.849 141.2250
62.125206 97.823 141.1876
62.575390 97.796 141.1500
63.028835 97.769 141.1123
63.485569 97.742 141.0745
63.945610 97.715 141.0364
64.408989 97.688 140.9982
64.875725 97.662 140.9599
65.345840 97.635 140.9214
65.819366 97.608 140.8828
66.296318 97.581 140.8439
66.776726 97.554 140.8049
67.260620 97.527 140.7661
67.748016 97.500 140.7283
68.238945 97.473 140.6926
68.733429 97.447 140.6604
69.231499 97.421 140.6323
69.733177 97.395 140.6073
70.238495 97.369 140.5817
70.747475 97.343 140.5507
71.260139 97.317 140.5106
71.776520 97.289 140.4612
72.296638 97.261 140.4057
72.820526 97.232 140.3484
73.348213 97.203 140.2926
73.879723 97.174 140.2396
74.415085 97.145 140.1896
74.954330 97.117 140.1420
75.497482 97.089 140.0957
76.044571 97.061 140.0501
76.595619 97.032 140.0046
77.150665 97.004 139.9592
77.709732 96.976 139.9143
78.272850 96.948 139.8698
78.840050 96.919 139.8259
79.411354 96.891 139.7823
79.986801 96.862 139.7387
80.566422 96.834 139.6951
81.150238 96.806 139.6514
81.738289 96.777 139.6075
82.330597 96.748 139.5635
82.927200 96.719 139.5192
83.528122 96.691 139.4747
84.133400 96.661 139.4302
84.743065 96.632 139.3858
85.357147 96.603 139.3415
85.975677 96.574 139.2974
86.598694 96.544 139.2534
87.226227 96.514 139.2092
87.858307 96.485 139.1650
88.494965 96.455 139.1206
89.136238 96.425 139.0763
89.782158 96.395 139.0320
90.432755 96.365 138.9880
91.088066 96.334 138.9444
91.748131 96.304 138.9014
92.412979 96.273 138.8590
93.082642 96.243 138.8168
93.757156 96.212 138.7745
94.436562 96.181 138.7318
95.120888 96.151 138.6884
95.810173 96.120 138.6448
96.504456 96.089 138.6018
97.203766 96.058 138.5601
97.908142 96.027 138.5196
98.617622 95.995 138.4798
99.332245 95.963 138.4403
100.052048 95.931 138.4013
100.777069 95.899 138.3629
101.507339 95.867 138.3254
102.242905 95.835 138.2888
102.983795 95.802 138.2529
103.730057 95.770 138.2177
104.481728 95.737 138.1833
105.238846 95.704 138.1494
106.001450 95.671 138.1160
106.769577 95.638 138.0829
107.543274 95.604 138.0503
108.322578 95.571 138.0187
109.107529 95.537 137.9888
109.898170 95.503 137.9607
110.694534 95.470 137.9342
111.496674 95.436 137.9089
112.304626 95.402 137.8849
113.118431 95.367 137.8618
113.938133 95.333 137.8393
114.763779 95.298 137.8166
115.595406 95.262 137.7937
116.433060 95.226 137.7716
117.276779 95.188 137.7515
118.126617 95.149 137.7341
118.982613 95.110 137.7194
119.844810 95.072 137.7069
120.713257 95.037 137.6949
121.587997 95.004 137.6828
122.469070 94.972 137.6717
123.356529 94.939 137.6636
124.250420 94.906 137.6595
125.150787 94.872 137.6586
126.057678 94.837 137.6596
126.971146 94.802 137.6610
127.891228 94.766 137.6625
128.817978 94.729 137.6648
129.751450 94.692 137.6698
130.691681 94.655 137.6784
131.638733 94.618 137.6909
132.592636 94.581 137.7070
133.553452 94.544 137.7263
134.521240 94.507 137.7484
135.496033 94.470 137.7732
136.477890 94.433 137.8006
137.466858 94.396 137.8302
138.462997 94.359 137.8618
139.466354 94.322 137.8954
140.476990 94.286 137.9311
141.494949 94.249 137.9690
142.520279 94.213 138.0089
143.553040 94.177 138.0508
144.593277 94.140 138.0953
145.641052 94.104 138.1430
146.696426 94.068 138.1943
147.759445 94.032 138.2494
148.830170 93.996 138.3083
149.908661 93.960 138.3710
150.994965 93.925 138.4372
152.089142 93.889 138.5066
153.191238 93.854 138.5790
154.301331 93.820 138.6544
155.419464 93.785 138.7327
156.545700 93.751 138.8142
157.680099 93.717 138.8989
158.822708 93.684 138.9870
159.973602 93.651 139.0783
161.132843 93.619 139.1727
162.300476 93.586 139.2699
163.476578 93.554 139.3698
164.661194 93.523 139.4724
165.854401 93.492 139.5779
167.056244 93.461 139.6861
168.266800 93.431 139.7970
169.486130 93.402 139.9104
170.714294 93.373 140.0265
171.951355 93.345 140.1452
173.197388 93.317 140.2665
174.452454 93.289 140.3901
175.716614 93.263 140.5157
176.989929 93.237 140.6433
178.272476 93.211 140.7726
179.564316 93.187 140.9035
180.865509 93.162 141.0362
182.176132 93.139 141.1705
183.496262 93.116 141.3062
184.825958 93.093 141.4433
186.165283 93.072 141.5815
187.514313 93.051 141.7205
188.873123 93.031 141.8602
190.241776 93.012 142.0000
191.620346 92.994 142.1399
193.008911 92.976 142.2798
194.407532 92.960 142.4196
195.816284 92.944 142.5591
197.235245 92.929 142.6979
198.664490 92.914 142.8358
200.104095 92.901 142.9727
201.554138 92.888 143.1086
203.014679 92.876 143.2435
204.485809 92.864 143.3774
205.967590 92.854 143.5101
207.460114 92.844 143.6414
208.963455 92.835 143.7710
210.477692 92.826 143.8989
212.002899 92.818 144.0247
213.539154 92.811 144.1483
215.086548 92.805 144.2694
216.645157 92.799 144.3880
218.215057 92.793 144.5041
219.796341 92.789 144.6174
221.389069 92.784 144.7278
222.993347 92.781 144.8350
224.609253 92.778 144.9389
226.236862 92.775 145.0394
227.876266 92.773 145.1367
229.527557 92.772 145.2306
231.190811 92.772 145.3215
232.866119 92.772 145.4097
234.553558 92.772 145.4955
236.253235 92.773 145.5788
237.965225 92.774 145.6585
239.689621 92.776 145.7329
241.426514 92.778 145.8006
243.175995 92.779 145.8618
244.938141 92.782 145.9180
246.713058 92.784 145.9705
248.500839 92.787 146.0197
250.301575 92.790 146.0659
252.115356 92.794 146.1090
253.942291 92.797 146.1489
255.782455 92.801 146.1855
257.635956 92.805 146.2186
259.502899 92.809 146.2482
261.383362 92.814 146.2742
263.277466 92.819 146.2966
265.185272 92.823 146.3155
267.106903 92.828 146.3306
269.042480 92.833 146.3420
270.992065 92.838 146.3494
272.955780 92.843 146.3529
274.933716 92.848 146.3525
276.925995 92.854 146.3483
278.932709 92.859 146.3404
280.953979 92.865 146.3289
282.989899 92.870 146.3143
285.040558 92.876 146.2973
287.106079 92.881 146.2781
289.186554 92.886 146.2565
291.282104 92.891 146.2321
293.392853 92.895 146.2045
295.518890 92.900 146.1736
297.660339 92.904 146.1396
299.817322 92.909 146.1027
301.989929 92.913 146.0633
304.178284 92.918 146.0218
306.382477 92.922 145.9785
308.602661 92.926 145.9337
310.838928 92.930 145.8875
313.091400 92.934 145.8399
315.360199 92.938 145.7908
317.645416 92.941 145.7403
319.947205 92.944 145.6883
322.265686 92.948 145.6350
324.600952 92.951 145.5803
326.953156 92.954 145.5246
329.322388 92.957 145.4680
331.708801 92.961 145.4108
334.112488 92.964 145.3534
336.533600 92.967 145.2959
338.972260 92.971 145.2385
341.428589 92.975 145.1810
343.902710 92.979 145.1231
346.394775 92.984 145.0643
348.904907 92.989 145.0039
351.433228 92.995 144.9412
353.979858 93.001 144.8755
356.544952 93.008 144.8060
359.128632 93.015 144.7323
361.731018 93.023 144.6537
364.352264 93.031 144.5693
366.992523 93.039 144.4773
369.651917 93.048 144.3763
372.330566 93.057 144.2657
375.028625 93.066 144.1462
377.746246 93.075 144.0195
380.483551 93.083 143.8873
383.240692 93.090 143.7514
386.017822 93.096 143.6144
388.815063 93.102 143.4775
391.632568 93.106 143.3403
394.470490 93.109 143.2022
397.328979 93.112 143.0633
400.208191 93.113 142.9235
403.108276 93.114 142.7829
406.029358 93.114 142.6422
408.971619 93.113 142.5027
411.935181 93.113 142.3660
414.920227 93.113 142.2333
417.926910 93.113 142.1048
420.955383 93.115 141.9786
424.005798 93.117 141.8524
427.078308 93.118 141.7242
430.173096 93.118 141.5930
433.290314 93.117 141.4593
436.430115 93.116 141.3240
439.592682 93.115 141.1880
442.778137 93.115 141.0512
445.986694 93.114 140.9132
449.218506 93.114 140.7732
452.473724 93.114 140.6312
455.752533 93.114 140.4878
459.055115 93.114 140.3439
462.381622 93.113 140.2000
465.732239 93.112 140.0563
469.107117 93.111 139.9125
472.506470 93.110 139.7686
475.930450 93.109 139.6246
479.379242 93.108 139.4807
482.853027 93.107 139.3371
486.351990 93.106 139.1938
489.876282 93.106 139.0508
493.426117 93.105 138.9075
497.001678 93.105 138.7639
500.603149 93.104 138.6199
504.230713 93.104 138.4753
507.884583 93.104 138.3304
511.564911 93.104 138.1853
515.271912 93.104 138.0401
519.005798 93.104 137.8945
522.766724 93.105 137.7483
526.554932 93.105 137.6019
530.370544 93.105 137.4557
534.213806 93.104 137.3095
538.084961 93.103 137.1619
541.984131 93.102 137.0117
545.911560 93.101 136.8595
549.867432 93.101 136.7069
553.851990 93.101 136.5544
557.865417 93.101 136.4014
561.907959 93.101 136.2467
565.979797 93.101 136.0897
570.081116 93.102 135.9302
574.212158 93.102 135.7692
578.373108 93.102 135.6081
582.564209 93.102 135.4478
586.785706 93.102 135.2889
591.037781 93.102 135.1311
595.320679 93.101 134.9737
599.634644 93.101 134.8156
603.979858 93.101 134.6562
608.356567 93.100 134.4962
612.764954 93.100 134.3367
617.205322 93.100 134.1783
621.677856 93.099 134.0216
626.182800 93.100 133.8662
630.720398 93.100 133.7111
635.290833 93.100 133.5552
639.894409 93.101 133.3989
644.531372 93.102 133.2429
649.201904 93.103 133.0881
653.906311 93.105 132.9346
658.644775 93.107 132.7822
663.417603 93.108 132.6304
668.224976 93.110 132.4786
673.067200 93.112 132.3268
677.944519 93.114 132.1752
682.857178 93.116 132.0239
687.805420 93.118 131.8732
692.789551 93.121 131.7232
697.809814 93.124 131.5734
702.866455 93.128 131.4232
707.959717 93.131 131.2726
713.089905 93.135 131.1214
718.257263 93.139 130.9699
723.462036 93.144 130.8185
728.704529 93.148 130.6672
733.985046 93.153 130.5159
739.303833 93.158 130.3643
744.661133 93.164 130.2125
750.057251 93.170 130.0603
755.492493 93.177 129.9081
760.967102 93.184 129.7558
766.481384 93.191 129.6037
772.035645 93.200 129.4518
777.630127 93.208 129.3001
783.265137 93.217 129.1481
788.940979 93.227 128.9957
794.657959 93.237 128.8427
800.416382 93.247 128.6892
806.216553 93.258 128.5348
812.058716 93.269 128.3797
817.943237 93.280 128.2236
823.870361 93.293 128.0664
829.840454 93.305 127.9080
835.853821 93.318 127.7480
841.910767 93.332 127.5863
848.011597 93.346 127.4227
854.156616 93.361 127.2572
860.346191 93.376 127.0897
866.580627 93.391 126.9201
872.860229 93.408 126.7484
879.185364 93.424 126.5743
885.556274 93.441 126.3977
891.973389 93.459 126.2182
898.437012 93.477 126.0356
904.947449 93.496 125.8496
911.505066 93.515 125.6596
918.110229 93.536 125.4637
924.763245 93.557 125.2579
931.464478 93.579 125.0364
938.214233 93.601 124.7931
945.012939 93.623 124.5229
951.860901 93.644 124.2223
958.758484 93.665 123.8898
965.706055 93.684 123.5256
972.703979 93.702 123.1313
979.752563 93.720 122.7108
986.852234 93.737 122.2694
994.003357 93.756 121.8131
1001.206299 93.775 121.3478
1008.461426 93.795 120.8775
1015.769165 93.814 120.4046
1023.129822 93.835 119.9304
1030.543823 93.855 119.4561
1038.011597 93.876 118.9825
1045.533447 93.897 118.5105
1053.109863 93.919 118.0406
1060.741089 93.942 117.5734
1068.427612 93.966 117.1094
1076.169922 93.991 116.6490
1083.968262 94.017 116.1923
1091.823120 94.045 115.7393
1099.734863 94.075 115.2896
1107.703979 94.108 114.8422
1115.730835 94.142 114.3963
1123.815918 94.180 113.9504
1131.959595 94.220 113.5031
1140.162231 94.264 113.0525
1148.424316 94.311 112.5965
1156.746216 94.361 112.1327
1165.128418 94.415 111.6586
1173.571411 94.473 111.1714
1182.075562 94.534 110.6688
1190.641357 94.599 110.1481
1199.269287 94.667 109.6068
1207.959717 94.738 109.0425
1216.713135 94.812 108.4529
1225.529907 94.888 107.8360
1234.410645 94.967 107.1904
1243.355713 95.048 106.5148
1252.365601 95.131 105.8086
1261.440796 95.214 105.0709
1270.581665 95.299 104.3015
1279.788818 95.384 103.5004
1289.062744 95.470 102.6678
1298.403809 95.555 101.8043
1307.812622 95.641 100.9107
1317.289551 95.725 99.9878
1326.835205 95.810 99.0367
1336.449951 95.893 98.0584
1346.134399 95.975 97.0541
1355.889038 96.056 96.0249
1365.714355 96.135 94.9722
1375.610840 96.214 93.8972
1385.579102 96.290 92.8011
1395.619629 96.366 91.6852
1405.732910 96.439 90.5504
1415.919434 96.512 89.3977
1426.179810 96.582 88.2280
1436.514526 96.652 87.0424
1446.924072 96.720 85.8415
1457.409058 96.787 84.6259
1467.970093 96.853 83.3964
1478.607666 96.917 82.1533
1489.322266 96.980 80.8972
1500.114502 97.042 79.6286
1510.984985 97.103 78.3480
1521.934204 97.163 77.0558
1532.962769 97.222 75.7523
1544.071289 97.279 74.4375
1555.260254 97.337 73.1118
1566.530273 97.393 71.7750
1577.881958 97.448 70.4274
1589.315918 97.503 69.0690
1600.832764 97.558 67.6999
1612.433105 97.611 66.3200
1624.117432 97.665 64.9295
1635.886475 97.717 63.5281
1647.740723 97.770 62.1160
1659.680908 97.822 60.6928
1671.707642 97.874 59.2584
1683.821533 97.926 57.8125
1696.023193 97.977 56.3550
1708.313232 98.029 54.8858
1720.692383 98.080 53.4049
1733.161255 98.132 51.9123
1745.720459 98.183 50.4076
1758.370728 98.234 48.8906
1771.112549 98.285 47.3610
1783.946777 98.337 45.8183
1796.874023 98.388 44.2624
1809.894897 98.439 42.6929
1823.010132 98.491 41.1099
1836.220459 98.543 39.5130
1849.526489 98.594 37.9022
1862.928955 98.646 36.2771
1876.428467 98.698 34.6376
1890.025879 98.750 32.9833
1903.721802 98.803 31.3140
1917.516968 98.855 29.6293
1931.412109 98.908 27.9290
1945.407959 98.961 26.2126
1959.505127 99.014 24.4800
1973.704468 99.068 22.7306
1988.006714 99.122 20.9643
2002.412598 99.176 19.1807
2016.922852 99.230 17.3795
2031.538330 99.285 15.5605
2046.259644 99.340 13.7233
2061.087646 99.395 11.8678
2076.023193 99.450 9.9935
2091.066895 99.506 8.1001
2106.219727 99.562 6.1872
2121.482178 99.618 4.2545
2136.855225 99.674 2.3018
2152.339844 99.731 0.3287
2167.936523 99.787 -1.6651
2183.646240 99.844 -3.6801
2199.469727 99.901 -5.7166
2215.407959 99.959 -7.7751
2231.461670 100.016 -9.8558
2247.631836 100.074 -11.9591
2263.919189 100.132 -14.0853
2280.324463 100.190 -16.2347
2296.848633 100.248 -18.4078
2313.492432 100.306 -20.6048
2330.256836 100.364 -22.8262
2347.142822 100.423 -25.0721
2364.151123 100.481 -27.3429
2381.282715 100.539 -29.6389
2398.538574 100.598 -31.9604
2415.919434 100.656 -34.3078
2433.426270 100.715 -36.6814
2451.059814 100.773 -39.0819
2468.821289 100.831 -41.5098
2486.711426 100.889 -43.9658
2504.731201 100.947 -46.4508
2522.881592 101.005 -48.9656
2541.163330 101.063 -51.5113
2559.577637 101.120 -54.0888
2578.125488 101.177 -56.6989
2596.807617 101.233 -59.3423
2615.625244 101.288 -62.0195
2634.579102 101.342 -64.7308
2653.670410 101.395 -67.4762
2672.899902 101.446 -70.2554
2692.268799 101.496 -73.0681
2711.778076 101.544 -75.9137
2731.428711 101.590 -78.7918
2751.221680 101.634 -81.7017
2771.158203 101.675 -84.6429
2791.239258 101.715 -87.6149
2811.465820 101.752 -90.6172
2831.838867 101.788 -93.6493
2852.359619 101.820 -96.7110
2873.029053 101.850 -99.8019
2893.848145 101.878 -102.9215
2914.818115 101.903 -106.0694
2935.940186 101.925 -109.2449
2957.215332 101.944 -112.4475
2978.644531 101.961 -115.6763
3000.229004 101.974 -118.9303
3021.969971 101.984 -122.2087
3043.868408 101.991 -125.5103
3065.925537 101.995 -128.8340
3088.142578 101.996 -132.1787
3110.520508 101.994 -135.5433
3133.060547 101.989 -138.9268
3155.763916 101.981 -142.3280
3178.631836 101.970 -145.7460
3201.665527 101.957 -149.1801
3224.866211 101.940 -152.6293
3248.234863 101.922 -156.0932
3271.772949 101.901 -159.5712
3295.481445 101.878 -163.0628
3319.361816 101.852 -166.5677
3343.415283 101.825 -170.0857
3367.643066 101.796 -173.6164
3392.046387 101.765 -177.1597
3416.626465 101.733 179.2842
3441.384766 101.700 175.7156
3466.322510 101.665 172.1340
3491.440918 101.630 168.5392
3516.741455 101.593 164.9312
3542.225098 101.555 161.3094
3567.893555 101.517 157.6736
3593.748047 101.479 154.0232
3619.789795 101.440 150.3577
3646.020264 101.401 146.6764
3672.440918 101.362 142.9784
3699.052979 101.323 139.2628
3725.857910 101.285 135.5287
3752.856934 101.246 131.7753
3780.051758 101.208 128.0013
3807.443604 101.171 124.2060
3835.033936 101.134 120.3879
3862.824219 101.097 116.5458
3890.815918 101.062 112.6782
3919.010254 101.027 108.7834
3947.408936 100.993 104.8597
3976.013428 100.960 100.9053
4004.825195 100.928 96.9184
4033.845703 100.896 92.8972
4063.076660 100.864 88.8400
4092.519287 100.833 84.7453
4122.175293 100.802 80.6120
4152.046387 100.771 76.4395
4182.133789 100.739 72.2274
4212.439453 100.706 67.9759
4242.964355 100.673 63.6851
4273.710449 100.639 59.3550
4304.679688 100.604 54.9853
4335.873047 100.568 50.5753
4367.292480 100.532 46.1243
4398.939453 100.494 41.6312
4430.815918 100.455 37.0948
4462.923340 100.414 32.5143
4495.263672 100.371 27.8892
4527.838379 100.327 23.2197
4560.648926 100.280 18.5067
4593.697266 100.230 13.7512
4626.984863 100.177 8.9547
4660.513672 100.120 4.1187
4694.285645 100.061 -0.7552
4728.302246 99.998 -5.6657
4762.565430 99.932 -10.6117
4797.077148 99.863 -15.5923
4831.838867 99.790 -20.6064
4866.852539 99.714 -25.6537
4902.119629 99.635 -30.7335
4937.642578 99.552 -35.8453
4973.422852 99.466 -40.9885
5009.462402 99.377 -46.1620
5045.763184 99.284 -51.3650
5082.326660 99.187 -56.5962
5119.155273 99.087 -61.8546
5156.250977 98.983 -67.1391
5193.615234 98.875 -72.4486
5231.250488 98.764 -77.7819
5269.158203 98.650 -83.1376
5307.340820 98.531 -88.5143
5345.799805 98.410 -93.9102
5384.537598 98.285 -99.3237
5423.556152 98.157 -104.7531
5462.857422 98.025 -110.1966
5502.443359 97.891 -115.6530
5542.316406 97.755 -121.1213
5582.478516 97.616 -126.6008
5622.931641 97.475 -132.0909
5663.677734 97.332 -137.5914
5704.719238 97.187 -143.1020
5746.058105 97.040 -148.6215
5787.696289 96.892 -154.1486
5829.636230 96.743 -159.6816
5871.880371 96.592 -165.2181
5914.430664 96.441 -170.7558
5957.289062 96.289 -176.2921
6000.458008 96.138 178.1747
6043.939941 95.987 172.6458
6087.736816 95.838 167.1216
6131.851074 95.691 161.6016
6176.285156 95.547 156.0849
6221.041016 95.406 150.5699
6266.121094 95.269 145.0547
6311.527832 95.137 139.5374
6357.263672 95.009 134.0165
6403.331055 94.887 128.4912
6449.732422 94.771 122.9612
6496.469727 94.662 117.4266
6543.545898 94.559 111.8875
6590.962891 94.465 106.3436
6638.723633 94.379 100.7935
6686.830566 94.304 95.2350
6735.286133 94.240 89.6644
6784.092773 94.189 84.0764
6833.252930 94.152 78.4636
6882.769531 94.131 72.8174
6932.645020 94.126 67.1270
6982.881836 94.139 61.3794
7033.482910 94.170 55.5599
7084.450195 94.221 49.6519
7135.787109 94.291 43.6368
7187.496094 94.380 37.4954
7239.579590 94.487 31.2078
7292.040527 94.611 24.7555
7344.881836 94.750 18.1218
7398.105957 94.903 11.2925
7451.715820 95.066 4.2562
7505.713867 95.238 -2.9949
7560.103516 95.415 -10.4672
7614.887207 95.596 -18.1639
7670.067871 95.779 -26.0879
7725.648438 95.961 -34.2411
7781.631836 96.141 -42.6266
7838.020508 96.317 -51.2482
7894.817871 96.488 -60.1118
7952.026855 96.650 -69.2241
8009.650391 96.802 -78.5928
8067.691406 96.940 -88.2247
8126.153320 97.059 -98.1228
8185.038574 97.153 -108.2849
8244.350586 97.218 -118.7008
8304.092773 97.247 -129.3508
8364.267578 97.234 -140.2048
8424.878906 97.176 -151.2230
8485.928711 97.067 -162.3573
8547.420898 96.908 -173.5546
8609.359375 96.697 175.2400
8671.746094 96.436 164.0793
8734.584961 96.130 153.0110
8797.878906 95.783 142.0750
8861.631836 95.402 131.3008
8925.846680 94.992 120.7090
8990.527344 94.561 110.3093
9055.676758 94.114 100.1033
9121.297852 93.658 90.0853
9187.394531 93.197 80.2440
9253.969727 92.736 70.5640
9321.027344 92.278 61.0270
9388.571289 91.827 51.6144
9456.604492 91.384 42.3070
9525.130859 90.952 33.0858
9594.154297 90.531 23.9333
9663.677734 90.121 14.8340
9733.705078 89.724 5.7731
9804.239258 89.339 -3.2621
9875.285156 88.966 -12.2823
9946.845703 88.605 -21.2974
10018.924805 88.255 -30.3148
10091.526367 87.916 -39.3419
10164.653320 87.587 -48.3849
10238.310547 87.270 -57.4497
10312.501953 86.963 -66.5411
10387.230469 86.666 -75.6638
10462.500977 86.381 -84.8209
10538.316406 86.105 -94.0159
10614.681641 85.840 -103.2518
10691.599609 85.584 -112.5319
10769.075195 85.339 -121.8591
10847.112305 85.103 -131.2365
10925.714844 84.876 -140.6666
11004.886719 84.660 -150.1526
11084.632812 84.453 -159.6962
11164.957031 84.255 -169.2999
11245.863281 84.067 -178.9656
11327.355469 83.889 171.3057
11409.438477 83.720 161.5120
11492.116211 83.560 151.6532
11575.392578 83.410 141.7281
11659.272461 83.270 131.7372
11743.760742 83.139 121.6798
11828.861328 83.018 111.5558
11914.578125 82.907 101.3656
12000.916016 82.807 91.1088
12087.879883 82.718 80.7853
12175.473633 82.639 70.3954
12263.702148 82.573 59.9399
12352.570312 82.518 49.4199
12442.082031 82.476 38.8368
12532.242188 82.449 28.1924
12623.055664 82.437 17.4885
12714.527344 82.441 6.7269
12806.662109 82.465 -4.0925
12899.464844 82.509 -14.9711
12992.939453 82.578 -25.9136
13087.091797 82.673 -36.9292
13181.925781 82.799 -48.0325
13277.447266 82.957 -59.2456
13373.661133 83.151 -70.5978
13470.572266 83.383 -82.1260
13568.185547 83.651 -93.8715
13666.505859 83.956 -105.8782
13765.539062 84.294 -118.1862
13865.290039 84.661 -130.8284
13965.763672 85.054 -143.8268
14066.965820 85.467 -157.1925
14168.900391 85.898 -170.9283
14271.574219 86.344 174.9664
14374.992188 86.805 160.4913
14479.159180 87.281 145.6412
14584.081055 87.770 130.4030
14689.763672 88.273 114.7563
14796.211914 88.786 98.6736
14903.431641 89.307 82.1221
15011.427734 89.830 65.0681
15120.207031 90.348 47.4769
15229.774414 90.851 29.3218
15340.135742 91.327 10.5864
15451.296875 91.765 -8.7280
15563.263672 92.149 -28.6007
15676.041016 92.467 -48.9874
15789.635742 92.706 -69.8206
15904.053711 92.855 -91.0105
16019.300781 92.910 -112.4512
16135.382812 92.867 -134.0283
16252.306641 92.728 -155.6260
16370.077148 92.501 -177.1367
16488.701172 92.197 161.5310
16608.185547 91.828 140.4460
16728.535156 91.410 119.6533
16849.757812 90.959 99.1733
16971.857422 90.491 79.0017
17094.841797 90.021 59.1162
17218.718750 89.561 39.4756
17343.492188 89.123 20.0273
17469.169922 88.716 0.7092
17595.757812 88.348 -18.5474
17723.263672 88.022 -37.8157
17851.693359 87.742 -57.1711
17981.054688 87.509 -76.6914
18111.353516 87.320 -96.4534
18242.595703 87.170 -116.5305
18374.789062 87.054 -136.9917
18507.939453 86.960 -157.8955
18642.054688 86.876 -179.2893
18777.142578 86.787 158.8005
18913.208984 86.675 136.3687
19050.261719 86.526 113.4368
19188.308594 86.326 90.0579
19327.355469 86.066 66.3225
19467.410156 85.749 42.3623
19608.478516 85.394 18.3665
19750.570312 85.040 -5.4019
19893.691406 84.746 -28.6021
20037.849609 0.000 -50.8627
