* Measurement data measured by REW V5.31.3
* Source: Headset (2- CX31993 HIFI AUDIO), MICROPHONE (Master Volume), R, volume: 0.250
* Format: 256k Log Swept Sine, 1 sweep at -12.0 dBFS with no timing reference
* Dated: 11 9, 24 11:52:05 AM
* REW Settings:
*  C-weighting compensation: Off
*  Target level: 75.0 dB
* Note: ; 
* Measurement: Moondrop Kadenz KATO S R
* Smoothing: 1/12 octave
* Frequency Step: 96 ppo
* Start Frequency: 0.36621094 Hz
*
* Freq(Hz) SPL(dB) Phase(degrees)
0.366211 44.173 22.2518
0.368865 44.197 22.2605
0.371538 44.234 22.2738
0.374230 44.279 22.2908
0.376942 44.329 22.3108
0.379673 44.383 22.3332
0.382424 44.440 22.3579
0.385196 44.498 22.3844
0.387987 44.556 22.4127
0.390798 44.616 22.4427
0.393630 44.676 22.4744
0.396483 44.737 22.5076
0.399356 44.798 22.5422
0.402250 44.859 22.5784
0.405165 44.921 22.6160
0.408101 44.984 22.6550
0.411058 45.046 22.6953
0.414037 45.110 22.7368
0.417037 45.174 22.7797
0.420059 45.238 22.8237
0.423103 45.303 22.8688
0.426169 45.368 22.9150
0.429257 45.433 22.9623
0.432368 45.500 23.0105
0.435501 45.566 23.0597
0.438656 45.633 23.1097
0.441835 45.701 23.1605
0.445037 45.769 23.2120
0.448262 45.838 23.2642
0.451510 45.907 23.3170
0.454782 45.976 23.3703
0.458077 46.046 23.4241
0.461397 46.117 23.4784
0.464740 46.188 23.5329
0.468108 46.260 23.5877
0.471500 46.332 23.6427
0.474917 46.405 23.6978
0.478358 46.478 23.7529
0.481825 46.552 23.8080
0.485316 46.626 23.8630
0.488833 46.701 23.9178
0.492375 46.776 23.9723
0.495943 46.852 24.0264
0.499537 46.928 24.0801
0.503157 47.005 24.1333
0.506803 47.083 24.1859
0.510475 47.161 24.2378
0.514175 47.240 24.2889
0.517900 47.319 24.3392
0.521653 47.399 24.3886
0.525434 47.479 24.4369
0.529241 47.560 24.4841
0.533076 47.642 24.5301
0.536939 47.724 24.5748
0.540830 47.807 24.6182
0.544749 47.890 24.6601
0.548696 47.974 24.7004
0.552673 48.059 24.7392
0.556677 48.144 24.7762
0.560711 48.230 24.8114
0.564774 48.316 24.8447
0.568867 48.403 24.8760
0.572989 48.491 24.9053
0.577141 48.579 24.9324
0.581324 48.668 24.9574
0.585536 48.758 24.9799
0.589779 48.848 25.0001
0.594053 48.939 25.0179
0.598358 49.030 25.0330
0.602694 49.123 25.0455
0.607061 49.216 25.0553
0.611460 49.309 25.0623
0.615891 49.404 25.0664
0.620354 49.498 25.0675
0.624849 49.594 25.0657
0.629377 49.690 25.0607
0.633938 49.787 25.0525
0.638532 49.885 25.0411
0.643159 49.984 25.0264
0.647819 50.083 25.0082
0.652514 50.183 24.9867
0.657242 50.283 24.9616
0.662005 50.385 24.9329
0.666802 50.487 24.9006
0.671634 50.590 24.8645
0.676501 50.693 24.8247
0.681403 50.797 24.7811
0.686341 50.902 24.7337
0.691314 51.008 24.6823
0.696324 51.115 24.6270
0.701370 51.222 24.5678
0.706452 51.330 24.5047
0.711571 51.438 24.4379
0.716728 51.547 24.3676
0.721921 51.656 24.2943
0.727153 51.765 24.2184
0.732422 51.874 24.1409
0.737729 51.982 24.0628
0.743075 52.091 23.9850
0.748460 52.199 23.9081
0.753883 52.307 23.8327
0.759346 52.416 23.7590
0.764849 52.525 23.6871
0.770391 52.635 23.6168
0.775974 52.745 23.5481
0.781597 52.856 23.4808
0.787261 52.968 23.4147
0.792966 53.080 23.3496
0.798712 53.192 23.2853
0.804500 53.306 23.2216
0.810329 53.420 23.1582
0.816201 53.535 23.0950
0.822116 53.650 23.0318
0.828073 53.766 22.9682
0.834074 53.882 22.9043
0.840118 53.999 22.8396
0.846206 54.117 22.7742
0.852338 54.235 22.7076
0.858514 54.354 22.6398
0.864735 54.473 22.5706
0.871001 54.593 22.4997
0.877313 54.714 22.4270
0.883670 54.835 22.3524
0.890074 54.956 22.2755
0.896524 55.078 22.1963
0.903020 55.201 22.1145
0.909564 55.324 22.0300
0.916155 55.448 21.9427
0.922794 55.572 21.8522
0.929481 55.697 21.7586
0.936216 55.822 21.6616
0.943000 55.948 21.5610
0.949834 56.074 21.4567
0.956717 56.201 21.3486
0.963649 56.328 21.2364
0.970632 56.455 21.1201
0.977666 56.583 20.9995
0.984750 56.712 20.8744
0.991886 56.840 20.7447
0.999074 56.970 20.6102
1.006314 57.099 20.4708
1.013606 57.229 20.3264
1.020951 57.359 20.1769
1.028349 57.490 20.0221
1.035801 57.620 19.8618
1.043307 57.752 19.6961
1.050867 57.883 19.5248
1.058482 58.015 19.3480
1.066152 58.146 19.1656
1.073878 58.279 18.9778
1.081660 58.411 18.7850
1.089498 58.543 18.5879
1.097393 58.676 18.3872
1.105345 58.809 18.1840
1.113355 58.942 17.9792
1.121423 59.075 17.7739
1.129549 59.209 17.5685
1.137734 59.342 17.3634
1.145979 59.476 17.1587
1.154283 59.610 16.9543
1.162647 59.745 16.7502
1.171072 59.879 16.5462
1.179558 60.014 16.3421
1.188106 60.149 16.1379
1.196715 60.284 15.9331
1.205387 60.419 15.7278
1.214122 60.554 15.5216
1.222920 60.690 15.3144
1.231782 60.826 15.1059
1.240708 60.962 14.8960
1.249699 61.098 14.6845
1.258754 61.234 14.4711
1.267876 61.371 14.2558
1.277063 61.508 14.0382
1.286318 61.645 13.8182
1.295639 61.782 13.5956
1.305027 61.919 13.3702
1.314484 62.056 13.1419
1.324009 62.194 12.9103
1.333604 62.332 12.6754
1.343268 62.470 12.4370
1.353002 62.608 12.1948
1.362806 62.747 11.9487
1.372681 62.885 11.6985
1.382628 63.024 11.4440
1.392647 63.163 11.1851
1.402739 63.303 10.9217
1.412904 63.442 10.6536
1.423142 63.582 10.3808
1.433455 63.722 10.1036
1.443843 63.861 9.8221
1.454305 64.002 9.5370
1.464844 64.142 9.2489
1.475459 64.282 8.9588
1.486150 64.422 8.6676
1.496920 64.562 8.3759
1.507767 64.703 8.0842
1.518693 64.842 7.7926
1.529698 64.982 7.5011
1.540783 65.122 7.2096
1.551948 65.262 6.9177
1.563194 65.401 6.6253
1.574521 65.540 6.3321
1.585931 65.679 6.0377
1.597423 65.819 5.7418
1.608999 65.958 5.4442
1.620658 66.096 5.1444
1.632402 66.235 4.8423
1.644232 66.374 4.5374
1.656146 66.513 4.2295
1.668147 66.651 3.9183
1.680235 66.790 3.6034
1.692411 66.928 3.2845
1.704675 67.066 2.9613
1.717028 67.205 2.6335
1.729470 67.343 2.3008
1.742003 67.482 1.9629
1.754626 67.620 1.6196
1.767341 67.759 1.2706
1.780147 67.897 0.9157
1.793047 68.035 0.5550
1.806040 68.174 0.1884
1.819128 68.312 -0.1837
1.832310 68.451 -0.5609
1.845587 68.589 -0.9424
1.858961 68.727 -1.3277
1.872432 68.864 -1.7160
1.886001 69.001 -2.1070
1.899667 69.138 -2.5003
1.913433 69.275 -2.8958
1.927299 69.411 -3.2933
1.941265 69.547 -3.6928
1.955332 69.682 -4.0943
1.969501 69.817 -4.4978
1.983773 69.952 -4.9034
1.998148 70.087 -5.3112
2.012627 70.221 -5.7212
2.027212 70.354 -6.1335
2.041902 70.488 -6.5483
2.056698 70.621 -6.9658
2.071602 70.755 -7.3860
2.086614 70.887 -7.8091
2.101734 71.020 -8.2354
2.116964 71.153 -8.6649
2.132304 71.285 -9.0979
2.147756 71.417 -9.5345
2.163320 71.549 -9.9749
2.178996 71.681 -10.4192
2.194786 71.812 -10.8672
2.210690 71.944 -11.3190
2.226710 72.074 -11.7743
2.242845 72.204 -12.2330
2.259098 72.334 -12.6946
2.275468 72.463 -13.1591
2.291957 72.592 -13.6262
2.308566 72.720 -14.0956
2.325295 72.848 -14.5673
2.342145 72.975 -15.0411
2.359117 73.101 -15.5168
2.376212 73.227 -15.9944
2.393431 73.353 -16.4738
2.410775 73.478 -16.9551
2.428244 73.603 -17.4380
2.445840 73.727 -17.9228
2.463564 73.851 -18.4094
2.481416 73.975 -18.8979
2.499397 74.098 -19.3885
2.517509 74.221 -19.8812
2.535752 74.344 -20.3763
2.554127 74.466 -20.8741
2.572635 74.588 -21.3747
2.591277 74.709 -21.8784
2.610055 74.829 -22.3852
2.628968 74.949 -22.8951
2.648019 75.069 -23.4079
2.667208 75.187 -23.9234
2.686535 75.305 -24.4413
2.706003 75.423 -24.9613
2.725612 75.539 -25.4831
2.745363 75.655 -26.0065
2.765257 75.771 -26.5312
2.785295 75.886 -27.0571
2.805478 76.000 -27.5839
2.825808 76.114 -28.1115
2.846285 76.228 -28.6399
2.866910 76.341 -29.1690
2.887685 76.454 -29.6991
2.908611 76.566 -30.2304
2.929688 76.678 -30.7631
2.950917 76.789 -31.2978
2.972301 76.899 -31.8348
2.993839 77.009 -32.3742
3.015534 77.118 -32.9160
3.037386 77.226 -33.4600
3.059396 77.334 -34.0060
3.081565 77.441 -34.5536
3.103896 77.547 -35.1025
3.126388 77.652 -35.6523
3.149043 77.757 -36.2026
3.171862 77.862 -36.7533
3.194847 77.966 -37.3039
3.217998 78.069 -37.8544
3.241317 78.172 -38.4048
3.264805 78.275 -38.9551
3.288463 78.377 -39.5057
3.312293 78.478 -40.0569
3.336295 78.579 -40.6093
3.360471 78.679 -41.1630
3.384822 78.778 -41.7183
3.409350 78.876 -42.2750
3.434056 78.974 -42.8329
3.458940 79.072 -43.3917
3.484005 79.168 -43.9511
3.509252 79.264 -44.5108
3.534681 79.359 -45.0704
3.560295 79.454 -45.6297
3.586094 79.549 -46.1886
3.612081 79.643 -46.7469
3.638255 79.736 -47.3049
3.664620 79.829 -47.8627
3.691175 79.921 -48.4208
3.717923 80.013 -48.9796
3.744864 80.104 -49.5392
3.772001 80.194 -50.0996
3.799335 80.284 -50.6609
3.826866 80.373 -51.2226
3.854597 80.461 -51.7846
3.882529 80.549 -52.3465
3.910664 80.636 -52.9082
3.939002 80.723 -53.4693
3.967546 80.809 -54.0299
3.996296 80.895 -54.5899
4.025255 80.980 -55.1495
4.054423 81.065 -55.7090
4.083804 81.149 -56.2688
4.113396 81.233 -56.8291
4.143204 81.316 -57.3898
4.173227 81.398 -57.9510
4.203468 81.480 -58.5123
4.233928 81.561 -59.0737
4.264609 81.641 -59.6348
4.295512 81.721 -60.1955
4.326639 81.801 -60.7556
4.357992 81.880 -61.3152
4.389572 81.958 -61.8744
4.421380 82.036 -62.4336
4.453419 82.113 -62.9930
4.485691 82.190 -63.5527
4.518196 82.265 -64.1127
4.550936 82.341 -64.6729
4.583914 82.415 -65.2330
4.617131 82.489 -65.7927
4.650589 82.563 -66.3518
4.684289 82.635 -66.9101
4.718233 82.708 -67.4676
4.752424 82.779 -68.0244
4.786862 82.850 -68.5806
4.821549 82.920 -69.1366
4.856488 82.990 -69.6925
4.891680 83.059 -70.2481
4.927127 83.127 -70.8033
4.962831 83.194 -71.3578
4.998794 83.261 -71.9111
5.035017 83.327 -72.4631
5.071503 83.392 -73.0134
5.108253 83.457 -73.5620
5.145270 83.521 -74.1092
5.182555 83.585 -74.6551
5.220110 83.647 -75.1998
5.257937 83.709 -75.7432
5.296038 83.770 -76.2853
5.334415 83.831 -76.8254
5.373071 83.891 -77.3634
5.412006 83.950 -77.8989
5.451224 84.008 -78.4315
5.490725 84.066 -78.9613
5.530514 84.124 -79.4884
5.570590 84.180 -80.0128
5.610957 84.236 -80.5347
5.651616 84.292 -81.0539
5.692570 84.347 -81.5702
5.733821 84.401 -82.0834
5.775370 84.455 -82.5932
5.817221 84.508 -83.0993
5.859375 84.561 -83.6016
5.901834 84.614 -84.1002
5.944602 84.666 -84.5952
5.987679 84.718 -85.0866
6.031068 84.769 -85.5746
6.074771 84.821 -86.0591
6.118792 84.872 -86.5402
6.163131 84.922 -87.0177
6.207792 84.973 -87.4917
6.252776 85.024 -87.9621
6.298086 85.074 -88.4290
6.343725 85.124 -88.8926
6.389694 85.175 -89.3532
6.435996 85.225 -89.8111
6.482634 85.275 -90.2665
6.529610 85.326 -90.7197
6.576926 85.376 -91.1708
6.624585 85.427 -91.6199
6.672590 85.478 -92.0673
6.720942 85.529 -92.5132
6.769645 85.580 -92.9579
6.818700 85.631 -93.4018
6.868111 85.682 -93.8455
6.917881 85.734 -94.2892
6.968010 85.785 -94.7334
7.018504 85.837 -95.1780
7.069362 85.889 -95.6234
7.120590 85.941 -96.0698
7.172189 85.993 -96.5176
7.224161 86.045 -96.9669
7.276511 86.097 -97.4182
7.329239 86.148 -97.8718
7.382350 86.200 -98.3278
7.435845 86.251 -98.7862
7.489729 86.303 -99.2471
7.544002 86.354 -99.7106
7.598669 86.404 -100.1767
7.653732 86.454 -100.6455
7.709194 86.504 -101.1169
7.765058 86.553 -101.5910
7.821327 86.602 -102.0677
7.878004 86.650 -102.5468
7.935091 86.697 -103.0279
7.992592 86.744 -103.5108
8.050510 86.789 -103.9952
8.108847 86.834 -104.4810
8.167607 86.878 -104.9680
8.226793 86.921 -105.4559
8.286408 86.964 -105.9441
8.346454 87.005 -106.4322
8.406936 87.045 -106.9198
8.467856 87.085 -107.4066
8.529218 87.123 -107.8923
8.591024 87.161 -108.3765
8.653278 87.197 -108.8588
8.715983 87.233 -109.3389
8.779143 87.268 -109.8162
8.842760 87.302 -110.2904
8.906839 87.335 -110.7614
8.971381 87.367 -111.2289
9.036392 87.399 -111.6926
9.101873 87.430 -112.1522
9.167829 87.460 -112.6076
9.234263 87.490 -113.0586
9.301178 87.519 -113.5051
9.368578 87.548 -113.9470
9.436467 87.577 -114.3843
9.504847 87.605 -114.8170
9.573723 87.632 -115.2450
9.643099 87.660 -115.6684
9.712976 87.687 -116.0874
9.783361 87.714 -116.5019
9.854255 87.741 -116.9123
9.925663 87.768 -117.3186
9.997588 87.795 -117.7210
10.070035 87.822 -118.1196
10.143007 87.849 -118.5148
10.216507 87.876 -118.9068
10.290540 87.903 -119.2959
10.365109 87.930 -119.6822
10.440219 87.958 -120.0660
10.515873 87.985 -120.4477
10.592076 88.013 -120.8276
10.668830 88.041 -121.2060
10.746141 88.069 -121.5832
10.824012 88.098 -121.9596
10.902447 88.126 -122.3354
10.981451 88.155 -122.7110
11.061027 88.184 -123.0868
11.141180 88.213 -123.4631
11.221913 88.243 -123.8402
11.303232 88.272 -124.2185
11.385140 88.302 -124.5984
11.467641 88.331 -124.9800
11.550741 88.361 -125.3637
11.634442 88.391 -125.7498
11.718750 88.420 -126.1385
11.803669 88.450 -126.5300
11.889203 88.479 -126.9244
11.975357 88.508 -127.3219
12.062136 88.537 -127.7226
12.149543 88.565 -128.1265
12.237583 88.593 -128.5335
12.326262 88.621 -128.9435
12.415583 88.647 -129.3564
12.505552 88.673 -129.7720
12.596172 88.698 -130.1899
12.687449 88.722 -130.6098
12.779387 88.746 -131.0313
12.871992 88.768 -131.4538
12.965268 88.789 -131.8768
13.059220 88.810 -132.2996
13.153852 88.829 -132.7215
13.249170 88.847 -133.1416
13.345179 88.863 -133.5592
13.441884 88.879 -133.9733
13.539289 88.894 -134.3831
13.637401 88.907 -134.7875
13.736223 88.920 -135.1857
13.835761 88.931 -135.5768
13.936021 88.942 -135.9599
14.037007 88.952 -136.3345
14.138725 88.962 -136.7000
14.241180 88.972 -137.0561
14.344377 88.982 -137.4027
14.448323 88.992 -137.7399
14.553021 89.003 -138.0682
14.658478 89.014 -138.3883
14.764700 89.027 -138.7013
14.871691 89.040 -139.0085
14.979457 89.055 -139.3114
15.088005 89.071 -139.6120
15.197339 89.089 -139.9118
15.307465 89.107 -140.2130
15.418389 89.128 -140.5172
15.530117 89.149 -140.8261
15.642655 89.171 -141.1412
15.756008 89.193 -141.4634
15.870182 89.216 -141.7933
15.985184 89.239 -142.1312
16.101019 89.261 -142.4767
16.217694 89.283 -142.8289
16.335214 89.303 -143.1869
16.453586 89.323 -143.5491
16.572815 89.341 -143.9138
16.692909 89.358 -144.2793
16.813872 89.374 -144.6440
16.935713 89.389 -145.0064
17.058436 89.403 -145.3654
17.182048 89.417 -145.7202
17.306556 89.429 -146.0706
17.431967 89.442 -146.4169
17.558286 89.454 -146.7595
17.685521 89.466 -147.0996
17.813677 89.479 -147.4382
17.942762 89.491 -147.7763
18.072783 89.503 -148.1151
18.203746 89.514 -148.4549
18.335658 89.525 -148.7959
18.468526 89.535 -149.1375
18.602356 89.544 -149.4788
18.737156 89.552 -149.8181
18.872934 89.559 -150.1534
19.009695 89.564 -150.4826
19.147447 89.568 -150.8036
19.286197 89.571 -151.1150
19.425953 89.574 -151.4156
19.566721 89.577 -151.7054
19.708510 89.580 -151.9852
19.851326 89.585 -152.2569
19.995177 89.590 -152.5231
20.140070 89.597 -152.7871
20.286013 89.606 -153.0523
20.433014 89.615 -153.3218
20.581080 89.625 -153.5983
20.730219 89.635 -153.8832
20.880439 89.645 -154.1767
21.031747 89.654 -154.4775
21.184152 89.661 -154.7832
21.337661 89.666 -155.0903
21.492282 89.669 -155.3948
21.648024 89.671 -155.6929
21.804895 89.671 -155.9811
21.962902 89.671 -156.2575
22.122054 89.671 -156.5214
22.282360 89.671 -156.7743
22.443827 89.674 -157.0191
22.606464 89.678 -157.2604
22.770280 89.684 -157.5034
22.935283 89.693 -157.7533
23.101481 89.702 -158.0147
23.268884 89.713 -158.2906
23.437500 89.722 -158.5822
23.607338 89.731 -158.8881
23.778406 89.738 -159.2051
23.950714 89.741 -159.5282
24.124271 89.743 -159.8515
24.299086 89.741 -160.1690
24.475167 89.738 -160.4755
24.652524 89.733 -160.7675
24.831166 89.728 -161.0436
25.011103 89.724 -161.3048
25.192344 89.721 -161.5542
25.374898 89.721 -161.7966
25.558775 89.722 -162.0377
25.743984 89.726 -162.2828
25.930536 89.731 -162.5363
26.118439 89.737 -162.8007
26.307704 89.743 -163.0765
26.498341 89.747 -163.3621
26.690359 89.751 -163.6541
26.883768 89.752 -163.9483
27.078579 89.753 -164.2401
27.274801 89.751 -164.5260
27.472446 89.749 -164.8034
27.671522 89.747 -165.0715
27.872042 89.745 -165.3313
28.074014 89.743 -165.5847
28.277450 89.743 -165.8346
28.482360 89.743 -166.0838
28.688755 89.744 -166.3344
28.896645 89.745 -166.5873
29.106042 89.745 -166.8424
29.316957 89.745 -167.0984
29.529400 89.745 -167.3535
29.743382 89.744 -167.6061
29.958915 89.742 -167.8550
30.176009 89.740 -168.1000
30.394677 89.739 -168.3421
30.614929 89.738 -168.5832
30.836778 89.737 -168.8253
31.060234 89.736 -169.0705
31.285309 89.735 -169.3198
31.512015 89.734 -169.5730
31.740364 89.731 -169.8286
31.970368 89.727 -170.0842
32.202039 89.722 -170.3370
32.435388 89.716 -170.5845
32.670428 89.709 -170.8253
32.907171 89.703 -171.0598
33.145630 89.697 -171.2899
33.385817 89.692 -171.5189
33.627745 89.688 -171.7506
33.871425 89.685 -171.9886
34.116871 89.681 -172.2348
34.364096 89.676 -172.4890
34.613113 89.671 -172.7483
34.863934 89.663 -173.0080
35.116572 89.653 -173.2621
35.371041 89.642 -173.5049
35.627354 89.631 -173.7328
35.885525 89.620 -173.9453
36.145566 89.611 -174.1456
36.407492 89.605 -174.3400
36.671316 89.601 -174.5367
36.937051 89.600 -174.7433
37.204712 89.599 -174.9652
37.474313 89.599 -175.2035
37.745867 89.597 -175.4553
38.019389 89.593 -175.7144
38.294893 89.586 -175.9732
38.572394 89.577 -176.2249
38.851905 89.567 -176.4655
39.133442 89.556 -176.6944
39.417019 89.546 -176.9139
39.702651 89.536 -177.1282
39.990353 89.527 -177.3410
40.280140 89.518 -177.5547
40.572026 89.508 -177.7692
40.866028 89.497 -177.9827
41.162160 89.485 -178.1930
41.460438 89.473 -178.3983
41.760877 89.461 -178.5986
42.063494 89.449 -178.7954
42.368303 89.438 -178.9916
42.675322 89.427 -179.1901
42.984565 89.415 -179.3925
43.296048 89.403 -179.5986
43.609789 89.391 -179.8062
43.925804 89.377 179.9883
44.244108 89.362 179.7878
44.564719 89.348 179.5939
44.887654 89.334 179.4056
45.212928 89.321 179.2193
45.540560 89.310 179.0306
45.870565 89.299 178.8358
46.202962 89.288 178.6333
46.537768 89.276 178.4246
46.875000 89.263 178.2136
47.214676 89.250 178.0048
47.556813 89.235 177.8018
47.901429 89.220 177.6060
48.248542 89.205 177.4163
48.598171 89.191 177.2301
48.950334 89.177 177.0447
49.305048 89.164 176.8587
49.662333 89.150 176.6721
50.022206 89.136 176.4869
50.384688 89.121 176.3051
50.749796 89.107 176.1278
51.117550 89.094 175.9536
51.487969 89.081 175.7787
51.861072 89.070 175.5983
52.236879 89.059 175.4084
52.615409 89.047 175.2080
52.996681 89.034 174.9999
53.380717 89.019 174.7896
53.767536 89.003 174.5829
54.157158 88.985 174.3838
54.549603 88.967 174.1936
54.944892 88.949 174.0113
55.343045 88.931 173.8348
55.744084 88.913 173.6624
56.148028 88.895 173.4933
56.554900 88.876 173.3283
56.964720 88.858 173.1685
57.377510 88.839 173.0144
57.793291 88.821 172.8643
58.212085 88.804 172.7137
58.633914 88.788 172.5573
59.058799 88.772 172.3910
59.486764 88.754 172.2148
59.917829 88.736 172.0325
60.352019 88.715 171.8493
60.789354 88.694 171.6685
61.229859 88.673 171.4906
61.673556 88.651 171.3146
62.120468 88.629 171.1409
62.570618 88.606 170.9715
63.024031 88.584 170.8083
63.480729 88.563 170.6503
63.940736 88.543 170.4933
64.404077 88.523 170.3322
64.870776 88.504 170.1643
65.340856 88.483 169.9907
65.814343 88.461 169.8161
66.291261 88.436 169.6471
66.771635 88.410 169.4907
67.255489 88.382 169.3514
67.742850 88.355 169.2292
68.233743 88.329 169.1183
68.728193 88.305 169.0101
69.226226 88.282 168.8978
69.727867 88.259 168.7796
70.233144 88.237 168.6574
70.742083 88.214 168.5330
71.254709 88.192 168.4059
71.771050 88.169 168.2747
72.291132 88.146 168.1397
72.814984 88.122 168.0032
73.342631 88.096 167.8680
73.874102 88.069 167.7360
74.409424 88.041 167.6088
74.948626 88.011 167.4888
75.491734 87.979 167.3781
76.038779 87.946 167.2774
76.589787 87.914 167.1851
77.144788 87.881 167.0971
77.703811 87.849 167.0086
78.266885 87.818 166.9155
78.834039 87.787 166.8162
79.405303 87.757 166.7106
79.980706 87.726 166.5982
80.560280 87.696 166.4786
81.144053 87.664 166.3558
81.732056 87.630 166.2404
82.324320 87.595 166.1445
82.920876 87.559 166.0729
83.521755 87.525 166.0218
84.126988 87.490 165.9843
84.736607 87.456 165.9584
85.350643 87.420 165.9468
85.969129 87.383 165.9518
86.592097 87.346 165.9728
87.219579 87.308 166.0082
87.851608 87.269 166.0572
88.488217 87.231 166.1201
89.129439 87.193 166.1969
89.775308 87.155 166.2886
90.425856 87.118 166.3991
91.081119 87.083 166.5356
91.741131 87.051 166.7039
92.405925 87.025 166.9038
93.075536 87.005 167.1281
93.750000 86.994 167.3646
94.429351 86.992 167.6004
95.113625 86.998 167.8226
95.802858 87.011 168.0196
96.497085 87.031 168.1807
97.196342 87.056 168.2956
97.900667 87.084 168.3543
98.610096 87.112 168.3497
99.324665 87.139 168.2797
100.044413 87.161 168.1495
100.769376 87.176 167.9710
101.499592 87.184 167.7585
102.235100 87.185 167.5255
102.975938 87.180 167.2844
103.722144 87.171 167.0458
104.473757 87.160 166.8154
105.230817 87.148 166.5926
105.993363 87.137 166.3722
106.761435 87.125 166.1481
107.535072 87.111 165.9182
108.314315 87.093 165.6880
109.099206 87.069 165.4709
109.889783 87.039 165.2854
110.686090 87.003 165.1493
111.488167 86.965 165.0711
112.296056 86.928 165.0448
113.109800 86.897 165.0537
113.929440 86.872 165.0792
114.755020 86.854 165.1069
115.586582 86.845 165.1262
116.424170 86.842 165.1269
117.267827 86.846 165.0958
118.117598 86.853 165.0176
118.973527 86.859 164.8785
119.835658 86.859 164.6736
120.704037 86.847 164.4156
121.578708 86.818 164.1373
122.459718 86.772 163.8849
123.347111 86.714 163.7039
124.240935 86.651 163.6199
125.141236 86.592 163.6257
126.048061 86.545 163.6837
126.961458 86.511 163.7401
127.881473 86.488 163.7456
128.808154 86.468 163.6760
129.741551 86.445 163.5438
130.681712 86.414 163.3912
131.628686 86.376 163.2638
132.582521 86.336 163.1808
133.543269 86.299 163.1285
134.510979 86.266 163.0816
135.485701 86.235 163.0294
136.467486 86.204 162.9797
137.456386 86.173 162.9447
138.452451 86.142 162.9294
139.455735 86.111 162.9288
140.466288 86.080 162.9342
141.484165 86.048 162.9403
142.509418 86.016 162.9469
143.542100 85.984 162.9570
144.582265 85.952 162.9735
145.629968 85.921 162.9976
146.685262 85.891 163.0285
147.748204 85.862 163.0650
148.818849 85.833 163.1050
149.897251 85.805 163.1465
150.983469 85.776 163.1882
152.077557 85.749 163.2303
153.179574 85.723 163.2740
154.289576 85.698 163.3199
155.407622 85.674 163.3665
156.533770 85.652 163.4107
157.668078 85.631 163.4488
158.810606 85.610 163.4776
159.961413 85.588 163.4957
161.120559 85.566 163.5042
162.288105 85.542 163.5068
163.464112 85.518 163.5083
164.648640 85.492 163.5121
165.841752 85.465 163.5198
167.043510 85.436 163.5309
168.253976 85.405 163.5440
169.473213 85.372 163.5579
170.701286 85.338 163.5727
171.938258 85.304 163.5908
173.184194 85.270 163.6175
174.439158 85.237 163.6590
175.703216 85.203 163.7181
176.976434 85.169 163.7916
178.258878 85.134 163.8723
179.550615 85.102 163.9516
180.851713 85.073 164.0247
182.162239 85.051 164.0952
183.482262 85.035 164.1738
184.811850 85.027 164.2709
186.151073 85.022 164.3891
187.500000 85.020 164.5214
188.858702 85.018 164.6528
190.227250 85.012 164.7668
191.605715 85.004 164.8519
192.994169 84.994 164.9050
194.392685 84.981 164.9319
195.801334 84.966 164.9435
197.220191 84.949 164.9504
198.649330 84.929 164.9591
200.088825 84.907 164.9711
201.538751 84.883 164.9856
202.999184 84.857 165.0013
204.470200 84.829 165.0178
205.951875 84.801 165.0353
207.444287 84.771 165.0554
208.947514 84.741 165.0813
210.461634 84.711 165.1171
211.986726 84.681 165.1658
213.522869 84.654 165.2254
215.070144 84.630 165.2891
216.628631 84.608 165.3499
218.198411 84.586 165.4059
219.779567 84.565 165.4604
221.372180 84.542 165.5185
222.976334 84.519 165.5840
224.592112 84.495 165.6575
226.219600 84.471 165.7364
227.858880 84.448 165.8184
229.510039 84.424 165.9024
231.173164 84.400 165.9887
232.848340 84.377 166.0767
234.535655 84.353 166.1648
236.235197 84.329 166.2513
237.947054 84.305 166.3360
239.671317 84.281 166.4202
241.408074 84.258 166.5066
243.157416 84.236 166.5963
244.919435 84.214 166.6878
246.694223 84.193 166.7793
248.481871 84.171 166.8708
250.282473 84.148 166.9637
252.096123 84.126 167.0594
253.922915 84.102 167.1587
255.762945 84.079 167.2618
257.616309 84.057 167.3683
259.483103 84.035 167.4775
261.363424 84.013 167.5880
263.257372 83.992 167.6993
265.165043 83.971 167.8118
267.086538 83.950 167.9265
269.021957 83.929 168.0442
270.971401 83.908 168.1635
272.934972 83.888 168.2817
274.912771 83.867 168.3970
276.904902 83.847 168.5108
278.911469 83.826 168.6261
280.932577 83.805 168.7441
282.968330 83.784 168.8644
285.018835 83.763 168.9874
287.084199 83.743 169.1134
289.164530 83.723 169.2418
291.259935 83.704 169.3704
293.370525 83.686 169.4962
295.496408 83.668 169.6180
297.637697 83.649 169.7379
299.794503 83.630 169.8607
301.966937 83.609 169.9915
304.155114 83.589 170.1322
306.359147 83.570 170.2799
308.579152 83.551 170.4285
310.815244 83.535 170.5719
313.067539 83.518 170.7065
315.336156 83.502 170.8329
317.621211 83.484 170.9556
319.922826 83.466 171.0809
322.241118 83.446 171.2142
324.576210 83.427 171.3576
326.928223 83.409 171.5087
329.297280 83.391 171.6633
331.683504 83.375 171.8182
334.087019 83.359 171.9718
336.507952 83.343 172.1239
338.946427 83.328 172.2748
341.402572 83.312 172.4252
343.876516 83.296 172.5761
346.368387 83.280 172.7283
348.878315 83.264 172.8818
351.406431 83.249 173.0359
353.952867 83.233 173.1901
356.517756 83.218 173.3444
359.101230 83.203 173.5000
361.703426 83.188 173.6584
364.324478 83.173 173.8204
366.964523 83.158 173.9859
369.623699 83.143 174.1540
372.302145 83.128 174.3229
375.000000 83.113 174.4907
377.717405 83.098 174.6568
380.454501 83.084 174.8217
383.211431 83.070 174.9868
385.988339 83.056 175.1529
388.785369 83.042 175.3209
391.602668 83.029 175.4911
394.440383 83.016 175.6636
397.298660 83.002 175.8377
400.177650 82.989 176.0132
403.077502 82.977 176.1901
405.998368 82.964 176.3685
408.940400 82.951 176.5484
411.903750 82.939 176.7298
414.888575 82.926 176.9125
417.895028 82.914 177.0963
420.923268 82.902 177.2808
423.973452 82.890 177.4662
427.045738 82.879 177.6526
430.140287 82.868 177.8398
433.257261 82.856 178.0275
436.396822 82.845 178.2155
439.559133 82.835 178.4036
442.744360 82.824 178.5919
445.952668 82.813 178.7809
449.184225 82.802 178.9711
452.439199 82.792 179.1626
455.717760 82.781 179.3553
459.020079 82.771 179.5495
462.346327 82.760 179.7454
465.696680 82.750 179.9438
469.071310 82.740 -179.8547
472.470394 82.731 -179.6499
475.894109 82.722 -179.4423
479.342634 82.713 -179.2330
482.816148 82.705 -179.0230
486.314833 82.696 -178.8126
489.838871 82.688 -178.6017
493.388445 82.679 -178.3898
496.963741 82.671 -178.1769
500.564945 82.663 -177.9628
504.192245 82.655 -177.7476
507.845830 82.647 -177.5310
511.525890 82.640 -177.3128
515.232618 82.632 -177.0930
518.966206 82.625 -176.8715
522.726849 82.619 -176.6481
526.514743 82.612 -176.4224
530.330086 82.605 -176.1941
534.173076 82.599 -175.9633
538.043915 82.593 -175.7303
541.942803 82.588 -175.4958
545.869944 82.582 -175.2606
549.825542 82.577 -175.0252
553.809805 82.573 -174.7891
557.822939 82.568 -174.5517
561.865154 82.563 -174.3120
565.936660 82.558 -174.0700
570.037671 82.554 -173.8256
574.168399 82.550 -173.5791
578.329060 82.546 -173.3306
582.519870 82.542 -173.0802
586.741049 82.538 -172.8283
590.992817 82.535 -172.5746
595.275394 82.532 -172.3189
599.589005 82.529 -172.0606
603.933874 82.527 -171.7997
608.310228 82.525 -171.5363
612.718295 82.524 -171.2707
617.158304 82.522 -171.0033
621.630488 82.522 -170.7341
626.135079 82.521 -170.4630
630.672311 82.521 -170.1897
635.242423 82.521 -169.9140
639.845651 82.521 -169.6359
644.482237 82.522 -169.3556
649.152421 82.524 -169.0727
653.856447 82.525 -168.7870
658.594560 82.527 -168.4979
663.367008 82.530 -168.2052
668.174039 82.532 -167.9090
673.015903 82.535 -167.6096
677.892854 82.539 -167.3078
682.805145 82.543 -167.0037
687.753032 82.548 -166.6974
692.736774 82.553 -166.3891
697.756631 82.559 -166.0794
702.812863 82.566 -165.7688
707.905735 82.572 -165.4568
713.035511 82.580 -165.1425
718.202461 82.588 -164.8251
723.406852 82.596 -164.5039
728.648956 82.605 -164.1790
733.929047 82.615 -163.8509
739.247399 82.625 -163.5197
744.604290 82.636 -163.1849
750.000000 82.648 -162.8460
755.434809 82.662 -162.5033
760.909001 82.676 -162.1574
766.422861 82.690 -161.8089
771.976677 82.706 -161.4582
777.570739 82.723 -161.1053
783.205337 82.740 -160.7502
788.880766 82.758 -160.3932
794.597321 82.777 -160.0346
800.355301 82.797 -159.6746
806.155005 82.818 -159.3132
811.996736 82.840 -158.9504
817.880799 82.863 -158.5860
823.807501 82.888 -158.2200
829.777150 82.914 -157.8527
835.790057 82.940 -157.4843
841.846536 82.969 -157.1151
847.946903 82.998 -156.7451
854.091476 83.029 -156.3749
860.280575 83.061 -156.0047
866.514523 83.094 -155.6353
872.793644 83.129 -155.2671
879.118267 83.165 -154.9006
885.488720 83.202 -154.5361
891.905336 83.241 -154.1737
898.368450 83.281 -153.8132
904.878398 83.322 -153.4545
911.435520 83.365 -153.0980
918.040157 83.409 -152.7441
924.692655 83.455 -152.3937
931.393359 83.502 -152.0480
938.142619 83.550 -151.7080
944.940787 83.600 -151.3741
951.788218 83.651 -151.0467
958.685268 83.703 -150.7257
965.632296 83.757 -150.4113
972.629666 83.812 -150.1036
979.677741 83.868 -149.8028
986.776890 83.925 -149.5089
993.927482 83.984 -149.2220
1001.129891 84.043 -148.9422
1008.384491 84.104 -148.6700
1015.691660 84.165 -148.4061
1023.051781 84.228 -148.1512
1030.465236 84.291 -147.9058
1037.932411 84.355 -147.6701
1045.453698 84.420 -147.4436
1053.029486 84.484 -147.2260
1060.660172 84.549 -147.0170
1068.346153 84.614 -146.8171
1076.087829 84.680 -146.6270
1083.885605 84.746 -146.4469
1091.739887 84.812 -146.2767
1099.651084 84.879 -146.1160
1107.619609 84.945 -145.9644
1115.645878 85.012 -145.8218
1123.730308 85.079 -145.6879
1131.873321 85.147 -145.5625
1140.075341 85.214 -145.4453
1148.336797 85.281 -145.3360
1156.658119 85.347 -145.2341
1165.039741 85.414 -145.1396
1173.482099 85.480 -145.0522
1181.985634 85.547 -144.9718
1190.550789 85.612 -144.8979
1199.178011 85.678 -144.8305
1207.867749 85.743 -144.7690
1216.620457 85.808 -144.7132
1225.436590 85.872 -144.6625
1234.316609 85.936 -144.6166
1243.260976 86.000 -144.5754
1252.270157 86.064 -144.5391
1261.344623 86.127 -144.5076
1270.484846 86.190 -144.4811
1279.691303 86.253 -144.4591
1288.964474 86.315 -144.4414
1298.304842 86.377 -144.4275
1307.712894 86.439 -144.4168
1317.189120 86.500 -144.4093
1326.734016 86.562 -144.4046
1336.348077 86.623 -144.4028
1346.031806 86.684 -144.4041
1355.785708 86.744 -144.4085
1365.610290 86.805 -144.4162
1375.506065 86.865 -144.4274
1385.473549 86.925 -144.4418
1395.513261 86.984 -144.4589
1405.625726 87.044 -144.4783
1415.811469 87.103 -144.5000
1426.071023 87.162 -144.5237
1436.404921 87.221 -144.5495
1446.813703 87.280 -144.5773
1457.297912 87.339 -144.6072
1467.858093 87.398 -144.6390
1478.494798 87.456 -144.6727
1489.208581 87.515 -144.7081
1500.000000 87.574 -144.7451
1510.869618 87.633 -144.7837
1521.818002 87.692 -144.8238
1532.845723 87.751 -144.8655
1543.953355 87.810 -144.9087
1555.141477 87.869 -144.9535
1566.410674 87.929 -144.9997
1577.761531 87.989 -145.0474
1589.194642 88.049 -145.0968
1600.710601 88.109 -145.1483
1612.310010 88.170 -145.2021
1623.993473 88.231 -145.2587
1635.761599 88.293 -145.3181
1647.615002 88.355 -145.3808
1659.554299 88.417 -145.4469
1671.580114 88.480 -145.5164
1683.693072 88.544 -145.5894
1695.893807 88.607 -145.6661
1708.182952 88.672 -145.7464
1720.561150 88.737 -145.8308
1733.029045 88.802 -145.9198
1745.587288 88.868 -146.0137
1758.236533 88.935 -146.1131
1770.977440 89.002 -146.2184
1783.810673 89.070 -146.3298
1796.736900 89.139 -146.4477
1809.756796 89.208 -146.5721
1822.871040 89.277 -146.7034
1836.080315 89.347 -146.8419
1849.385310 89.418 -146.9879
1862.786718 89.489 -147.1418
1876.285239 89.560 -147.3040
1889.881575 89.632 -147.4748
1903.576436 89.705 -147.6542
1917.370535 89.777 -147.8427
1931.264593 89.850 -148.0403
1945.259332 89.923 -148.2476
1959.355483 89.996 -148.4650
1973.553781 90.069 -148.6928
1987.854965 90.143 -148.9312
2002.259781 90.216 -149.1803
2016.768981 90.290 -149.4406
2031.383320 90.363 -149.7123
2046.103561 90.437 -149.9960
2060.930471 90.510 -150.2921
2075.864823 90.583 -150.6012
2090.907395 90.657 -150.9234
2106.058972 90.730 -151.2591
2121.320344 90.802 -151.6086
2136.692305 90.874 -151.9719
2152.175658 90.946 -152.3492
2167.771210 91.016 -152.7404
2183.479774 91.086 -153.1455
2199.302169 91.155 -153.5644
2215.239219 91.223 -153.9967
2231.291755 91.290 -154.4426
2247.460615 91.356 -154.9021
2263.746641 91.420 -155.3751
2280.150683 91.483 -155.8616
2296.673595 91.545 -156.3613
2313.316238 91.605 -156.8739
2330.079481 91.663 -157.3989
2346.964198 91.720 -157.9360
2363.971268 91.774 -158.4848
2381.101578 91.827 -159.0450
2398.356022 91.877 -159.6164
2415.735498 91.926 -160.1983
2433.240913 91.972 -160.7901
2450.873180 92.015 -161.3913
2468.633217 92.056 -162.0011
2486.521951 92.094 -162.6189
2504.540314 92.130 -163.2442
2522.689246 92.163 -163.8762
2540.969692 92.193 -164.5141
2559.382606 92.220 -165.1572
2577.928947 92.245 -165.8047
2596.609683 92.266 -166.4560
2615.425787 92.285 -167.1103
2634.378241 92.301 -167.7668
2653.468031 92.314 -168.4245
2672.696154 92.323 -169.0823
2692.063613 92.330 -169.7392
2711.571415 92.334 -170.3943
2731.220579 92.335 -171.0469
2751.012130 92.333 -171.6960
2770.947098 92.328 -172.3408
2791.026522 92.321 -172.9804
2811.251451 92.310 -173.6136
2831.622938 92.297 -174.2396
2852.142045 92.281 -174.8576
2872.809842 92.262 -175.4667
2893.627406 92.241 -176.0663
2914.595823 92.217 -176.6557
2935.716186 92.191 -177.2344
2956.989596 92.163 -177.8020
2978.417161 92.133 -178.3582
3000.000000 92.101 -178.9023
3021.739237 92.067 -179.4338
3043.636005 92.032 -179.9518
3065.691446 91.995 179.5443
3087.906710 91.957 179.0547
3110.282955 91.917 178.5801
3132.821347 91.876 178.1208
3155.523062 91.834 177.6776
3178.389283 91.791 177.2508
3201.421202 91.748 176.8411
3224.620020 91.704 176.4490
3247.986946 91.659 176.0747
3271.523198 91.615 175.7184
3295.230004 91.571 175.3795
3319.108599 91.528 175.0568
3343.160228 91.487 174.7487
3367.386145 91.447 174.4528
3391.787613 91.409 174.1659
3416.365904 91.373 173.8846
3441.122300 91.338 173.6055
3466.058091 91.306 173.3253
3491.174576 91.275 173.0417
3516.473066 91.244 172.7531
3541.954880 91.215 172.4587
3567.621345 91.185 172.1592
3593.473800 91.155 171.8551
3619.513592 91.125 171.5478
3645.742080 91.094 171.2383
3672.160630 91.063 170.9274
3698.770620 91.032 170.6156
3725.573436 91.001 170.3027
3752.570477 90.969 169.9886
3779.763150 90.937 169.6727
3807.152872 90.906 169.3544
3834.741071 90.873 169.0334
3862.529185 90.841 168.7095
3890.518664 90.808 168.3829
3918.710966 90.774 168.0541
3947.107561 90.740 167.7238
3975.709929 90.705 167.3927
4004.519563 90.669 167.0613
4033.537962 90.632 166.7299
4062.766641 90.595 166.3983
4092.207123 90.558 166.0658
4121.860942 90.520 165.7314
4151.729646 90.482 165.3937
4181.814790 90.443 165.0515
4212.117944 90.404 164.7031
4242.640687 90.365 164.3470
4273.384610 90.325 163.9822
4304.351317 90.283 163.6076
4335.542421 90.241 163.2228
4366.959549 90.197 162.8276
4398.604338 90.151 162.4221
4430.478438 90.102 162.0070
4462.583511 90.052 161.5829
4494.921231 89.998 161.1510
4527.493283 89.941 160.7127
4560.301365 89.881 160.2695
4593.347189 89.817 159.8231
4626.632476 89.750 159.3753
4660.158962 89.679 158.9284
4693.928395 89.603 158.4846
4727.942535 89.524 158.0461
4762.203156 89.441 157.6153
4796.712043 89.354 157.1947
4831.470996 89.262 156.7866
4866.481826 89.167 156.3935
4901.746360 89.068 156.0176
4937.266434 88.966 155.6610
4973.043902 88.860 155.3259
5009.080628 88.751 155.0141
5045.378492 88.638 154.7276
5081.939384 88.523 154.4684
5118.765212 88.406 154.2384
5155.857894 88.286 154.0397
5193.219366 88.164 153.8738
5230.851574 88.040 153.7419
5268.756481 87.916 153.6451
5306.936062 87.791 153.5840
5345.392309 87.665 153.5592
5384.127225 87.540 153.5709
5423.142830 87.415 153.6190
5462.441159 87.291 153.7035
5502.024259 87.168 153.8243
5541.894195 87.046 153.9816
5582.053045 86.926 154.1754
5622.502902 86.808 154.4057
5663.245876 86.693 154.6722
5704.284090 86.580 154.9742
5745.619684 86.470 155.3108
5787.254813 86.364 155.6810
5829.191647 86.261 156.0839
5871.432373 86.163 156.5182
5913.979192 86.069 156.9836
5956.834323 85.979 157.4795
6000.000000 85.895 158.0061
6043.478473 85.816 158.5631
6087.272010 85.743 159.1497
6131.382892 85.677 159.7646
6175.813420 85.618 160.4054
6220.565910 85.568 161.0692
6265.642695 85.526 161.7527
6311.046124 85.494 162.4518
6356.778566 85.472 163.1614
6402.842404 85.461 163.8758
6449.240040 85.460 164.5883
6495.973891 85.471 165.2914
6543.046396 85.494 165.9776
6590.460007 85.528 166.6393
6638.217197 85.574 167.2694
6686.320456 85.632 167.8613
6734.772290 85.701 168.4087
6783.575226 85.782 168.9046
6832.731809 85.874 169.3423
6882.244600 85.977 169.7149
6932.116181 86.090 170.0154
6982.349153 86.214 170.2367
7032.946133 86.349 170.3712
7083.909760 86.494 170.4099
7135.242690 86.649 170.3419
7186.947600 86.813 170.1543
7239.027185 86.986 169.8317
7291.484160 87.167 169.3574
7344.321260 87.353 168.7139
7397.541239 87.543 167.8838
7451.146872 87.732 166.8511
7505.140954 87.917 165.6024
7559.526299 88.093 164.1287
7614.305743 88.254 162.4268
7669.482141 88.395 160.5004
7725.058371 88.509 158.3604
7781.037328 88.592 156.0257
7837.421932 88.638 153.5225
7894.215122 88.642 150.8838
7951.419859 88.601 148.1483
8009.039125 88.513 145.3581
8067.075924 88.378 142.5563
8125.533282 88.195 139.7841
8184.414245 87.967 137.0778
8243.721885 87.697 134.4673
8303.459292 87.388 131.9753
8363.629581 87.043 129.6185
8424.235888 86.663 127.4099
8485.281374 86.252 125.3610
8546.769221 85.810 123.4848
8608.702634 85.337 121.7990
8671.084842 84.835 120.3275
8733.919097 84.305 119.1017
8797.208675 83.748 118.1578
8860.956876 83.168 117.5316
8925.167022 82.573 117.2521
8989.842461 81.970 117.3347
9054.986566 81.368 117.7781
9120.602731 80.774 118.5629
9186.694378 80.198 119.6552
9253.264952 79.644 121.0118
9320.317925 79.117 122.5859
9387.856790 78.618 124.3326
9455.885071 78.146 126.2129
9524.406312 77.701 128.1962
9593.424086 77.281 130.2601
9662.941992 76.882 132.3890
9732.963653 76.505 134.5724
9803.492719 76.146 136.8041
9874.532869 75.806 139.0805
9946.087805 75.481 141.4001
10018.161257 75.172 143.7621
10090.756983 74.877 146.1663
10163.878768 74.597 148.6116
10237.530423 74.331 151.0961
10311.715789 74.078 153.6178
10386.438732 73.839 156.1748
10461.703149 73.614 158.7654
10537.512962 73.402 161.3875
10613.872125 73.203 164.0394
10690.784618 73.018 166.7196
10768.254450 72.847 169.4271
10846.285661 72.689 172.1606
10924.882318 72.545 174.9191
11004.048518 72.415 177.7014
11083.788390 72.298 -179.4939
11164.106090 72.196 -176.6685
11245.005805 72.108 -173.8247
11326.491752 72.036 -170.9655
11408.568180 71.981 -168.0940
11491.239368 71.941 -165.2137
11574.509626 71.920 -162.3281
11658.383294 71.916 -159.4411
11742.864745 71.930 -156.5563
11827.958384 71.964 -153.6771
11913.668646 72.018 -150.8068
12000.000000 72.092 -147.9483
12086.956947 72.188 -145.1047
12174.544019 72.307 -142.2789
12262.765784 72.449 -139.4752
12351.626840 72.616 -136.6983
12441.131819 72.810 -133.9538
12531.285389 73.032 -131.2470
12622.092249 73.284 -128.5832
12713.557132 73.568 -125.9680
12805.684808 73.887 -123.4079
12898.480079 74.245 -120.9122
12991.947783 74.648 -118.4956
13086.092792 75.101 -116.1807
13180.920015 75.613 -114.0037
13276.434395 76.190 -112.0191
13372.640911 76.838 -110.3045
13469.544580 77.560 -108.9628
13567.150452 78.352 -108.1191
13665.463617 79.203 -107.9127
13764.489200 80.096 -108.4828
13864.232362 81.003 -109.9515
13964.698305 81.892 -112.4076
14065.892266 82.726 -115.8902
14167.819519 83.465 -120.3741
14270.485380 84.071 -125.7590
14373.895200 84.507 -131.8620
14478.054370 84.747 -138.4205
14582.968320 84.778 -145.1131
14688.642520 84.601 -151.5992
14795.082478 84.237 -157.5673
14902.293745 83.716 -162.7728
15010.281908 83.078 -167.0551
15119.052599 82.364 -170.3385
15228.611486 81.615 -172.6232
15338.964283 80.870 -173.9712
15450.116741 80.159 -174.4906
15562.074656 79.506 -174.3188
15674.843864 78.928 -173.6068
15788.430244 78.433 -172.5050
15902.839718 78.022 -171.1543
16018.078250 77.693 -169.6814
16134.151848 77.440 -168.1981
16251.066563 77.256 -166.8021
16368.828491 77.132 -165.5794
16487.443769 77.056 -164.6055
16606.918584 77.019 -163.9463
16727.259161 77.006 -163.6567
16848.471777 77.003 -163.7767
16970.562748 76.994 -164.3272
17093.538442 76.963 -165.3053
17217.405268 76.892 -166.6804
17342.169684 76.766 -168.3930
17467.838194 76.569 -170.3555
17594.417350 76.293 -172.4570
17721.913751 75.930 -174.5708
17850.334044 75.479 -176.5647
17979.684923 74.945 -178.3130
18109.973131 74.336 -179.7058
18241.205462 73.666 179.3411
18373.388756 72.951 178.8812
18506.529905 72.208 178.9327
18640.635849 71.455 179.4784
18775.713581 70.710 -179.5337
18911.770141 69.988 -178.1846
19048.812624 69.299 -176.5764
19186.848172 68.652 -174.8212
19325.883983 68.051 -173.0308
19465.927305 67.502 -171.3100
19606.985439 67.016 -169.7551
19749.065738 66.610 -168.4589
19892.175609 66.313 -167.5154
20036.322514 66.155 -167.0139
