* Measurement data measured by REW V5.31.3
* Source: Headset (CX31993 HIFI AUDIO), MICROPHONE (Master Volume), R, volume: 0.250
* Format: 256k Log Swept Sine, 1 sweep at -12.0 dBFS with no timing reference
* Dated: 01 20, 25 1:31:12 PM
* REW Settings:
*  C-weighting compensation: Off
*  Target level: 75.0 dB
* Note: ; 
* Measurement: Quarks2 FinchPreset R
* Smoothing: 1/12 octave
* Frequency Step: 96 ppo
* Start Frequency: 0.36621094 Hz
*
* Freq(Hz) SPL(dB) Phase(degrees)
0.366211 55.517 20.2456
0.368865 55.548 20.1280
0.371538 55.594 19.9541
0.374230 55.652 19.7396
0.376942 55.716 19.4982
0.379673 55.785 19.2397
0.382424 55.856 18.9705
0.385196 55.930 18.6947
0.387987 56.005 18.4147
0.390798 56.080 18.1318
0.393630 56.157 17.8468
0.396483 56.234 17.5601
0.399356 56.311 17.2719
0.402250 56.389 16.9826
0.405165 56.468 16.6921
0.408101 56.547 16.4007
0.411058 56.627 16.1083
0.414037 56.708 15.8152
0.417037 56.789 15.5214
0.420059 56.870 15.2269
0.423103 56.952 14.9319
0.426169 57.035 14.6363
0.429257 57.119 14.3404
0.432368 57.203 14.0441
0.435501 57.287 13.7475
0.438656 57.373 13.4508
0.441835 57.459 13.1538
0.445037 57.545 12.8568
0.448262 57.632 12.5597
0.451510 57.720 12.2625
0.454782 57.808 11.9655
0.458077 57.897 11.6684
0.461397 57.987 11.3715
0.464740 58.077 11.0748
0.468108 58.168 10.7782
0.471500 58.260 10.4818
0.474917 58.352 10.1855
0.478358 58.445 9.8896
0.481825 58.539 9.5938
0.485316 58.633 9.2983
0.488833 58.728 9.0030
0.492375 58.824 8.7079
0.495943 58.920 8.4131
0.499537 59.017 8.1185
0.503157 59.115 7.8241
0.506803 59.214 7.5299
0.510475 59.313 7.2359
0.514175 59.413 6.9420
0.517900 59.514 6.6482
0.521653 59.615 6.3544
0.525434 59.717 6.0607
0.529241 59.820 5.7670
0.533076 59.924 5.4733
0.536939 60.028 5.1794
0.540830 60.133 4.8854
0.544749 60.239 4.5912
0.548696 60.346 4.2967
0.552673 60.453 4.0019
0.556677 60.561 3.7067
0.560711 60.670 3.4110
0.564774 60.780 3.1148
0.568867 60.891 2.8179
0.572989 61.002 2.5204
0.577141 61.114 2.2220
0.581324 61.227 1.9228
0.585536 61.341 1.6227
0.589779 61.456 1.3215
0.594053 61.572 1.0191
0.598358 61.688 0.7156
0.602694 61.805 0.4106
0.607061 61.923 0.1042
0.611460 62.042 -0.2037
0.615891 62.162 -0.5133
0.620354 62.282 -0.8247
0.624849 62.404 -1.1380
0.629377 62.526 -1.4533
0.633938 62.650 -1.7708
0.638532 62.774 -2.0905
0.643159 62.899 -2.4127
0.647819 63.025 -2.7374
0.652514 63.152 -3.0647
0.657242 63.279 -3.3949
0.662005 63.408 -3.7280
0.666802 63.538 -4.0642
0.671634 63.668 -4.4037
0.676501 63.800 -4.7466
0.681403 63.932 -5.0931
0.686341 64.066 -5.4433
0.691314 64.200 -5.7973
0.696324 64.335 -6.1554
0.701370 64.471 -6.5176
0.706452 64.607 -6.8842
0.711571 64.743 -7.2550
0.716728 64.879 -7.6302
0.721921 65.013 -8.0095
0.727153 65.144 -8.3927
0.732422 65.273 -8.7792
0.737729 65.397 -9.1684
0.743075 65.518 -9.5596
0.748460 65.636 -9.9521
0.753883 65.752 -10.3454
0.759346 65.866 -10.7390
0.764849 65.980 -11.1328
0.770391 66.092 -11.5264
0.775974 66.205 -11.9197
0.781597 66.316 -12.3126
0.787261 66.428 -12.7050
0.792966 66.539 -13.0968
0.798712 66.649 -13.4878
0.804500 66.759 -13.8781
0.810329 66.869 -14.2676
0.816201 66.979 -14.6563
0.822116 67.088 -15.0441
0.828073 67.197 -15.4311
0.834074 67.305 -15.8171
0.840118 67.413 -16.2023
0.846206 67.521 -16.5866
0.852338 67.628 -16.9700
0.858514 67.736 -17.3527
0.864735 67.842 -17.7345
0.871001 67.949 -18.1156
0.877313 68.055 -18.4961
0.883670 68.161 -18.8759
0.890074 68.267 -19.2552
0.896524 68.372 -19.6341
0.903020 68.478 -20.0126
0.909564 68.583 -20.3908
0.916155 68.688 -20.7689
0.922794 68.792 -21.1469
0.929481 68.897 -21.5250
0.936216 69.001 -21.9032
0.943000 69.105 -22.2819
0.949834 69.209 -22.6609
0.956717 69.313 -23.0406
0.963649 69.417 -23.4211
0.970632 69.521 -23.8026
0.977666 69.625 -24.1851
0.984750 69.729 -24.5689
0.991886 69.833 -24.9542
0.999074 69.937 -25.3412
1.006314 70.042 -25.7300
1.013606 70.146 -26.1209
1.020951 70.251 -26.5141
1.028349 70.356 -26.9098
1.035801 70.461 -27.3083
1.043307 70.566 -27.7097
1.050867 70.672 -28.1144
1.058482 70.778 -28.5225
1.066152 70.885 -28.9345
1.073878 70.992 -29.3504
1.081660 71.099 -29.7705
1.089498 71.207 -30.1952
1.097393 71.315 -30.6245
1.105345 71.423 -31.0586
1.113355 71.530 -31.4974
1.121423 71.638 -31.9408
1.129549 71.745 -32.3887
1.137734 71.852 -32.8409
1.145979 71.958 -33.2969
1.154283 72.064 -33.7567
1.162647 72.170 -34.2198
1.171072 72.275 -34.6860
1.179558 72.380 -35.1551
1.188106 72.484 -35.6267
1.196715 72.587 -36.1006
1.205387 72.691 -36.5765
1.214122 72.794 -37.0542
1.222920 72.896 -37.5335
1.231782 72.998 -38.0141
1.240708 73.100 -38.4958
1.249699 73.201 -38.9785
1.258754 73.302 -39.4619
1.267876 73.402 -39.9458
1.277063 73.503 -40.4301
1.286318 73.603 -40.9146
1.295639 73.702 -41.3991
1.305027 73.802 -41.8836
1.314484 73.901 -42.3679
1.324009 74.000 -42.8519
1.333604 74.098 -43.3354
1.343268 74.197 -43.8185
1.353002 74.295 -44.3009
1.362806 74.394 -44.7827
1.372681 74.492 -45.2637
1.382628 74.590 -45.7440
1.392647 74.688 -46.2235
1.402739 74.787 -46.7022
1.412904 74.885 -47.1802
1.423142 74.983 -47.6575
1.433455 75.082 -48.1343
1.443843 75.180 -48.6110
1.454305 75.278 -49.0877
1.464844 75.377 -49.5652
1.475459 75.475 -50.0438
1.486150 75.572 -50.5241
1.496920 75.670 -51.0064
1.507767 75.766 -51.4910
1.518693 75.863 -51.9779
1.529698 75.958 -52.4671
1.540783 76.053 -52.9584
1.551948 76.148 -53.4519
1.563194 76.242 -53.9472
1.574521 76.335 -54.4443
1.585931 76.428 -54.9431
1.597423 76.520 -55.4434
1.608999 76.612 -55.9450
1.620658 76.704 -56.4480
1.632402 76.794 -56.9520
1.644232 76.885 -57.4572
1.656146 76.975 -57.9633
1.668147 77.064 -58.4703
1.680235 77.154 -58.9782
1.692411 77.242 -59.4868
1.704675 77.331 -59.9962
1.717028 77.419 -60.5063
1.729470 77.507 -61.0171
1.742003 77.595 -61.5286
1.754626 77.682 -62.0408
1.767341 77.769 -62.5540
1.780147 77.856 -63.0681
1.793047 77.943 -63.5835
1.806040 78.030 -64.1006
1.819128 78.116 -64.6199
1.832310 78.202 -65.1421
1.845587 78.287 -65.6680
1.858961 78.372 -66.1981
1.872432 78.457 -66.7329
1.886001 78.541 -67.2724
1.899667 78.624 -67.8165
1.913433 78.706 -68.3650
1.927299 78.788 -68.9175
1.941265 78.869 -69.4736
1.955332 78.949 -70.0329
1.969501 79.029 -70.5948
1.983773 79.108 -71.1589
1.998148 79.187 -71.7248
2.012627 79.265 -72.2919
2.027212 79.342 -72.8599
2.041902 79.419 -73.4283
2.056698 79.496 -73.9966
2.071602 79.571 -74.5645
2.086614 79.647 -75.1316
2.101734 79.722 -75.6976
2.116964 79.797 -76.2621
2.132304 79.871 -76.8250
2.147756 79.945 -77.3863
2.163320 80.019 -77.9461
2.178996 80.092 -78.5050
2.194786 80.164 -79.0637
2.210690 80.237 -79.6232
2.226710 80.308 -80.1845
2.242845 80.379 -80.7483
2.259098 80.449 -81.3152
2.275468 80.519 -81.8851
2.291957 80.587 -82.4580
2.308566 80.655 -83.0335
2.325295 80.722 -83.6114
2.342145 80.788 -84.1910
2.359117 80.854 -84.7720
2.376212 80.919 -85.3538
2.393431 80.984 -85.9359
2.410775 81.047 -86.5177
2.428244 81.111 -87.0987
2.445840 81.173 -87.6784
2.463564 81.236 -88.2563
2.481416 81.297 -88.8321
2.499397 81.359 -89.4054
2.517509 81.420 -89.9762
2.535752 81.480 -90.5445
2.554127 81.540 -91.1110
2.572635 81.600 -91.6762
2.591277 81.659 -92.2412
2.610055 81.717 -92.8066
2.628968 81.774 -93.3732
2.648019 81.831 -93.9411
2.667208 81.887 -94.5102
2.686535 81.942 -95.0806
2.706003 81.996 -95.6518
2.725612 82.050 -96.2235
2.745363 82.103 -96.7953
2.765257 82.156 -97.3667
2.785295 82.208 -97.9373
2.805478 82.259 -98.5066
2.825808 82.310 -99.0740
2.846285 82.361 -99.6393
2.866910 82.411 -100.2022
2.887685 82.461 -100.7624
2.908611 82.511 -101.3202
2.929688 82.560 -101.8758
2.950917 82.608 -102.4300
2.972301 82.656 -102.9832
2.993839 82.704 -103.5359
3.015534 82.750 -104.0886
3.037386 82.796 -104.6413
3.059396 82.842 -105.1939
3.081565 82.887 -105.7462
3.103896 82.931 -106.2981
3.126388 82.975 -106.8491
3.149043 83.019 -107.3991
3.171862 83.062 -107.9475
3.194847 83.104 -108.4940
3.217998 83.147 -109.0385
3.241317 83.189 -109.5805
3.264805 83.231 -110.1201
3.288463 83.272 -110.6573
3.312293 83.314 -111.1924
3.336295 83.354 -111.7256
3.360471 83.395 -112.2574
3.384822 83.435 -112.7880
3.409350 83.475 -113.3177
3.434056 83.514 -113.8465
3.458940 83.553 -114.3745
3.484005 83.591 -114.9016
3.509252 83.629 -115.4279
3.534681 83.667 -115.9534
3.560295 83.705 -116.4778
3.586094 83.742 -117.0012
3.612081 83.779 -117.5236
3.638255 83.816 -118.0449
3.664620 83.853 -118.5654
3.691175 83.889 -119.0850
3.717923 83.926 -119.6041
3.744864 83.961 -120.1227
3.772001 83.997 -120.6409
3.799335 84.033 -121.1589
3.826866 84.068 -121.6767
3.854597 84.102 -122.1942
3.882529 84.137 -122.7115
3.910664 84.171 -123.2287
3.939002 84.205 -123.7457
3.967546 84.239 -124.2625
3.996296 84.272 -124.7794
4.025255 84.305 -125.2962
4.054423 84.338 -125.8133
4.083804 84.371 -126.3308
4.113396 84.403 -126.8487
4.143204 84.435 -127.3671
4.173227 84.467 -127.8860
4.203468 84.498 -128.4054
4.233928 84.529 -128.9252
4.264609 84.559 -129.4454
4.295512 84.589 -129.9660
4.326639 84.619 -130.4870
4.357992 84.648 -131.0084
4.389572 84.677 -131.5305
4.421380 84.705 -132.0534
4.453419 84.733 -132.5773
4.485691 84.760 -133.1023
4.518196 84.787 -133.6283
4.550936 84.813 -134.1552
4.583914 84.839 -134.6827
4.617131 84.864 -135.2105
4.650589 84.889 -135.7384
4.684289 84.913 -136.2662
4.718233 84.936 -136.7939
4.752424 84.959 -137.3214
4.786862 84.981 -137.8489
4.821549 85.003 -138.3767
4.856488 85.023 -138.9048
4.891680 85.044 -139.4331
4.927127 85.063 -139.9615
4.962831 85.082 -140.4896
4.998794 85.100 -141.0170
5.035017 85.117 -141.5434
5.071503 85.134 -142.0685
5.108253 85.150 -142.5922
5.145270 85.166 -143.1145
5.182555 85.181 -143.6356
5.220110 85.195 -144.1555
5.257937 85.208 -144.6742
5.296038 85.221 -145.1917
5.334415 85.233 -145.7077
5.373071 85.244 -146.2219
5.412006 85.255 -146.7341
5.451224 85.265 -147.2439
5.490725 85.275 -147.7513
5.530514 85.284 -148.2562
5.570590 85.293 -148.7588
5.610957 85.301 -149.2592
5.651616 85.308 -149.7573
5.692570 85.315 -150.2532
5.733821 85.322 -150.7469
5.775370 85.328 -151.2383
5.817221 85.334 -151.7273
5.859375 85.339 -152.2139
5.901834 85.345 -152.6981
5.944602 85.349 -153.1799
5.987679 85.354 -153.6595
6.031068 85.358 -154.1370
6.074771 85.362 -154.6127
6.118792 85.365 -155.0868
6.163131 85.368 -155.5593
6.207792 85.371 -156.0304
6.252776 85.374 -156.5003
6.298086 85.377 -156.9688
6.343725 85.379 -157.4362
6.389694 85.381 -157.9026
6.435996 85.383 -158.3681
6.482634 85.384 -158.8331
6.529610 85.385 -159.2976
6.576926 85.386 -159.7619
6.624585 85.387 -160.2260
6.672590 85.387 -160.6901
6.720942 85.387 -161.1542
6.769645 85.386 -161.6182
6.818700 85.385 -162.0822
6.868111 85.384 -162.5463
6.917881 85.382 -163.0104
6.968010 85.379 -163.4747
7.018504 85.376 -163.9392
7.069362 85.372 -164.4038
7.120590 85.368 -164.8684
7.172189 85.363 -165.3328
7.224161 85.358 -165.7969
7.276511 85.352 -166.2603
7.329239 85.345 -166.7231
7.382350 85.337 -167.1852
7.435845 85.329 -167.6463
7.489729 85.320 -168.1064
7.544002 85.310 -168.5651
7.598669 85.300 -169.0223
7.653732 85.289 -169.4776
7.709194 85.277 -169.9308
7.765058 85.264 -170.3818
7.821327 85.251 -170.8305
7.878004 85.237 -171.2767
7.935091 85.222 -171.7204
7.992592 85.207 -172.1613
8.050510 85.191 -172.5992
8.108847 85.175 -173.0341
8.167607 85.158 -173.4659
8.226793 85.141 -173.8946
8.286408 85.123 -174.3203
8.346454 85.104 -174.7431
8.406936 85.086 -175.1629
8.467856 85.067 -175.5798
8.529218 85.047 -175.9939
8.591024 85.027 -176.4053
8.653278 85.007 -176.8141
8.715983 84.986 -177.2206
8.779143 84.965 -177.6249
8.842760 84.944 -178.0271
8.906839 84.923 -178.4274
8.971381 84.901 -178.8258
9.036392 84.879 -179.2225
9.101873 84.856 -179.6177
9.167829 84.833 179.9886
9.234263 84.810 179.5962
9.301178 84.786 179.2052
9.368578 84.761 178.8155
9.436467 84.737 178.4272
9.504847 84.711 178.0403
9.573723 84.685 177.6548
9.643099 84.659 177.2709
9.712976 84.632 176.8887
9.783361 84.604 176.5083
9.854255 84.576 176.1299
9.925663 84.547 175.7537
9.997588 84.518 175.3798
10.070035 84.488 175.0085
10.143007 84.457 174.6399
10.216507 84.426 174.2743
10.290540 84.394 173.9118
10.365109 84.361 173.5526
10.440219 84.328 173.1969
10.515873 84.294 172.8448
10.592076 84.260 172.4966
10.668830 84.225 172.1521
10.746141 84.190 171.8116
10.824012 84.154 171.4753
10.902447 84.118 171.1429
10.981451 84.081 170.8148
11.061027 84.044 170.4907
11.141180 84.007 170.1708
11.221913 83.969 169.8551
11.303232 83.931 169.5435
11.385140 83.892 169.2360
11.467641 83.854 168.9326
11.550741 83.815 168.6331
11.634442 83.775 168.3376
11.718750 83.736 168.0459
11.803669 83.696 167.7581
11.889203 83.656 167.4739
11.975357 83.615 167.1934
12.062136 83.575 166.9164
12.149543 83.534 166.6429
12.237583 83.493 166.3728
12.326262 83.451 166.1061
12.415583 83.410 165.8427
12.505552 83.368 165.5825
12.596172 83.326 165.3256
12.687449 83.283 165.0721
12.779387 83.240 164.8220
12.871992 83.197 164.5753
12.965268 83.153 164.3324
13.059220 83.108 164.0933
13.153852 83.064 163.8584
13.249170 83.019 163.6279
13.345179 82.973 163.4022
13.441884 82.927 163.1816
13.539289 82.880 162.9664
13.637401 82.834 162.7571
13.736223 82.786 162.5540
13.835761 82.739 162.3572
13.936021 82.691 162.1672
14.037007 82.643 161.9840
14.138725 82.595 161.8077
14.241180 82.547 161.6382
14.344377 82.499 161.4754
14.448323 82.451 161.3191
14.553021 82.403 161.1688
14.658478 82.356 161.0242
14.764700 82.309 160.8847
14.871691 82.262 160.7498
14.979457 82.216 160.6190
15.088005 82.169 160.4919
15.197339 82.123 160.3679
15.307465 82.078 160.2468
15.418389 82.032 160.1285
15.530117 81.986 160.0129
15.642655 81.940 159.9002
15.756008 81.894 159.7907
15.870182 81.848 159.6849
15.985184 81.801 159.5834
16.101019 81.754 159.4868
16.217694 81.707 159.3958
16.335214 81.660 159.3110
16.453586 81.612 159.2332
16.572815 81.565 159.1626
16.692909 81.518 159.0997
16.813872 81.470 159.0445
16.935713 81.424 158.9968
17.058436 81.377 158.9563
17.182048 81.332 158.9224
17.306556 81.287 158.8944
17.431967 81.243 158.8715
17.558286 81.199 158.8529
17.685521 81.156 158.8378
17.813677 81.114 158.8256
17.942762 81.073 158.8157
18.072783 81.032 158.8080
18.203746 80.992 158.8025
18.335658 80.952 158.7993
18.468526 80.912 158.7987
18.602356 80.872 158.8013
18.737156 80.833 158.8076
18.872934 80.794 158.8179
19.009695 80.756 158.8325
19.147447 80.718 158.8514
19.286197 80.681 158.8742
19.425953 80.645 158.9005
19.566721 80.609 158.9294
19.708510 80.574 158.9599
19.851326 80.541 158.9912
19.995177 80.507 159.0223
20.140070 80.475 159.0527
20.286013 80.443 159.0822
20.433014 80.411 159.1110
20.581080 80.379 159.1400
20.730219 80.347 159.1703
20.880439 80.315 159.2034
21.031747 80.283 159.2409
21.184152 80.251 159.2842
21.337661 80.219 159.3344
21.492282 80.187 159.3921
21.648024 80.157 159.4570
21.804895 80.128 159.5282
21.962902 80.100 159.6042
22.122054 80.075 159.6828
22.282360 80.050 159.7616
22.443827 80.028 159.8383
22.606464 80.007 159.9109
22.770280 79.987 159.9782
22.935283 79.968 160.0394
23.101481 79.949 160.0948
23.268884 79.931 160.1452
23.437500 79.913 160.1915
23.607338 79.895 160.2352
23.778406 79.877 160.2770
23.950714 79.860 160.3177
24.124271 79.843 160.3572
24.299086 79.826 160.3950
24.475167 79.810 160.4300
24.652524 79.795 160.4613
24.831166 79.780 160.4880
25.011103 79.765 160.5095
25.192344 79.750 160.5259
25.374898 79.736 160.5378
25.558775 79.720 160.5459
25.743984 79.705 160.5513
25.930536 79.689 160.5547
26.118439 79.673 160.5565
26.307704 79.657 160.5566
26.498341 79.641 160.5546
26.690359 79.625 160.5504
26.883768 79.608 160.5441
27.078579 79.590 160.5369
27.274801 79.571 160.5310
27.472446 79.552 160.5295
27.671522 79.531 160.5361
27.872042 79.510 160.5543
28.074014 79.489 160.5863
28.277450 79.470 160.6323
28.482360 79.453 160.6900
28.688755 79.439 160.7543
28.896645 79.428 160.8182
29.106042 79.420 160.8741
29.316957 79.416 160.9148
29.529400 79.413 160.9352
29.743382 79.410 160.9336
29.958915 79.407 160.9115
30.176009 79.402 160.8734
30.394677 79.395 160.8258
30.614929 79.386 160.7758
30.836778 79.374 160.7292
31.060234 79.362 160.6898
31.285309 79.349 160.6588
31.512015 79.336 160.6347
31.740364 79.325 160.6144
31.970368 79.314 160.5943
32.202039 79.304 160.5712
32.435388 79.295 160.5432
32.670428 79.285 160.5099
32.907171 79.275 160.4721
33.145630 79.265 160.4311
33.385817 79.254 160.3882
33.627745 79.243 160.3441
33.871425 79.231 160.2992
34.116871 79.219 160.2531
34.364096 79.207 160.2057
34.613113 79.194 160.1569
34.863934 79.181 160.1074
35.116572 79.167 160.0579
35.371041 79.153 160.0093
35.627354 79.139 159.9622
35.885525 79.124 159.9166
36.145566 79.109 159.8719
36.407492 79.095 159.8269
36.671316 79.080 159.7807
36.937051 79.065 159.7326
37.204712 79.051 159.6825
37.474313 79.035 159.6309
37.745867 79.020 159.5784
38.019389 79.004 159.5258
38.294893 78.987 159.4736
38.572394 78.971 159.4220
38.851905 78.954 159.3708
39.133442 78.938 159.3196
39.417019 78.921 159.2681
39.702651 78.905 159.2161
39.990353 78.888 159.1637
40.280140 78.872 159.1107
40.572026 78.855 159.0570
40.866028 78.839 159.0025
41.162160 78.822 158.9467
41.460438 78.806 158.8892
41.760877 78.789 158.8300
42.063494 78.772 158.7694
42.368303 78.755 158.7079
42.675322 78.738 158.6461
42.984565 78.720 158.5841
43.296048 78.702 158.5221
43.609789 78.684 158.4594
43.925804 78.666 158.3959
44.244108 78.647 158.3315
44.564719 78.627 158.2672
44.887654 78.607 158.2047
45.212928 78.586 158.1457
45.540560 78.564 158.0917
45.870565 78.543 158.0431
46.202962 78.521 157.9992
46.537768 78.500 157.9585
46.875000 78.479 157.9191
47.214676 78.458 157.8797
47.556813 78.437 157.8395
47.901429 78.417 157.7982
48.248542 78.396 157.7560
48.598171 78.375 157.7128
48.950334 78.353 157.6689
49.305048 78.332 157.6244
49.662333 78.309 157.5795
50.022206 78.287 157.5345
50.384688 78.264 157.4902
50.749796 78.241 157.4468
51.117550 78.218 157.4045
51.487969 78.194 157.3633
51.861072 78.171 157.3231
52.236879 78.147 157.2838
52.615409 78.124 157.2451
52.996681 78.100 157.2071
53.380717 78.076 157.1695
53.767536 78.053 157.1322
54.157158 78.029 157.0953
54.549603 78.005 157.0594
54.944892 77.981 157.0245
55.343045 77.957 156.9908
55.744084 77.933 156.9575
56.148028 77.908 156.9238
56.554900 77.884 156.8894
56.964720 77.859 156.8555
57.377510 77.833 156.8246
57.793291 77.807 156.7998
58.212085 77.780 156.7828
58.633914 77.754 156.7726
59.058799 77.729 156.7657
59.486764 77.706 156.7574
59.917829 77.682 156.7450
60.352019 77.659 156.7282
60.789354 77.635 156.7092
61.229859 77.611 156.6910
61.673556 77.587 156.6758
62.120468 77.562 156.6642
62.570618 77.537 156.6562
63.024031 77.513 156.6517
63.480729 77.489 156.6506
63.940736 77.464 156.6532
64.404077 77.440 156.6598
64.870776 77.416 156.6708
65.340856 77.392 156.6865
65.814343 77.368 156.7059
66.291261 77.346 156.7253
66.771635 77.324 156.7383
67.255489 77.303 156.7387
67.742850 77.280 156.7245
68.233743 77.256 156.7002
68.728193 77.228 156.6740
69.226226 77.199 156.6532
69.727867 77.169 156.6411
70.233144 77.138 156.6365
70.742083 77.108 156.6372
71.254709 77.078 156.6410
71.771050 77.049 156.6467
72.291132 77.021 156.6530
72.814984 76.994 156.6589
73.342631 76.968 156.6642
73.874102 76.941 156.6703
74.409424 76.915 156.6787
74.948626 76.889 156.6909
75.491734 76.864 156.7071
76.038779 76.838 156.7272
76.589787 76.812 156.7512
77.144788 76.786 156.7789
77.703811 76.761 156.8096
78.266885 76.735 156.8416
78.834039 76.709 156.8728
79.405303 76.684 156.9019
79.980706 76.658 156.9290
80.560280 76.632 156.9548
81.144053 76.606 156.9804
81.732056 76.579 157.0065
82.324320 76.553 157.0337
82.920876 76.527 157.0629
83.521755 76.502 157.0947
84.126988 76.477 157.1293
84.736607 76.452 157.1666
85.350643 76.427 157.2063
85.969129 76.402 157.2486
86.592097 76.376 157.2945
87.219579 76.350 157.3452
87.851608 76.324 157.4017
88.488217 76.298 157.4636
89.129439 76.273 157.5278
89.775308 76.248 157.5887
90.425856 76.224 157.6409
91.081119 76.200 157.6819
91.741131 76.175 157.7145
92.405925 76.149 157.7440
93.075536 76.123 157.7746
93.750000 76.097 157.8081
94.429351 76.071 157.8445
95.113625 76.047 157.8833
95.802858 76.023 157.9241
96.497085 75.999 157.9670
97.196342 75.975 158.0132
97.900667 75.952 158.0638
98.610096 75.928 158.1193
99.324665 75.904 158.1794
100.044413 75.880 158.2428
100.769376 75.856 158.3079
101.499592 75.832 158.3733
102.235100 75.808 158.4380
102.975938 75.783 158.5017
103.722144 75.759 158.5640
104.473757 75.735 158.6252
105.230817 75.712 158.6860
105.993363 75.688 158.7476
106.761435 75.666 158.8116
107.535072 75.643 158.8795
108.314315 75.620 158.9527
109.099206 75.597 159.0315
109.889783 75.574 159.1143
110.686090 75.550 159.1982
111.488167 75.526 159.2794
112.296056 75.502 159.3539
113.109800 75.479 159.4192
113.929440 75.456 159.4747
114.755020 75.434 159.5219
115.586582 75.413 159.5628
116.424170 75.393 159.5992
117.267827 75.374 159.6339
118.117598 75.354 159.6708
118.973527 75.333 159.7170
119.835658 75.311 159.7820
120.704037 75.287 159.8722
121.578708 75.262 159.9850
122.459718 75.238 160.1107
123.347111 75.214 160.2395
124.240935 75.190 160.3655
125.141236 75.166 160.4854
126.048061 75.143 160.5974
126.961458 75.120 160.7004
127.881473 75.098 160.7936
128.808154 75.075 160.8772
129.741551 75.052 160.9528
130.681712 75.029 161.0239
131.628686 75.005 161.0952
132.582521 74.982 161.1726
133.543269 74.958 161.2614
134.510979 74.935 161.3631
135.485701 74.912 161.4755
136.467486 74.889 161.5962
137.456386 74.864 161.7251
138.452451 74.838 161.8610
139.455735 74.812 161.9994
140.466288 74.787 162.1337
141.484165 74.764 162.2560
142.509418 74.745 162.3583
143.542100 74.727 162.4385
144.582265 74.710 162.5062
145.629968 74.692 162.5783
146.685262 74.674 162.6683
147.748204 74.656 162.7787
148.818849 74.640 162.9010
149.897251 74.625 163.0237
150.983469 74.613 163.1376
152.077557 74.603 163.2384
153.179574 74.595 163.3267
154.289576 74.588 163.4077
155.407622 74.579 163.4880
156.533770 74.567 163.5723
157.668078 74.550 163.6608
158.810606 74.529 163.7517
159.961413 74.503 163.8455
161.120559 74.474 163.9433
162.288105 74.445 164.0462
163.464112 74.416 164.1555
164.648640 74.391 164.2726
165.841752 74.368 164.3971
167.043510 74.348 164.5263
168.253976 74.330 164.6569
169.473213 74.312 164.7858
170.701286 74.293 164.9109
171.938258 74.274 165.0318
173.184194 74.255 165.1495
174.439158 74.236 165.2662
175.703216 74.217 165.3835
176.976434 74.198 165.5021
178.258878 74.179 165.6212
179.550615 74.161 165.7391
180.851713 74.142 165.8547
182.162239 74.123 165.9683
183.482262 74.105 166.0815
184.811850 74.087 166.1982
186.151073 74.069 166.3224
187.500000 74.051 166.4569
188.858702 74.034 166.6013
190.227250 74.016 166.7520
191.605715 73.999 166.9030
192.994169 73.982 167.0481
194.392685 73.966 167.1818
195.801334 73.951 167.3018
197.220191 73.937 167.4109
198.649330 73.923 167.5157
200.088825 73.908 167.6234
201.538751 73.893 167.7385
202.999184 73.877 167.8615
204.470200 73.861 167.9904
205.951875 73.844 168.1236
207.444287 73.827 168.2617
208.947514 73.811 168.4055
210.461634 73.796 168.5544
211.986726 73.780 168.7059
213.522869 73.764 168.8565
215.070144 73.748 169.0047
216.628631 73.731 169.1510
218.198411 73.713 169.2965
219.779567 73.696 169.4420
221.372180 73.679 169.5878
222.976334 73.663 169.7331
224.592112 73.647 169.8763
226.219600 73.630 170.0161
227.858880 73.613 170.1536
229.510039 73.595 170.2940
231.173164 73.577 170.4431
232.848340 73.558 170.6022
234.535655 73.539 170.7665
236.235197 73.521 170.9288
237.947054 73.503 171.0838
239.671317 73.487 171.2289
241.408074 73.473 171.3640
243.157416 73.461 171.4930
244.919435 73.449 171.6228
246.694223 73.438 171.7579
248.481871 73.425 171.8989
250.282473 73.411 172.0439
252.096123 73.397 172.1920
253.922915 73.382 172.3436
255.762945 73.367 172.4991
257.616309 73.352 172.6581
259.483103 73.337 172.8191
261.363424 73.323 172.9807
263.257372 73.309 173.1422
265.165043 73.295 173.3033
267.086538 73.282 173.4634
269.021957 73.269 173.6229
270.971401 73.255 173.7827
272.934972 73.242 173.9447
274.912771 73.227 174.1107
276.904902 73.212 174.2813
278.911469 73.196 174.4555
280.932577 73.179 174.6313
282.968330 73.162 174.8074
285.018835 73.145 174.9834
287.084199 73.128 175.1600
289.164530 73.110 175.3380
291.259935 73.093 175.5175
293.370525 73.075 175.6990
295.496408 73.058 175.8838
297.637697 73.041 176.0728
299.794503 73.025 176.2669
301.966937 73.008 176.4657
304.155114 72.991 176.6680
306.359147 72.974 176.8737
308.579152 72.955 177.0848
310.815244 72.935 177.3050
313.067539 72.914 177.5385
315.336156 72.894 177.7890
317.621211 72.874 178.0603
319.922826 72.857 178.3542
322.241118 72.843 178.6680
324.576210 72.834 178.9937
326.928223 72.829 179.3224
329.297280 72.829 179.6495
331.683504 72.833 179.9745
334.087019 72.843 -179.7012
336.507952 72.859 -179.3775
338.946427 72.880 -179.0582
341.402572 72.905 -178.7518
343.876516 72.935 -178.4709
346.368387 72.965 -178.2288
348.878315 72.995 -178.0336
351.406431 73.022 -177.8864
353.952867 73.045 -177.7856
356.517756 73.064 -177.7301
359.101230 73.080 -177.7176
361.703426 73.091 -177.7403
364.324478 73.099 -177.7841
366.964523 73.102 -177.8320
369.623699 73.100 -177.8703
372.302145 73.095 -177.8891
375.000000 73.086 -177.8828
377.717405 73.075 -177.8498
380.454501 73.063 -177.7924
383.211431 73.050 -177.7156
385.988339 73.037 -177.6249
388.785369 73.023 -177.5244
391.602668 73.010 -177.4164
394.440383 72.996 -177.3011
397.298660 72.982 -177.1781
400.177650 72.968 -177.0460
403.077502 72.954 -176.9021
405.998368 72.939 -176.7438
408.940400 72.923 -176.5715
411.903750 72.907 -176.3896
414.888575 72.892 -176.2045
417.895028 72.879 -176.0212
420.923268 72.868 -175.8417
423.973452 72.859 -175.6663
427.045738 72.852 -175.4953
430.140287 72.844 -175.3280
433.257261 72.836 -175.1615
436.396822 72.827 -174.9930
439.559133 72.818 -174.8227
442.744360 72.808 -174.6518
445.952668 72.798 -174.4780
449.184225 72.787 -174.2966
452.439199 72.777 -174.1071
455.717760 72.768 -173.9139
459.020079 72.759 -173.7202
462.346327 72.751 -173.5257
465.696680 72.742 -173.3295
469.071310 72.734 -173.1315
472.470394 72.726 -172.9317
475.894109 72.718 -172.7305
479.342634 72.711 -172.5271
482.816148 72.706 -172.3206
486.314833 72.700 -172.1108
489.838871 72.696 -171.8994
493.388445 72.691 -171.6886
496.963741 72.686 -171.4802
500.564945 72.681 -171.2742
504.192245 72.675 -171.0688
507.845830 72.669 -170.8622
511.525890 72.663 -170.6530
515.232618 72.657 -170.4410
518.966206 72.652 -170.2261
522.726849 72.646 -170.0079
526.514743 72.641 -169.7867
530.330086 72.636 -169.5629
534.173076 72.630 -169.3377
538.043915 72.625 -169.1116
541.942803 72.620 -168.8849
545.869944 72.615 -168.6570
549.825542 72.610 -168.4274
553.809805 72.605 -168.1955
557.822939 72.601 -167.9612
561.865154 72.597 -167.7245
565.936660 72.593 -167.4863
570.037671 72.590 -167.2468
574.168399 72.587 -167.0065
578.329060 72.585 -166.7646
582.519870 72.582 -166.5202
586.741049 72.580 -166.2726
590.992817 72.579 -166.0215
595.275394 72.577 -165.7675
599.589005 72.576 -165.5114
603.933874 72.575 -165.2538
608.310228 72.573 -164.9948
612.718295 72.573 -164.7336
617.158304 72.572 -164.4698
621.630488 72.572 -164.2040
626.135079 72.573 -163.9368
630.672311 72.574 -163.6680
635.242423 72.575 -163.3968
639.845651 72.576 -163.1222
644.482237 72.577 -162.8437
649.152421 72.579 -162.5617
653.856447 72.581 -162.2767
658.594560 72.584 -161.9893
663.367008 72.587 -161.7000
668.174039 72.591 -161.4088
673.015903 72.595 -161.1157
677.892854 72.600 -160.8207
682.805145 72.604 -160.5237
687.753032 72.610 -160.2248
692.736774 72.616 -159.9241
697.756631 72.622 -159.6217
702.812863 72.629 -159.3179
707.905735 72.637 -159.0125
713.035511 72.645 -158.7048
718.202461 72.654 -158.3938
723.406852 72.663 -158.0789
728.648956 72.673 -157.7602
733.929047 72.684 -157.4379
739.247399 72.694 -157.1120
744.604290 72.706 -156.7828
750.000000 72.718 -156.4509
755.434809 72.731 -156.1169
760.909001 72.744 -155.7810
766.422861 72.759 -155.4434
771.976677 72.774 -155.1037
777.570739 72.790 -154.7619
783.205337 72.807 -154.4181
788.880766 72.825 -154.0726
794.597321 72.844 -153.7256
800.355301 72.864 -153.3778
806.155005 72.884 -153.0293
811.996736 72.906 -152.6799
817.880799 72.929 -152.3297
823.807501 72.953 -151.9787
829.777150 72.978 -151.6268
835.790057 73.004 -151.2740
841.846536 73.031 -150.9207
847.946903 73.060 -150.5671
854.091476 73.090 -150.2138
860.280575 73.121 -149.8612
866.514523 73.153 -149.5096
872.793644 73.187 -149.1593
879.118267 73.222 -148.8107
885.488720 73.259 -148.4641
891.905336 73.296 -148.1205
898.368450 73.335 -147.7806
904.878398 73.375 -147.4446
911.435520 73.416 -147.1125
918.040157 73.459 -146.7841
924.692655 73.502 -146.4592
931.393359 73.547 -146.1381
938.142619 73.593 -145.8213
944.940787 73.640 -145.5096
951.788218 73.688 -145.2036
958.685268 73.738 -144.9040
965.632296 73.789 -144.6118
972.629666 73.841 -144.3274
979.677741 73.894 -144.0509
986.776890 73.949 -143.7823
993.927482 74.004 -143.5217
1001.129891 74.060 -143.2695
1008.384491 74.118 -143.0260
1015.691660 74.176 -142.7918
1023.051781 74.234 -142.5670
1030.465236 74.294 -142.3515
1037.932411 74.353 -142.1451
1045.453698 74.413 -141.9478
1053.029486 74.474 -141.7601
1060.660172 74.535 -141.5827
1068.346153 74.596 -141.4159
1076.087829 74.658 -141.2598
1083.885605 74.719 -141.1145
1091.739887 74.780 -140.9797
1099.651084 74.842 -140.8549
1107.619609 74.903 -140.7395
1115.645878 74.964 -140.6338
1123.730308 75.025 -140.5380
1131.873321 75.086 -140.4523
1140.075341 75.146 -140.3760
1148.336797 75.206 -140.3081
1156.658119 75.265 -140.2477
1165.039741 75.324 -140.1945
1173.482099 75.382 -140.1485
1181.985634 75.439 -140.1095
1190.550789 75.496 -140.0773
1199.178011 75.552 -140.0517
1207.867749 75.607 -140.0321
1216.620457 75.662 -140.0179
1225.436590 75.716 -140.0081
1234.316609 75.770 -140.0019
1243.260976 75.822 -139.9988
1252.270157 75.874 -139.9985
1261.344623 75.925 -140.0014
1270.484846 75.976 -140.0080
1279.691303 76.025 -140.0182
1288.964474 76.074 -140.0319
1298.304842 76.122 -140.0485
1307.712894 76.169 -140.0676
1317.189120 76.216 -140.0887
1326.734016 76.262 -140.1110
1336.348077 76.308 -140.1342
1346.031806 76.354 -140.1578
1355.785708 76.399 -140.1817
1365.610290 76.443 -140.2058
1375.506065 76.487 -140.2300
1385.473549 76.531 -140.2542
1395.513261 76.574 -140.2781
1405.625726 76.616 -140.3022
1415.811469 76.659 -140.3267
1426.071023 76.702 -140.3519
1436.404921 76.744 -140.3780
1446.813703 76.787 -140.4046
1457.297912 76.829 -140.4315
1467.858093 76.871 -140.4581
1478.494798 76.914 -140.4841
1489.208581 76.956 -140.5094
1500.000000 76.998 -140.5344
1510.869618 77.040 -140.5595
1521.818002 77.082 -140.5850
1532.845723 77.124 -140.6111
1543.953355 77.167 -140.6378
1555.141477 77.209 -140.6648
1566.410674 77.252 -140.6918
1577.761531 77.295 -140.7191
1589.194642 77.338 -140.7473
1600.710601 77.382 -140.7764
1612.310010 77.426 -140.8067
1623.993473 77.470 -140.8384
1635.761599 77.514 -140.8718
1647.615002 77.559 -140.9072
1659.554299 77.604 -140.9451
1671.580114 77.650 -140.9856
1683.693072 77.695 -141.0287
1695.893807 77.742 -141.0746
1708.182952 77.788 -141.1232
1720.561150 77.836 -141.1744
1733.029045 77.884 -141.2282
1745.587288 77.933 -141.2851
1758.236533 77.983 -141.3466
1770.977440 78.035 -141.4144
1783.810673 78.087 -141.4894
1796.736900 78.140 -141.5706
1809.756796 78.193 -141.6562
1822.871040 78.246 -141.7445
1836.080315 78.299 -141.8351
1849.385310 78.352 -141.9290
1862.786718 78.404 -142.0280
1876.285239 78.457 -142.1333
1889.881575 78.509 -142.2456
1903.576436 78.562 -142.3651
1917.370535 78.616 -142.4923
1931.264593 78.670 -142.6276
1945.259332 78.724 -142.7713
1959.355483 78.779 -142.9240
1973.553781 78.834 -143.0859
1987.854965 78.890 -143.2577
2002.259781 78.945 -143.4399
2016.768981 79.001 -143.6327
2031.383320 79.057 -143.8365
2046.103561 79.112 -144.0514
2060.930471 79.168 -144.2775
2075.864823 79.223 -144.5147
2090.907395 79.279 -144.7631
2106.058972 79.334 -145.0224
2121.320344 79.388 -145.2931
2136.692305 79.442 -145.5756
2152.175658 79.496 -145.8704
2167.771210 79.550 -146.1783
2183.479774 79.602 -146.4994
2199.302169 79.655 -146.8342
2215.239219 79.706 -147.1828
2231.291755 79.757 -147.5450
2247.460615 79.807 -147.9210
2263.746641 79.856 -148.3108
2280.150683 79.904 -148.7148
2296.673595 79.951 -149.1329
2313.316238 79.996 -149.5654
2330.079481 80.040 -150.0124
2346.964198 80.083 -150.4739
2363.971268 80.123 -150.9499
2381.101578 80.162 -151.4401
2398.356022 80.199 -151.9442
2415.735498 80.233 -152.4620
2433.240913 80.265 -152.9932
2450.873180 80.294 -153.5374
2468.633217 80.321 -154.0943
2486.521951 80.344 -154.6636
2504.540314 80.365 -155.2448
2522.689246 80.382 -155.8370
2540.969692 80.396 -156.4392
2559.382606 80.406 -157.0498
2577.928947 80.412 -157.6668
2596.609683 80.414 -158.2885
2615.425787 80.412 -158.9130
2634.378241 80.405 -159.5387
2653.468031 80.395 -160.1637
2672.696154 80.380 -160.7863
2692.063613 80.361 -161.4044
2711.571415 80.338 -162.0159
2731.220579 80.310 -162.6187
2751.012130 80.278 -163.2109
2770.947098 80.242 -163.7903
2791.026522 80.201 -164.3545
2811.251451 80.157 -164.9011
2831.622938 80.109 -165.4277
2852.142045 80.058 -165.9324
2872.809842 80.004 -166.4135
2893.627406 79.947 -166.8694
2914.595823 79.887 -167.2992
2935.716186 79.826 -167.7016
2956.989596 79.763 -168.0760
2978.417161 79.699 -168.4217
3000.000000 79.635 -168.7389
3021.739237 79.571 -169.0282
3043.636005 79.507 -169.2906
3065.691446 79.443 -169.5277
3087.906710 79.381 -169.7410
3110.282955 79.320 -169.9323
3132.821347 79.260 -170.1035
3155.523062 79.202 -170.2569
3178.389283 79.146 -170.3946
3201.421202 79.092 -170.5186
3224.620020 79.040 -170.6310
3247.986946 78.991 -170.7340
3271.523198 78.943 -170.8301
3295.230004 78.897 -170.9216
3319.108599 78.854 -171.0105
3343.160228 78.812 -171.0983
3367.386145 78.772 -171.1861
3391.787613 78.734 -171.2753
3416.365904 78.697 -171.3672
3441.122300 78.661 -171.4630
3466.058091 78.625 -171.5640
3491.174576 78.591 -171.6706
3516.473066 78.557 -171.7831
3541.954880 78.523 -171.9008
3567.621345 78.489 -172.0225
3593.473800 78.455 -172.1468
3619.513592 78.421 -172.2727
3645.742080 78.386 -172.3993
3672.160630 78.351 -172.5267
3698.770620 78.317 -172.6554
3725.573436 78.283 -172.7870
3752.570477 78.249 -172.9236
3779.763150 78.214 -173.0673
3807.152872 78.180 -173.2195
3834.741071 78.144 -173.3806
3862.529185 78.108 -173.5508
3890.518664 78.070 -173.7294
3918.710966 78.030 -173.9139
3947.107561 77.988 -174.1001
3975.709929 77.943 -174.2834
4004.519563 77.895 -174.4598
4033.537962 77.845 -174.6270
4062.766641 77.792 -174.7838
4092.207123 77.738 -174.9303
4121.860942 77.683 -175.0669
4151.729646 77.628 -175.1933
4181.814790 77.572 -175.3092
4212.117944 77.517 -175.4147
4242.640687 77.462 -175.5105
4273.384610 77.406 -175.5974
4304.351317 77.351 -175.6764
4335.542421 77.296 -175.7483
4366.959549 77.241 -175.8135
4398.604338 77.186 -175.8723
4430.478438 77.130 -175.9245
4462.583511 77.075 -175.9699
4494.921231 77.019 -176.0082
4527.493283 76.963 -176.0392
4560.301365 76.907 -176.0627
4593.347189 76.851 -176.0782
4626.632476 76.795 -176.0858
4660.158962 76.739 -176.0854
4693.928395 76.683 -176.0771
4727.942535 76.627 -176.0613
4762.203156 76.571 -176.0383
4796.712043 76.516 -176.0085
4831.470996 76.461 -175.9721
4866.481826 76.406 -175.9290
4901.746360 76.351 -175.8792
4937.266434 76.296 -175.8224
4973.043902 76.241 -175.7582
5009.080628 76.186 -175.6857
5045.378492 76.131 -175.6041
5081.939384 76.076 -175.5124
5118.765212 76.022 -175.4103
5155.857894 75.967 -175.2974
5193.219366 75.913 -175.1736
5230.851574 75.860 -175.0387
5268.756481 75.806 -174.8920
5306.936062 75.754 -174.7328
5345.392309 75.702 -174.5603
5384.127225 75.651 -174.3743
5423.142830 75.602 -174.1750
5462.441159 75.553 -173.9628
5502.024259 75.507 -173.7376
5541.894195 75.461 -173.4994
5582.053045 75.418 -173.2478
5622.502902 75.376 -172.9826
5663.245876 75.337 -172.7042
5704.284090 75.299 -172.4132
5745.619684 75.263 -172.1099
5787.254813 75.230 -171.7945
5829.191647 75.199 -171.4668
5871.432373 75.170 -171.1261
5913.979192 75.144 -170.7709
5956.834323 75.121 -170.3996
6000.000000 75.101 -170.0095
6043.478473 75.084 -169.5980
6087.272010 75.072 -169.1627
6131.382892 75.065 -168.7020
6175.813420 75.063 -168.2161
6220.565910 75.070 -167.7066
6265.642695 75.085 -167.1774
6311.046124 75.110 -166.6345
6356.778566 75.146 -166.0862
6402.842404 75.193 -165.5424
6449.240040 75.253 -165.0138
6495.973891 75.326 -164.5115
6543.046396 75.410 -164.0466
6590.460007 75.507 -163.6303
6638.217197 75.615 -163.2731
6686.320456 75.734 -162.9845
6734.772290 75.863 -162.7733
6783.575226 76.002 -162.6475
6832.731809 76.148 -162.6145
6882.244600 76.302 -162.6818
6932.116181 76.462 -162.8565
6982.349153 76.627 -163.1459
7032.946133 76.796 -163.5569
7083.909760 76.967 -164.0966
7135.242690 77.139 -164.7721
7186.947600 77.309 -165.5896
7239.027185 77.475 -166.5541
7291.484160 77.634 -167.6684
7344.321260 77.784 -168.9320
7397.541239 77.921 -170.3402
7451.146872 78.042 -171.8845
7505.140954 78.145 -173.5528
7559.526299 78.226 -175.3294
7614.305743 78.285 -177.1965
7669.482141 78.317 -179.1353
7725.058371 78.323 178.8724
7781.037328 78.302 176.8447
7837.421932 78.254 174.7993
7894.215122 78.178 172.7533
7951.419859 78.076 170.7229
8009.039125 77.950 168.7233
8067.075924 77.799 166.7700
8125.533282 77.625 164.8783
8184.414245 77.430 163.0632
8243.721885 77.214 161.3384
8303.459292 76.980 159.7161
8363.629581 76.730 158.2066
8424.235888 76.465 156.8178
8485.281374 76.188 155.5549
8546.769221 75.902 154.4203
8608.702634 75.607 153.4135
8671.084842 75.308 152.5321
8733.919097 75.005 151.7717
8797.208675 74.699 151.1272
8860.956876 74.393 150.5930
8925.167022 74.087 150.1641
8989.842461 73.782 149.8361
9054.986566 73.479 149.6054
9120.602731 73.178 149.4688
9186.694378 72.880 149.4226
9253.264952 72.585 149.4630
9320.317925 72.295 149.5862
9387.856790 72.010 149.7882
9455.885071 71.730 150.0649
9524.406312 71.456 150.4115
9593.424086 71.189 150.8228
9662.941992 70.928 151.2931
9732.963653 70.674 151.8172
9803.492719 70.427 152.3898
9874.532869 70.187 153.0056
9946.087805 69.954 153.6596
10018.161257 69.728 154.3472
10090.756983 69.509 155.0638
10163.878768 69.295 155.8051
10237.530423 69.088 156.5676
10311.715789 68.885 157.3490
10386.438732 68.686 158.1488
10461.703149 68.490 158.9673
10537.512962 68.298 159.8051
10613.872125 68.109 160.6645
10690.784618 67.922 161.5486
10768.254450 67.737 162.4625
10846.285661 67.556 163.4119
10924.882318 67.377 164.4029
11004.048518 67.200 165.4406
11083.788390 67.027 166.5286
11164.106090 66.858 167.6699
11245.005805 66.694 168.8676
11326.491752 66.535 170.1241
11408.568180 66.383 171.4403
11491.239368 66.239 172.8157
11574.509626 66.104 174.2491
11658.383294 65.979 175.7387
11742.864745 65.866 177.2819
11827.958384 65.765 178.8755
11913.668646 65.676 -179.4835
12000.000000 65.600 -177.7981
12086.956947 65.538 -176.0704
12174.544019 65.490 -174.3026
12262.765784 65.457 -172.4967
12351.626840 65.440 -170.6546
12441.131819 65.439 -168.7783
12531.285389 65.457 -166.8694
12622.092249 65.493 -164.9289
12713.557132 65.549 -162.9576
12805.684808 65.628 -160.9566
12898.480079 65.733 -158.9288
12991.947783 65.865 -156.8800
13086.092792 66.029 -154.8201
13180.920015 66.228 -152.7651
13276.434395 66.464 -150.7392
13372.640911 66.741 -148.7754
13469.544580 67.060 -146.9148
13567.150452 67.422 -145.2038
13665.463617 67.827 -143.6919
13764.489200 68.271 -142.4270
13864.232362 68.751 -141.4526
13964.698305 69.264 -140.8043
14065.892266 69.806 -140.5101
14167.819519 70.371 -140.5932
14270.485380 70.957 -141.0760
14373.895200 71.559 -141.9851
14478.054370 72.172 -143.3522
14582.968320 72.788 -145.2132
14688.642520 73.397 -147.6027
14795.082478 73.986 -150.5454
14902.293745 74.540 -154.0478
15010.281908 75.038 -158.0898
15119.052599 75.463 -162.6187
15228.611486 75.793 -167.5484
15338.964283 76.011 -172.7641
15450.116741 76.102 -178.1296
15562.074656 76.059 176.5048
15674.843864 75.880 171.2960
15788.430244 75.572 166.3971
15902.839718 75.148 161.9444
16018.078250 74.625 158.0454
16134.151848 74.025 154.7728
16251.066563 73.368 152.1632
16368.828491 72.676 150.2210
16487.443769 71.968 148.9241
16606.918584 71.259 148.2316
16727.259161 70.564 148.0909
16848.471777 69.893 148.4440
16970.562748 69.252 149.2323
17093.538442 68.648 150.3986
17217.405268 68.084 151.8890
17342.169684 67.563 153.6544
17467.838194 67.086 155.6507
17594.417350 66.655 157.8390
17721.913751 66.270 160.1844
17850.334044 65.932 162.6547
17979.684923 65.641 165.2188
18109.973131 65.397 167.8447
18241.205462 65.200 170.4988
18373.388756 65.050 173.1445
18506.529905 64.947 175.7415
18640.635849 64.888 178.2455
18775.713581 64.873 -179.3922
18911.770141 64.899 -177.2246
19048.812624 64.959 -175.3066
19186.848172 65.049 -173.6918
19325.883983 65.159 -172.4246
19465.927305 65.279 -171.5300
19606.985439 65.396 -170.9994
19749.065738 65.499 -170.7770
19892.175609 65.574 -170.7556
20036.322514 65.614 -170.7987
