* Measurement data measured by REW V5.31.3
* Source: Headset (CX31993 HIFI AUDIO), MICROPHONE (Master Volume), R, volume: 0.400
* Format: 256k Log Swept Sine, 1 sweep at -11.9 dBFS with no timing reference
* Dated: 07 7, 25 1:16:14 PM
* REW Settings:
*  C-weighting compensation: Off
*  Target level: 75.0 dB
* Note: ; 
* Measurement: Senheiser IE 200 BT20 g L
* Smoothing: 1/12 octave
* Frequency Step: 96 ppo
* Start Frequency: 0.36621094 Hz
*
* Freq(Hz) SPL(dB) Phase(degrees)
0.366211 32.663 -92.4379
0.368865 32.660 -92.5176
0.371538 32.655 -92.6379
0.374230 32.650 -92.7904
0.376942 32.644 -92.9681
0.379673 32.637 -93.1658
0.382424 32.630 -93.3801
0.385196 32.623 -93.6089
0.387987 32.616 -93.8510
0.390798 32.609 -94.1058
0.393630 32.602 -94.3731
0.396483 32.594 -94.6527
0.399356 32.587 -94.9447
0.402250 32.579 -95.2491
0.405165 32.572 -95.5660
0.408101 32.564 -95.8955
0.411058 32.556 -96.2376
0.414037 32.549 -96.5925
0.417037 32.541 -96.9602
0.420059 32.533 -97.3409
0.423103 32.525 -97.7345
0.426169 32.517 -98.1411
0.429257 32.509 -98.5609
0.432368 32.501 -98.9938
0.435501 32.493 -99.4399
0.438656 32.485 -99.8992
0.441835 32.476 -100.3718
0.445037 32.468 -100.8576
0.448262 32.460 -101.3567
0.451510 32.451 -101.8691
0.454782 32.443 -102.3947
0.458077 32.434 -102.9335
0.461397 32.425 -103.4856
0.464740 32.417 -104.0508
0.468108 32.408 -104.6292
0.471500 32.399 -105.2206
0.474917 32.390 -105.8249
0.478358 32.381 -106.4422
0.481825 32.372 -107.0724
0.485316 32.363 -107.7152
0.488833 32.354 -108.3707
0.492375 32.345 -109.0387
0.495943 32.336 -109.7191
0.499537 32.326 -110.4117
0.503157 32.317 -111.1166
0.506803 32.308 -111.8334
0.510475 32.298 -112.5622
0.514175 32.288 -113.3026
0.517900 32.279 -114.0547
0.521653 32.269 -114.8183
0.525434 32.259 -115.5932
0.529241 32.249 -116.3793
0.533076 32.239 -117.1766
0.536939 32.229 -117.9847
0.540830 32.219 -118.8038
0.544749 32.209 -119.6335
0.548696 32.199 -120.4740
0.552673 32.188 -121.3251
0.556677 32.178 -122.1867
0.560711 32.167 -123.0588
0.564774 32.157 -123.9415
0.568867 32.146 -124.8347
0.572989 32.136 -125.7385
0.577141 32.125 -126.6530
0.581324 32.114 -127.5782
0.585536 32.103 -128.5145
0.589779 32.092 -129.4618
0.594053 32.081 -130.4206
0.598358 32.070 -131.3911
0.602694 32.058 -132.3737
0.607061 32.047 -133.3688
0.611460 32.036 -134.3768
0.615891 32.024 -135.3984
0.620354 32.013 -136.4342
0.624849 32.001 -137.4848
0.629377 31.989 -138.5512
0.633938 31.977 -139.6341
0.638532 31.965 -140.7346
0.643159 31.953 -141.8539
0.647819 31.941 -142.9932
0.652514 31.929 -144.1538
0.657242 31.917 -145.3373
0.662005 31.904 -146.5453
0.666802 31.892 -147.7798
0.671634 31.879 -149.0427
0.676501 31.867 -150.3362
0.681403 31.854 -151.6628
0.686341 31.842 -153.0252
0.691314 31.829 -154.4263
0.696324 31.817 -155.8693
0.701370 31.805 -157.3577
0.706452 31.795 -158.8954
0.711571 31.787 -160.4866
0.716728 31.783 -162.1360
0.721921 31.785 -163.8483
0.727153 31.797 -165.6286
0.732422 31.820 -167.4813
0.737729 31.858 -169.4100
0.743075 31.909 -171.4165
0.748460 31.971 -173.5007
0.753883 32.044 -175.6603
0.759346 32.124 -177.8913
0.764849 32.210 179.8119
0.770391 32.303 177.4562
0.775974 32.401 175.0495
0.781597 32.504 172.6006
0.787261 32.612 170.1190
0.792966 32.724 167.6147
0.798712 32.842 165.0977
0.804500 32.964 162.5781
0.810329 33.090 160.0657
0.816201 33.222 157.5699
0.822116 33.357 155.0992
0.828073 33.498 152.6615
0.834074 33.642 150.2634
0.840118 33.791 147.9107
0.846206 33.945 145.6081
0.852338 34.102 143.3593
0.858514 34.264 141.1669
0.864735 34.430 139.0325
0.871001 34.599 136.9571
0.877313 34.773 134.9406
0.883670 34.950 132.9825
0.890074 35.131 131.0818
0.896524 35.315 129.2369
0.903020 35.503 127.4458
0.909564 35.694 125.7063
0.916155 35.888 124.0161
0.922794 36.086 122.3725
0.929481 36.286 120.7729
0.936216 36.488 119.2146
0.943000 36.694 117.6949
0.949834 36.901 116.2112
0.956717 37.111 114.7606
0.963649 37.323 113.3407
0.970632 37.537 111.9490
0.977666 37.752 110.5829
0.984750 37.968 109.2402
0.991886 38.186 107.9185
0.999074 38.404 106.6159
1.006314 38.624 105.3301
1.013606 38.843 104.0593
1.020951 39.063 102.8017
1.028349 39.282 101.5555
1.035801 39.501 100.3190
1.043307 39.719 99.0909
1.050867 39.937 97.8699
1.058482 40.153 96.6549
1.066152 40.367 95.4451
1.073878 40.581 94.2403
1.081660 40.793 93.0409
1.089498 41.004 91.8481
1.097393 41.215 90.6641
1.105345 41.426 89.4919
1.113355 41.637 88.3350
1.121423 41.851 87.1964
1.129549 42.066 86.0782
1.137734 42.284 84.9823
1.145979 42.504 83.9094
1.154283 42.726 82.8600
1.162647 42.951 81.8342
1.171072 43.178 80.8316
1.179558 43.407 79.8519
1.188106 43.638 78.8944
1.196715 43.872 77.9584
1.205387 44.107 77.0432
1.214122 44.344 76.1478
1.222920 44.583 75.2714
1.231782 44.823 74.4129
1.240708 45.065 73.5715
1.249699 45.307 72.7461
1.258754 45.551 71.9358
1.267876 45.796 71.1394
1.277063 46.042 70.3560
1.286318 46.289 69.5845
1.295639 46.536 68.8241
1.305027 46.783 68.0736
1.314484 47.030 67.3322
1.324009 47.278 66.5987
1.333604 47.525 65.8723
1.343268 47.771 65.1521
1.353002 48.017 64.4371
1.362806 48.262 63.7265
1.372681 48.505 63.0192
1.382628 48.747 62.3146
1.392647 48.988 61.6117
1.402739 49.227 60.9099
1.412904 49.463 60.2083
1.423142 49.697 59.5066
1.433455 49.929 58.8044
1.443843 50.158 58.1017
1.454305 50.384 57.3991
1.464844 50.608 56.6974
1.475459 50.828 55.9980
1.486150 51.046 55.3023
1.496920 51.262 54.6114
1.507767 51.475 53.9260
1.518693 51.686 53.2467
1.529698 51.894 52.5734
1.540783 52.100 51.9062
1.551948 52.305 51.2447
1.563194 52.507 50.5886
1.574521 52.707 49.9374
1.585931 52.906 49.2908
1.597423 53.102 48.6483
1.608999 53.297 48.0094
1.620658 53.490 47.3735
1.632402 53.682 46.7401
1.644232 53.873 46.1088
1.656146 54.062 45.4789
1.668147 54.250 44.8499
1.680235 54.437 44.2212
1.692411 54.623 43.5923
1.704675 54.808 42.9626
1.717028 54.992 42.3315
1.729470 55.176 41.6985
1.742003 55.360 41.0630
1.754626 55.544 40.4245
1.767341 55.727 39.7825
1.780147 55.910 39.1364
1.793047 56.094 38.4860
1.806040 56.277 37.8311
1.819128 56.460 37.1717
1.832310 56.643 36.5082
1.845587 56.825 35.8413
1.858961 57.007 35.1718
1.872432 57.187 34.5004
1.886001 57.365 33.8279
1.899667 57.543 33.1550
1.913433 57.718 32.4823
1.927299 57.893 31.8101
1.941265 58.066 31.1387
1.955332 58.237 30.4685
1.969501 58.407 29.7996
1.983773 58.576 29.1321
1.998148 58.744 28.4660
2.012627 58.911 27.8015
2.027212 59.076 27.1383
2.041902 59.241 26.4765
2.056698 59.405 25.8158
2.071602 59.568 25.1561
2.086614 59.730 24.4971
2.101734 59.892 23.8385
2.116964 60.053 23.1799
2.132304 60.214 22.5211
2.147756 60.375 21.8615
2.163320 60.535 21.2006
2.178996 60.695 20.5381
2.194786 60.854 19.8734
2.210690 61.012 19.2063
2.226710 61.169 18.5365
2.242845 61.326 17.8641
2.259098 61.481 17.1895
2.275468 61.635 16.5130
2.291957 61.787 15.8351
2.308566 61.938 15.1564
2.325295 62.088 14.4771
2.342145 62.237 13.7979
2.359117 62.385 13.1190
2.376212 62.532 12.4409
2.393431 62.678 11.7638
2.410775 62.822 11.0879
2.428244 62.966 10.4133
2.445840 63.110 9.7402
2.463564 63.252 9.0687
2.481416 63.394 8.3986
2.499397 63.535 7.7297
2.517509 63.676 7.0616
2.535752 63.816 6.3940
2.554127 63.955 5.7260
2.572635 64.094 5.0569
2.591277 64.231 4.3861
2.610055 64.368 3.7131
2.628968 64.503 3.0377
2.648019 64.638 2.3602
2.667208 64.771 1.6809
2.686535 64.902 1.0005
2.706003 65.033 0.3195
2.725612 65.163 -0.3617
2.745363 65.291 -1.0422
2.765257 65.419 -1.7216
2.785295 65.546 -2.3994
2.805478 65.671 -3.0752
2.825808 65.797 -3.7485
2.846285 65.921 -4.4193
2.866910 66.045 -5.0874
2.887685 66.168 -5.7531
2.908611 66.290 -6.4167
2.929688 66.412 -7.0792
2.950917 66.533 -7.7413
2.972301 66.652 -8.4037
2.993839 66.771 -9.0671
3.015534 66.889 -9.7314
3.037386 67.005 -10.3965
3.059396 67.120 -11.0620
3.081565 67.235 -11.7273
3.103896 67.348 -12.3918
3.126388 67.461 -13.0551
3.149043 67.572 -13.7164
3.171862 67.683 -14.3752
3.194847 67.793 -15.0310
3.217998 67.903 -15.6836
3.241317 68.012 -16.3328
3.264805 68.120 -16.9788
3.288463 68.227 -17.6221
3.312293 68.334 -18.2632
3.336295 68.440 -18.9030
3.360471 68.545 -19.5420
3.384822 68.649 -20.1805
3.409350 68.753 -20.8185
3.434056 68.855 -21.4557
3.458940 68.956 -22.0918
3.484005 69.057 -22.7262
3.509252 69.157 -23.3585
3.534681 69.256 -23.9883
3.560295 69.355 -24.6150
3.586094 69.453 -25.2383
3.612081 69.551 -25.8582
3.638255 69.648 -26.4746
3.664620 69.745 -27.0878
3.691175 69.841 -27.6984
3.717923 69.937 -28.3068
3.744864 70.032 -28.9135
3.772001 70.126 -29.5184
3.799335 70.220 -30.1219
3.826866 70.312 -30.7236
3.854597 70.405 -31.3235
3.882529 70.497 -31.9211
3.910664 70.588 -32.5165
3.939002 70.679 -33.1093
3.967546 70.770 -33.6994
3.996296 70.860 -34.2868
4.025255 70.950 -34.8716
4.054423 71.040 -35.4541
4.083804 71.130 -36.0344
4.113396 71.219 -36.6130
4.143204 71.307 -37.1901
4.173227 71.395 -37.7655
4.203468 71.483 -38.3395
4.233928 71.570 -38.9121
4.264609 71.657 -39.4833
4.295512 71.744 -40.0530
4.326639 71.831 -40.6213
4.357992 71.917 -41.1882
4.389572 72.003 -41.7538
4.421380 72.089 -42.3182
4.453419 72.175 -42.8816
4.485691 72.260 -43.4442
4.518196 72.346 -44.0061
4.550936 72.430 -44.5674
4.583914 72.515 -45.1282
4.617131 72.599 -45.6885
4.650589 72.683 -46.2484
4.684289 72.767 -46.8081
4.718233 72.850 -47.3676
4.752424 72.934 -47.9271
4.786862 73.017 -48.4868
4.821549 73.099 -49.0468
4.856488 73.182 -49.6070
4.891680 73.264 -50.1676
4.927127 73.346 -50.7286
4.962831 73.427 -51.2899
4.998794 73.508 -51.8516
5.035017 73.589 -52.4136
5.071503 73.669 -52.9760
5.108253 73.750 -53.5391
5.145270 73.829 -54.1028
5.182555 73.908 -54.6674
5.220110 73.987 -55.2328
5.257937 74.066 -55.7992
5.296038 74.143 -56.3663
5.334415 74.221 -56.9340
5.373071 74.298 -57.5020
5.412006 74.374 -58.0703
5.451224 74.450 -58.6389
5.490725 74.526 -59.2079
5.530514 74.601 -59.7773
5.570590 74.675 -60.3473
5.610957 74.749 -60.9178
5.651616 74.822 -61.4888
5.692570 74.895 -62.0599
5.733821 74.967 -62.6309
5.775370 75.039 -63.2014
5.817221 75.110 -63.7715
5.859375 75.180 -64.3409
5.901834 75.250 -64.9100
5.944602 75.320 -65.4788
5.987679 75.388 -66.0470
6.031068 75.456 -66.6146
6.074771 75.524 -67.1814
6.118792 75.591 -67.7469
6.163131 75.657 -68.3110
6.207792 75.723 -68.8735
6.252776 75.788 -69.4344
6.298086 75.853 -69.9937
6.343725 75.917 -70.5515
6.389694 75.981 -71.1077
6.435996 76.044 -71.6619
6.482634 76.107 -72.2141
6.529610 76.169 -72.7640
6.576926 76.231 -73.3115
6.624585 76.292 -73.8564
6.672590 76.353 -74.3990
6.720942 76.414 -74.9392
6.769645 76.475 -75.4769
6.818700 76.535 -76.0122
6.868111 76.594 -76.5448
6.917881 76.654 -77.0748
6.968010 76.713 -77.6021
7.018504 76.773 -78.1266
7.069362 76.832 -78.6487
7.120590 76.891 -79.1683
7.172189 76.950 -79.6855
7.224161 77.009 -80.2006
7.276511 77.067 -80.7136
7.329239 77.126 -81.2246
7.382350 77.185 -81.7338
7.435845 77.244 -82.2412
7.489729 77.303 -82.7472
7.544002 77.362 -83.2522
7.598669 77.421 -83.7564
7.653732 77.481 -84.2602
7.709194 77.540 -84.7638
7.765058 77.600 -85.2675
7.821327 77.659 -85.7715
7.878004 77.719 -86.2761
7.935091 77.779 -86.7819
7.992592 77.839 -87.2892
8.050510 77.898 -87.7983
8.108847 77.958 -88.3095
8.167607 78.018 -88.8230
8.226793 78.077 -89.3390
8.286408 78.136 -89.8575
8.346454 78.195 -90.3789
8.406936 78.253 -90.9032
8.467856 78.311 -91.4305
8.529218 78.368 -91.9607
8.591024 78.424 -92.4935
8.653278 78.480 -93.0287
8.715983 78.534 -93.5658
8.779143 78.588 -94.1044
8.842760 78.640 -94.6442
8.906839 78.691 -95.1846
8.971381 78.741 -95.7249
9.036392 78.790 -96.2640
9.101873 78.837 -96.8010
9.167829 78.883 -97.3351
9.234263 78.927 -97.8653
9.301178 78.970 -98.3909
9.368578 79.011 -98.9108
9.436467 79.051 -99.4238
9.504847 79.090 -99.9288
9.573723 79.128 -100.4252
9.643099 79.166 -100.9120
9.712976 79.202 -101.3890
9.783361 79.238 -101.8557
9.854255 79.273 -102.3116
9.925663 79.308 -102.7566
9.997588 79.344 -103.1909
10.070035 79.380 -103.6150
10.143007 79.416 -104.0298
10.216507 79.453 -104.4364
10.290540 79.491 -104.8358
10.365109 79.530 -105.2294
10.440219 79.570 -105.6188
10.515873 79.611 -106.0060
10.592076 79.654 -106.3932
10.668830 79.698 -106.7820
10.746141 79.742 -107.1743
10.824012 79.788 -107.5718
10.902447 79.834 -107.9761
10.981451 79.880 -108.3885
11.061027 79.927 -108.8104
11.141180 79.973 -109.2418
11.221913 80.018 -109.6827
11.303232 80.062 -110.1329
11.385140 80.104 -110.5916
11.467641 80.144 -111.0573
11.550741 80.182 -111.5282
11.634442 80.217 -112.0016
11.718750 80.250 -112.4749
11.803669 80.279 -112.9451
11.889203 80.306 -113.4092
11.975357 80.330 -113.8638
12.062136 80.352 -114.3055
12.149543 80.371 -114.7313
12.237583 80.389 -115.1389
12.326262 80.405 -115.5261
12.415583 80.421 -115.8917
12.505552 80.438 -116.2350
12.596172 80.455 -116.5563
12.687449 80.474 -116.8575
12.779387 80.496 -117.1412
12.871992 80.521 -117.4109
12.965268 80.549 -117.6710
13.059220 80.582 -117.9269
13.153852 80.619 -118.1849
13.249170 80.660 -118.4509
13.345179 80.705 -118.7308
13.441884 80.753 -119.0306
13.539289 80.805 -119.3553
13.637401 80.858 -119.7094
13.736223 80.913 -120.0955
13.835761 80.968 -120.5150
13.936021 81.022 -120.9685
14.037007 81.074 -121.4548
14.138725 81.123 -121.9714
14.241180 81.169 -122.5142
14.344377 81.210 -123.0787
14.448323 81.246 -123.6597
14.553021 81.278 -124.2511
14.658478 81.304 -124.8467
14.764700 81.326 -125.4409
14.871691 81.343 -126.0282
14.979457 81.356 -126.6042
15.088005 81.366 -127.1652
15.197339 81.374 -127.7087
15.307465 81.381 -128.2342
15.418389 81.387 -128.7418
15.530117 81.393 -129.2331
15.642655 81.400 -129.7109
15.756008 81.409 -130.1786
15.870182 81.419 -130.6403
15.985184 81.430 -131.0997
16.101019 81.443 -131.5603
16.217694 81.456 -132.0249
16.335214 81.470 -132.4950
16.453586 81.483 -132.9708
16.572815 81.496 -133.4512
16.692909 81.507 -133.9341
16.813872 81.517 -134.4157
16.935713 81.524 -134.8921
17.058436 81.531 -135.3588
17.182048 81.536 -135.8116
17.306556 81.540 -136.2471
17.431967 81.544 -136.6626
17.558286 81.550 -137.0576
17.685521 81.557 -137.4327
17.813677 81.568 -137.7909
17.942762 81.582 -138.1364
18.072783 81.600 -138.4749
18.203746 81.622 -138.8126
18.335658 81.648 -139.1563
18.468526 81.678 -139.5118
18.602356 81.711 -139.8839
18.737156 81.745 -140.2755
18.872934 81.779 -140.6876
19.009695 81.813 -141.1192
19.147447 81.845 -141.5671
19.286197 81.876 -142.0266
19.425953 81.903 -142.4921
19.566721 81.927 -142.9573
19.708510 81.949 -143.4166
19.851326 81.968 -143.8649
19.995177 81.986 -144.2990
20.140070 82.004 -144.7173
20.286013 82.021 -145.1204
20.433014 82.040 -145.5106
20.581080 82.060 -145.8921
20.730219 82.081 -146.2697
20.880439 82.104 -146.6488
21.031747 82.128 -147.0342
21.184152 82.153 -147.4299
21.337661 82.177 -147.8380
21.492282 82.199 -148.2588
21.648024 82.219 -148.6908
21.804895 82.235 -149.1305
21.962902 82.248 -149.5734
22.122054 82.257 -150.0138
22.282360 82.262 -150.4460
22.443827 82.263 -150.8644
22.606464 82.261 -151.2647
22.770280 82.256 -151.6435
22.935283 82.250 -151.9991
23.101481 82.244 -152.3315
23.268884 82.238 -152.6425
23.437500 82.232 -152.9348
23.607338 82.229 -153.2129
23.778406 82.227 -153.4816
23.950714 82.228 -153.7462
24.124271 82.230 -154.0117
24.299086 82.234 -154.2828
24.475167 82.240 -154.5631
24.652524 82.247 -154.8553
24.831166 82.253 -155.1605
25.011103 82.260 -155.4788
25.192344 82.265 -155.8087
25.374898 82.269 -156.1483
25.558775 82.272 -156.4944
25.743984 82.274 -156.8440
25.930536 82.274 -157.1943
26.118439 82.273 -157.5433
26.307704 82.272 -157.8898
26.498341 82.271 -158.2338
26.690359 82.270 -158.5764
26.883768 82.270 -158.9193
27.078579 82.270 -159.2643
27.274801 82.271 -159.6131
27.472446 82.271 -159.9665
27.671522 82.272 -160.3241
27.872042 82.272 -160.6843
28.074014 82.271 -161.0446
28.277450 82.269 -161.4018
28.482360 82.266 -161.7531
28.688755 82.263 -162.0960
28.896645 82.261 -162.4297
29.106042 82.259 -162.7545
29.316957 82.257 -163.0720
29.529400 82.258 -163.3851
29.743382 82.259 -163.6967
29.958915 82.261 -164.0095
30.176009 82.264 -164.3258
30.394677 82.267 -164.6464
30.614929 82.270 -164.9711
30.836778 82.272 -165.2990
31.060234 82.273 -165.6287
31.285309 82.273 -165.9589
31.512015 82.271 -166.2885
31.740364 82.269 -166.6170
31.970368 82.265 -166.9442
32.202039 82.261 -167.2701
32.435388 82.254 -167.5944
32.670428 82.247 -167.9164
32.907171 82.237 -168.2347
33.145630 82.226 -168.5473
33.385817 82.214 -168.8519
33.627745 82.200 -169.1464
33.871425 82.186 -169.4293
34.116871 82.172 -169.7003
34.364096 82.158 -169.9604
34.613113 82.146 -170.2124
34.863934 82.136 -170.4602
35.116572 82.128 -170.7087
35.371041 82.122 -170.9633
35.627354 82.118 -171.2289
35.885525 82.115 -171.5094
36.145566 82.113 -171.8071
36.407492 82.110 -172.1223
36.671316 82.106 -172.4528
36.937051 82.100 -172.7944
37.204712 82.092 -173.1415
37.474313 82.082 -173.4874
37.745867 82.069 -173.8260
38.019389 82.055 -174.1525
38.294893 82.040 -174.4639
38.572394 82.026 -174.7597
38.851905 82.012 -175.0419
39.133442 81.999 -175.3136
39.417019 81.988 -175.5788
39.702651 81.978 -175.8409
39.990353 81.969 -176.1025
40.280140 81.960 -176.3647
40.572026 81.951 -176.6278
40.866028 81.942 -176.8914
41.162160 81.932 -177.1547
41.460438 81.920 -177.4163
41.760877 81.908 -177.6741
42.063494 81.893 -177.9249
42.368303 81.877 -178.1650
42.675322 81.861 -178.3914
42.984565 81.844 -178.6025
43.296048 81.828 -178.8010
43.609789 81.814 -178.9932
43.925804 81.802 -179.1884
44.244108 81.792 -179.3967
44.564719 81.782 -179.6254
44.887654 81.771 -179.8766
45.212928 81.758 179.8534
45.540560 81.741 179.5728
45.870565 81.720 179.2912
46.202962 81.696 179.0168
46.537768 81.671 178.7539
46.875000 81.645 178.5024
47.214676 81.619 178.2599
47.556813 81.594 178.0230
47.901429 81.570 177.7898
48.248542 81.546 177.5598
48.598171 81.524 177.3334
48.950334 81.502 177.1110
49.305048 81.482 176.8915
49.662333 81.463 176.6731
50.022206 81.446 176.4536
50.384688 81.429 176.2310
50.749796 81.413 176.0052
51.117550 81.397 175.7775
51.487969 81.380 175.5504
51.861072 81.362 175.3274
52.236879 81.343 175.1114
52.615409 81.323 174.9042
52.996681 81.302 174.7059
53.380717 81.280 174.5152
53.767536 81.257 174.3302
54.157158 81.232 174.1495
54.549603 81.207 173.9722
54.944892 81.180 173.7980
55.343045 81.151 173.6260
55.744084 81.122 173.4554
56.148028 81.092 173.2853
56.554900 81.061 173.1155
56.964720 81.030 172.9460
57.377510 81.001 172.7751
57.793291 80.973 172.5990
58.212085 80.948 172.4112
58.633914 80.926 172.2062
59.058799 80.905 171.9817
59.486764 80.884 171.7404
59.917829 80.864 171.4882
60.352019 80.844 171.2323
60.789354 80.823 170.9783
61.229859 80.803 170.7299
61.673556 80.783 170.4888
62.120468 80.762 170.2567
62.570618 80.740 170.0359
63.024031 80.716 169.8298
63.480729 80.689 169.6418
63.940736 80.661 169.4723
64.404077 80.631 169.3181
64.870776 80.598 169.1763
65.340856 80.561 169.0494
65.814343 80.522 168.9457
66.291261 80.482 168.8711
66.771635 80.445 168.8172
67.255489 80.414 168.7583
67.742850 80.388 168.6640
68.233743 80.363 168.5177
68.728193 80.336 168.3262
69.226226 80.305 168.1128
69.727867 80.271 167.9028
70.233144 80.237 167.7133
70.742083 80.204 167.5505
71.254709 80.177 167.4097
71.771050 80.156 167.2769
72.291132 80.139 167.1353
72.814984 80.125 166.9755
73.342631 80.110 166.8008
73.874102 80.093 166.6235
74.409424 80.073 166.4548
74.948626 80.051 166.2985
75.491734 80.028 166.1517
76.038779 80.003 166.0105
76.589787 79.976 165.8717
77.144788 79.948 165.7346
77.703811 79.919 165.5997
78.266885 79.889 165.4678
78.834039 79.858 165.3383
79.405303 79.827 165.2090
79.980706 79.794 165.0803
80.560280 79.760 164.9559
81.144053 79.724 164.8423
81.732056 79.686 164.7448
82.324320 79.647 164.6636
82.920876 79.609 164.5941
83.521755 79.571 164.5292
84.126988 79.534 164.4616
84.736607 79.497 164.3857
85.350643 79.460 164.2967
85.969129 79.424 164.1912
86.592097 79.388 164.0684
87.219579 79.353 163.9308
87.851608 79.317 163.7833
88.488217 79.281 163.6323
89.129439 79.245 163.4861
89.775308 79.208 163.3533
90.425856 79.170 163.2410
91.081119 79.132 163.1539
91.741131 79.092 163.0970
92.405925 79.051 163.0754
93.075536 79.011 163.0913
93.750000 78.971 163.1417
94.429351 78.934 163.2196
95.113625 78.901 163.3139
95.802858 78.871 163.4127
96.497085 78.846 163.5089
97.196342 78.826 163.6019
97.900667 78.809 163.6920
98.610096 78.799 163.7738
99.324665 78.793 163.8359
100.044413 78.791 163.8641
100.769376 78.789 163.8484
101.499592 78.784 163.7900
102.235100 78.774 163.7013
102.975938 78.758 163.5963
103.722144 78.738 163.4813
104.473757 78.715 163.3548
105.230817 78.690 163.2122
105.993363 78.663 163.0527
106.761435 78.635 162.8816
107.535072 78.607 162.7092
108.314315 78.577 162.5463
109.099206 78.547 162.4022
109.889783 78.517 162.2825
110.686090 78.487 162.1892
111.488167 78.455 162.1208
112.296056 78.423 162.0721
113.109800 78.390 162.0352
113.929440 78.355 162.0009
114.755020 78.320 161.9606
115.586582 78.286 161.9070
116.424170 78.252 161.8346
117.267827 78.218 161.7429
118.117598 78.184 161.6404
118.973527 78.149 161.5465
119.835658 78.113 161.4880
120.704037 78.077 161.4840
121.578708 78.044 161.5301
122.459718 78.014 161.6021
123.347111 77.985 161.6747
124.240935 77.954 161.7321
125.141236 77.919 161.7676
126.048061 77.880 161.7805
126.961458 77.836 161.7737
127.881473 77.790 161.7532
128.808154 77.743 161.7280
129.741551 77.695 161.7088
130.681712 77.649 161.7071
131.628686 77.605 161.7316
132.582521 77.565 161.7839
133.543269 77.530 161.8561
134.510979 77.499 161.9309
135.485701 77.472 161.9884
136.467486 77.447 162.0154
137.456386 77.424 162.0104
138.452451 77.401 161.9786
139.455735 77.379 161.9286
140.466288 77.357 161.8700
141.484165 77.334 161.8136
142.509418 77.309 161.7728
143.542100 77.281 161.7632
144.582265 77.251 161.7950
145.629968 77.218 161.8669
146.685262 77.183 161.9676
147.748204 77.146 162.0826
148.818849 77.106 162.1996
149.897251 77.065 162.3090
150.983469 77.024 162.3999
152.077557 76.984 162.4603
153.179574 76.946 162.4846
154.289576 76.910 162.4795
155.407622 76.876 162.4634
156.533770 76.844 162.4597
157.668078 76.815 162.4844
158.810606 76.787 162.5403
159.961413 76.760 162.6198
161.120559 76.732 162.7121
162.288105 76.702 162.8085
163.464112 76.671 162.9033
164.648640 76.638 162.9938
165.841752 76.605 163.0789
167.043510 76.572 163.1599
168.253976 76.540 163.2370
169.473213 76.508 163.3077
170.701286 76.477 163.3687
171.938258 76.447 163.4200
173.184194 76.418 163.4668
174.439158 76.390 163.5176
175.703216 76.365 163.5798
176.976434 76.340 163.6552
178.258878 76.315 163.7402
179.550615 76.288 163.8294
180.851713 76.258 163.9176
182.162239 76.227 163.9998
183.482262 76.194 164.0731
184.811850 76.162 164.1397
186.151073 76.131 164.2057
187.500000 76.101 164.2773
188.858702 76.071 164.3590
190.227250 76.041 164.4529
191.605715 76.011 164.5583
192.994169 75.981 164.6716
194.392685 75.950 164.7871
195.801334 75.919 164.9020
197.220191 75.889 165.0180
198.649330 75.859 165.1365
200.088825 75.832 165.2546
201.538751 75.807 165.3649
202.999184 75.783 165.4626
204.470200 75.759 165.5548
205.951875 75.731 165.6566
207.444287 75.702 165.7799
208.947514 75.672 165.9266
210.461634 75.642 166.0906
211.986726 75.613 166.2607
213.522869 75.585 166.4237
215.070144 75.557 166.5675
216.628631 75.530 166.6828
218.198411 75.504 166.7676
219.779567 75.481 166.8301
221.372180 75.461 166.8845
222.976334 75.443 166.9469
224.592112 75.426 167.0335
226.219600 75.406 167.1553
227.858880 75.383 167.3113
229.510039 75.358 167.4929
231.173164 75.334 167.6927
232.848340 75.313 167.9045
234.535655 75.295 168.1223
236.235197 75.279 168.3411
237.947054 75.260 168.5507
239.671317 75.236 168.7316
241.408074 75.207 168.8673
243.157416 75.172 168.9613
244.919435 75.135 169.0338
246.694223 75.099 169.1078
248.481871 75.065 169.1992
250.282473 75.034 169.3118
252.096123 75.005 169.4443
253.922915 74.977 169.6008
255.762945 74.951 169.7878
257.616309 74.924 170.0023
259.483103 74.897 170.2265
261.363424 74.870 170.4376
263.257372 74.843 170.6222
265.165043 74.819 170.7842
267.086538 74.797 170.9413
269.021957 74.777 171.1108
270.971401 74.758 171.2989
272.934972 74.740 171.5024
274.912771 74.722 171.7175
276.904902 74.704 171.9467
278.911469 74.689 172.1991
280.932577 74.676 172.4848
282.968330 74.665 172.7988
285.018835 74.655 173.1071
287.084199 74.641 173.3576
289.164530 74.622 173.5181
291.259935 74.597 173.6016
293.370525 74.568 173.6489
295.496408 74.538 173.7013
297.637697 74.508 173.7825
299.794503 74.478 173.8963
301.966937 74.447 174.0348
304.155114 74.420 174.1861
306.359147 74.395 174.3390
308.579152 74.373 174.4868
310.815244 74.354 174.6290
313.067539 74.336 174.7722
315.336156 74.318 174.9269
317.621211 74.301 175.1024
319.922826 74.285 175.3011
322.241118 74.271 175.5182
324.576210 74.258 175.7467
326.928223 74.247 175.9796
329.297280 74.235 176.2100
331.683504 74.222 176.4338
334.087019 74.208 176.6510
336.507952 74.192 176.8637
338.946427 74.174 177.0739
341.402572 74.154 177.2826
343.876516 74.132 177.4890
346.368387 74.109 177.6932
348.878315 74.086 177.8979
351.406431 74.062 178.1074
353.952867 74.039 178.3260
356.517756 74.017 178.5554
359.101230 73.996 178.7921
361.703426 73.977 179.0278
364.324478 73.959 179.2539
366.964523 73.942 179.4673
369.623699 73.927 179.6729
372.302145 73.912 179.8802
375.000000 73.899 -179.9033
377.717405 73.888 -179.6756
380.454501 73.877 -179.4398
383.211431 73.865 -179.2000
385.988339 73.851 -178.9575
388.785369 73.835 -178.7117
391.602668 73.815 -178.4632
394.440383 73.795 -178.2141
397.298660 73.774 -177.9664
400.177650 73.755 -177.7198
403.077502 73.738 -177.4730
405.998368 73.723 -177.2266
408.940400 73.709 -176.9833
411.903750 73.695 -176.7459
414.888575 73.682 -176.5157
417.895028 73.666 -176.2922
420.923268 73.648 -176.0729
423.973452 73.628 -175.8539
427.045738 73.608 -175.6321
430.140287 73.588 -175.4043
433.257261 73.571 -175.1664
436.396822 73.558 -174.9136
439.559133 73.548 -174.6434
442.744360 73.540 -174.3560
445.952668 73.533 -174.0523
449.184225 73.525 -173.7341
452.439199 73.518 -173.4057
455.717760 73.510 -173.0754
459.020079 73.501 -172.7521
462.346327 73.494 -172.4404
465.696680 73.489 -172.1382
469.071310 73.487 -171.8406
472.470394 73.486 -171.5434
475.894109 73.486 -171.2460
479.342634 73.486 -170.9508
482.816148 73.485 -170.6613
486.314833 73.483 -170.3817
489.838871 73.480 -170.1178
493.388445 73.476 -169.8716
496.963741 73.474 -169.6402
500.564945 73.471 -169.4195
504.192245 73.467 -169.2078
507.845830 73.462 -169.0044
511.525890 73.456 -168.8049
515.232618 73.450 -168.6002
518.966206 73.445 -168.3789
522.726849 73.441 -168.1342
526.514743 73.437 -167.8673
530.330086 73.434 -167.5850
534.173076 73.432 -167.2913
538.043915 73.430 -166.9864
541.942803 73.428 -166.6696
545.869944 73.425 -166.3448
549.825542 73.421 -166.0192
553.809805 73.416 -165.6987
557.822939 73.411 -165.3875
561.865154 73.406 -165.0856
565.936660 73.401 -164.7904
570.037671 73.397 -164.4979
574.168399 73.392 -164.2039
578.329060 73.386 -163.9069
582.519870 73.381 -163.6090
586.741049 73.375 -163.3130
590.992817 73.369 -163.0191
595.275394 73.363 -162.7249
599.589005 73.358 -162.4269
603.933874 73.354 -162.1219
608.310228 73.350 -161.8077
612.718295 73.345 -161.4807
617.158304 73.339 -161.1376
621.630488 73.332 -160.7808
626.135079 73.325 -160.4172
630.672311 73.319 -160.0540
635.242423 73.315 -159.6964
639.845651 73.314 -159.3442
644.482237 73.315 -158.9927
649.152421 73.318 -158.6381
653.856447 73.325 -158.2809
658.594560 73.332 -157.9226
663.367008 73.340 -157.5614
668.174039 73.348 -157.1939
673.015903 73.357 -156.8188
677.892854 73.367 -156.4409
682.805145 73.378 -156.0695
687.753032 73.390 -155.7115
692.736774 73.402 -155.3642
697.756631 73.413 -155.0178
702.812863 73.424 -154.6624
707.905735 73.434 -154.2919
713.035511 73.444 -153.9050
718.202461 73.452 -153.5046
723.406852 73.460 -153.0969
728.648956 73.468 -152.6881
733.929047 73.475 -152.2842
739.247399 73.481 -151.8898
744.604290 73.486 -151.5063
750.000000 73.492 -151.1319
755.434809 73.501 -150.7605
760.909001 73.515 -150.3835
766.422861 73.536 -149.9942
771.976677 73.563 -149.5919
777.570739 73.593 -149.1825
783.205337 73.624 -148.7748
788.880766 73.655 -148.3735
794.597321 73.684 -147.9764
800.355301 73.711 -147.5746
806.155005 73.736 -147.1584
811.996736 73.761 -146.7231
817.880799 73.786 -146.2719
823.807501 73.812 -145.8132
829.777150 73.838 -145.3560
835.790057 73.868 -144.9075
841.846536 73.900 -144.4703
847.946903 73.935 -144.0438
854.091476 73.972 -143.6268
860.280575 74.010 -143.2172
866.514523 74.046 -142.8118
872.793644 74.080 -142.4083
879.118267 74.112 -142.0082
885.488720 74.144 -141.6147
891.905336 74.176 -141.2300
898.368450 74.209 -140.8531
904.878398 74.246 -140.4807
911.435520 74.284 -140.1068
918.040157 74.326 -139.7255
924.692655 74.371 -139.3329
931.393359 74.419 -138.9290
938.142619 74.470 -138.5180
944.940787 74.523 -138.1064
951.788218 74.578 -137.7004
958.685268 74.635 -137.3043
965.632296 74.694 -136.9176
972.629666 74.755 -136.5378
979.677741 74.817 -136.1645
986.776890 74.881 -135.8019
993.927482 74.946 -135.4578
1001.129891 75.012 -135.1392
1008.384491 75.079 -134.8489
1015.691660 75.147 -134.5826
1023.051781 75.216 -134.3320
1030.465236 75.286 -134.0889
1037.932411 75.355 -133.8486
1045.453698 75.426 -133.6111
1053.029486 75.497 -133.3795
1060.660172 75.570 -133.1550
1068.346153 75.644 -132.9360
1076.087829 75.719 -132.7211
1083.885605 75.795 -132.5107
1091.739887 75.872 -132.3090
1099.651084 75.948 -132.1221
1107.619609 76.025 -131.9566
1115.645878 76.100 -131.8148
1123.730308 76.173 -131.6948
1131.873321 76.244 -131.5924
1140.075341 76.314 -131.5034
1148.336797 76.383 -131.4249
1156.658119 76.450 -131.3558
1165.039741 76.517 -131.2979
1173.482099 76.582 -131.2532
1181.985634 76.646 -131.2213
1190.550789 76.710 -131.1995
1199.178011 76.773 -131.1853
1207.867749 76.837 -131.1765
1216.620457 76.901 -131.1698
1225.436590 76.965 -131.1615
1234.316609 77.027 -131.1504
1243.260976 77.088 -131.1400
1252.270157 77.147 -131.1365
1261.344623 77.204 -131.1434
1270.484846 77.260 -131.1591
1279.691303 77.316 -131.1798
1288.964474 77.371 -131.2031
1298.304842 77.426 -131.2300
1307.712894 77.480 -131.2624
1317.189120 77.534 -131.3016
1326.734016 77.585 -131.3477
1336.348077 77.634 -131.3989
1346.031806 77.680 -131.4525
1355.785708 77.725 -131.5059
1365.610290 77.770 -131.5576
1375.506065 77.815 -131.6073
1385.473549 77.861 -131.6558
1395.513261 77.906 -131.7032
1405.625726 77.950 -131.7476
1415.811469 77.993 -131.7859
1426.071023 78.036 -131.8163
1436.404921 78.078 -131.8401
1446.813703 78.120 -131.8625
1457.297912 78.162 -131.8903
1467.858093 78.203 -131.9278
1478.494798 78.244 -131.9750
1489.208581 78.283 -132.0283
1500.000000 78.319 -132.0802
1510.869618 78.353 -132.1210
1521.818002 78.387 -132.1439
1532.845723 78.420 -132.1499
1543.953355 78.454 -132.1467
1555.141477 78.489 -132.1454
1566.410674 78.524 -132.1555
1577.761531 78.559 -132.1816
1589.194642 78.593 -132.2228
1600.710601 78.627 -132.2736
1612.310010 78.661 -132.3304
1623.993473 78.696 -132.3923
1635.761599 78.732 -132.4598
1647.615002 78.770 -132.5342
1659.554299 78.807 -132.6135
1671.580114 78.845 -132.6929
1683.693072 78.884 -132.7689
1695.893807 78.925 -132.8403
1708.182952 78.966 -132.9054
1720.561150 79.008 -132.9648
1733.029045 79.049 -133.0235
1745.587288 79.091 -133.0890
1758.236533 79.133 -133.1650
1770.977440 79.176 -133.2476
1783.810673 79.219 -133.3295
1796.736900 79.260 -133.4062
1809.756796 79.298 -133.4791
1822.871040 79.335 -133.5543
1836.080315 79.370 -133.6375
1849.385310 79.405 -133.7297
1862.786718 79.439 -133.8286
1876.285239 79.471 -133.9318
1889.881575 79.502 -134.0384
1903.576436 79.532 -134.1475
1917.370535 79.560 -134.2581
1931.264593 79.589 -134.3708
1945.259332 79.618 -134.4863
1959.355483 79.647 -134.6029
1973.553781 79.675 -134.7159
1987.854965 79.701 -134.8209
2002.259781 79.726 -134.9178
2016.768981 79.750 -135.0131
2031.383320 79.772 -135.1155
2046.103561 79.793 -135.2272
2060.930471 79.812 -135.3418
2075.864823 79.829 -135.4484
2090.907395 79.845 -135.5339
2106.058972 79.858 -135.5862
2121.320344 79.871 -135.5974
2136.692305 79.885 -135.5663
2152.175658 79.901 -135.4982
2167.771210 79.920 -135.4019
2183.479774 79.945 -135.2842
2199.302169 79.976 -135.1470
2215.239219 80.015 -134.9932
2231.291755 80.065 -134.8340
2247.460615 80.127 -134.6902
2263.746641 80.203 -134.5868
2280.150683 80.293 -134.5479
2296.673595 80.395 -134.5923
2313.316238 80.504 -134.7327
2330.079481 80.615 -134.9750
2346.964198 80.722 -135.3203
2363.971268 80.819 -135.7639
2381.101578 80.903 -136.2937
2398.356022 80.974 -136.8903
2415.735498 81.032 -137.5311
2433.240913 81.077 -138.1955
2450.873180 81.111 -138.8666
2468.633217 81.135 -139.5315
2486.521951 81.151 -140.1799
2504.540314 81.160 -140.8064
2522.689246 81.163 -141.4092
2540.969692 81.162 -141.9881
2559.382606 81.156 -142.5432
2577.928947 81.147 -143.0742
2596.609683 81.135 -143.5809
2615.425787 81.121 -144.0640
2634.378241 81.103 -144.5260
2653.468031 81.083 -144.9711
2672.696154 81.060 -145.4039
2692.063613 81.034 -145.8293
2711.571415 81.006 -146.2536
2731.220579 80.977 -146.6815
2751.012130 80.946 -147.1144
2770.947098 80.914 -147.5503
2791.026522 80.880 -147.9847
2811.251451 80.844 -148.4119
2831.622938 80.807 -148.8268
2852.142045 80.769 -149.2253
2872.809842 80.730 -149.6024
2893.627406 80.690 -149.9550
2914.595823 80.647 -150.2876
2935.716186 80.600 -150.6135
2956.989596 80.549 -150.9454
2978.417161 80.496 -151.2866
3000.000000 80.442 -151.6305
3021.739237 80.386 -151.9668
3043.636005 80.328 -152.2885
3065.691446 80.268 -152.5942
3087.906710 80.202 -152.8835
3110.282955 80.131 -153.1526
3132.821347 80.056 -153.3964
3155.523062 79.977 -153.6121
3178.389283 79.895 -153.7968
3201.421202 79.810 -153.9469
3224.620020 79.722 -154.0602
3247.986946 79.631 -154.1390
3271.523198 79.540 -154.1884
3295.230004 79.449 -154.2125
3319.108599 79.360 -154.2106
3343.160228 79.274 -154.1784
3367.386145 79.193 -154.1125
3391.787613 79.117 -154.0120
3416.365904 79.046 -153.8784
3441.122300 78.979 -153.7160
3466.058091 78.915 -153.5303
3491.174576 78.854 -153.3286
3516.473066 78.796 -153.1198
3541.954880 78.739 -152.9117
3567.621345 78.681 -152.7087
3593.473800 78.623 -152.5099
3619.513592 78.564 -152.3118
3645.742080 78.503 -152.1104
3672.160630 78.442 -151.9023
3698.770620 78.381 -151.6854
3725.573436 78.322 -151.4589
3752.570477 78.267 -151.2223
3779.763150 78.214 -150.9752
3807.152872 78.165 -150.7173
3834.741071 78.118 -150.4487
3862.529185 78.072 -150.1703
3890.518664 78.025 -149.8826
3918.710966 77.976 -149.5866
3947.107561 77.926 -149.2836
3975.709929 77.874 -148.9729
4004.519563 77.821 -148.6529
4033.537962 77.767 -148.3214
4062.766641 77.713 -147.9782
4092.207123 77.661 -147.6270
4121.860942 77.610 -147.2742
4151.729646 77.563 -146.9252
4181.814790 77.517 -146.5815
4212.117944 77.473 -146.2411
4242.640687 77.429 -145.8982
4273.384610 77.386 -145.5448
4304.351317 77.344 -145.1716
4335.542421 77.306 -144.7718
4366.959549 77.270 -144.3437
4398.604338 77.239 -143.8922
4430.478438 77.211 -143.4260
4462.583511 77.186 -142.9514
4494.921231 77.163 -142.4701
4527.493283 77.144 -141.9814
4560.301365 77.126 -141.4854
4593.347189 77.110 -140.9838
4626.632476 77.096 -140.4779
4660.158962 77.083 -139.9679
4693.928395 77.073 -139.4537
4727.942535 77.065 -138.9352
4762.203156 77.059 -138.4122
4796.712043 77.057 -137.8845
4831.470996 77.057 -137.3512
4866.481826 77.059 -136.8116
4901.746360 77.063 -136.2674
4937.266434 77.069 -135.7236
4973.043902 77.078 -135.1888
5009.080628 77.089 -134.6715
5045.378492 77.104 -134.1743
5081.939384 77.123 -133.6897
5118.765212 77.146 -133.2023
5155.857894 77.173 -132.6962
5193.219366 77.203 -132.1620
5230.851574 77.235 -131.6014
5268.756481 77.269 -131.0237
5306.936062 77.306 -130.4386
5345.392309 77.346 -129.8513
5384.127225 77.392 -129.2625
5423.142830 77.444 -128.6724
5462.441159 77.502 -128.0834
5502.024259 77.567 -127.4995
5541.894195 77.640 -126.9257
5582.053045 77.719 -126.3700
5622.502902 77.805 -125.8432
5663.245876 77.897 -125.3554
5704.284090 77.993 -124.9130
5745.619684 78.093 -124.5175
5787.254813 78.196 -124.1644
5829.191647 78.303 -123.8433
5871.432373 78.414 -123.5401
5913.979192 78.528 -123.2444
5956.834323 78.645 -122.9537
6000.000000 78.766 -122.6731
6043.478473 78.889 -122.4139
6087.272010 79.015 -122.1912
6131.382892 79.144 -122.0202
6175.813420 79.276 -121.9122
6220.565910 79.411 -121.8725
6265.642695 79.551 -121.8976
6311.046124 79.695 -121.9776
6356.778566 79.844 -122.1008
6402.842404 79.998 -122.2606
6449.240040 80.156 -122.4574
6495.973891 80.316 -122.6982
6543.046396 80.477 -122.9942
6590.460007 80.639 -123.3566
6638.217197 80.801 -123.7959
6686.320456 80.961 -124.3230
6734.772290 81.119 -124.9498
6783.575226 81.274 -125.6843
6832.731809 81.425 -126.5236
6882.244600 81.570 -127.4588
6932.116181 81.709 -128.4844
6982.349153 81.840 -129.5991
7032.946133 81.963 -130.8006
7083.909760 82.075 -132.0834
7135.242690 82.175 -133.4355
7186.947600 82.261 -134.8409
7239.027185 82.332 -136.2874
7291.484160 82.387 -137.7694
7344.321260 82.425 -139.2855
7397.541239 82.446 -140.8317
7451.146872 82.449 -142.3953
7505.140954 82.436 -143.9570
7559.526299 82.406 -145.4969
7614.305743 82.363 -147.0014
7669.482141 82.308 -148.4640
7725.058371 82.241 -149.8828
7781.037328 82.164 -151.2585
7837.421932 82.075 -152.5919
7894.215122 81.976 -153.8826
7951.419859 81.866 -155.1285
8009.039125 81.745 -156.3275
8067.075924 81.614 -157.4761
8125.533282 81.473 -158.5692
8184.414245 81.324 -159.6005
8243.721885 81.167 -160.5656
8303.459292 81.003 -161.4634
8363.629581 80.833 -162.2946
8424.235888 80.658 -163.0573
8485.281374 80.479 -163.7435
8546.769221 80.299 -164.3422
8608.702634 80.119 -164.8459
8671.084842 79.941 -165.2549
8733.919097 79.765 -165.5748
8797.208675 79.593 -165.8129
8860.956876 79.427 -165.9763
8925.167022 79.265 -166.0720
8989.842461 79.110 -166.1071
9054.986566 78.959 -166.0907
9120.602731 78.812 -166.0337
9186.694378 78.670 -165.9443
9253.264952 78.532 -165.8269
9320.317925 78.399 -165.6836
9387.856790 78.273 -165.5182
9455.885071 78.155 -165.3361
9524.406312 78.044 -165.1407
9593.424086 77.940 -164.9277
9662.941992 77.844 -164.6866
9732.963653 77.757 -164.4075
9803.492719 77.679 -164.0868
9874.532869 77.611 -163.7307
9946.087805 77.553 -163.3528
10018.161257 77.504 -162.9673
10090.756983 77.465 -162.5859
10163.878768 77.437 -162.2213
10237.530423 77.419 -161.8876
10311.715789 77.412 -161.5992
10386.438732 77.415 -161.3680
10461.703149 77.427 -161.2001
10537.512962 77.449 -161.0956
10613.872125 77.481 -161.0548
10690.784618 77.521 -161.0853
10768.254450 77.568 -161.2031
10846.285661 77.620 -161.4269
10924.882318 77.676 -161.7715
11004.048518 77.731 -162.2432
11083.788390 77.782 -162.8424
11164.106090 77.824 -163.5672
11245.005805 77.851 -164.4084
11326.491752 77.859 -165.3416
11408.568180 77.844 -166.3202
11491.239368 77.805 -167.2783
11574.509626 77.743 -168.1432
11658.383294 77.662 -168.8513
11742.864745 77.569 -169.3605
11827.958384 77.472 -169.6522
11913.668646 77.381 -169.7313
12000.000000 77.306 -169.6238
12086.956947 77.255 -169.3729
12174.544019 77.236 -169.0317
12262.765784 77.253 -168.6586
12351.626840 77.310 -168.3083
12441.131819 77.408 -168.0215
12531.285389 77.548 -167.8245
12622.092249 77.728 -167.7412
12713.557132 77.947 -167.8032
12805.684808 78.201 -168.0499
12898.480079 78.487 -168.5240
12991.947783 78.798 -169.2687
13086.092792 79.130 -170.3278
13180.920015 79.477 -171.7461
13276.434395 79.832 -173.5657
13372.640911 80.185 -175.8206
13469.544580 80.524 -178.5319
13567.150452 80.836 178.2920
13665.463617 81.108 174.6482
13764.489200 81.329 170.5452
13864.232362 81.484 166.0150
13964.698305 81.565 161.1152
14065.892266 81.560 155.9308
14167.819519 81.462 150.5765
14270.485380 81.269 145.1879
14373.895200 80.982 139.8976
14478.054370 80.606 134.8143
14582.968320 80.149 130.0167
14688.642520 79.619 125.5614
14795.082478 79.030 121.4924
14902.293745 78.395 117.8441
15010.281908 77.725 114.6358
15119.052599 77.035 111.8666
15228.611486 76.334 109.5155
15338.964283 75.633 107.5451
15450.116741 74.937 105.9077
15562.074656 74.253 104.5515
15674.843864 73.586 103.4232
15788.430244 72.936 102.4684
15902.839718 72.305 101.6338
16018.078250 71.693 100.8792
16134.151848 71.097 100.1948
16251.066563 70.517 99.6055
16368.828491 69.953 99.1503
16487.443769 69.405 98.8578
16606.918584 68.874 98.7345
16727.259161 68.358 98.7656
16848.471777 67.860 98.9236
16970.562748 67.378 99.1782
17093.538442 66.911 99.5011
17217.405268 66.460 99.8670
17342.169684 66.025 100.2559
17467.838194 65.605 100.6569
17594.417350 65.202 101.0690
17721.913751 64.819 101.4920
17850.334044 64.455 101.9157
17979.684923 64.114 102.3166
18109.973131 63.796 102.6608
18241.205462 63.505 102.9029
18373.388756 63.243 102.9814
18506.529905 63.013 102.8187
18640.635849 62.811 102.3264
18775.713581 62.633 101.4145
18911.770141 62.472 100.0063
19048.812624 62.316 98.0631
19186.848172 62.155 95.6050
19325.883983 61.977 92.7142
19465.927305 61.777 89.5256
19606.985439 61.558 86.2358
19749.065738 61.340 83.1389
19892.175609 61.158 80.6465
20036.322514 61.054 79.2288
