* Measurement data measured by REW V5.31.3
* Source: Headset (CX31993 HIFI AUDIO), MICROPHONE (Master Volume), R, volume: 0.250
* Format: 256k Log Swept Sine, 1 sweep at -12.0 dBFS with no timing reference
* Dated: 03 3, 25 11:36:14 AM
* REW Settings:
*  C-weighting compensation: Off
*  Target level: 75.0 dB
* Note: ; 
* Measurement: SGOR Luna 300 400 R
* Smoothing: 1/12 octave
* Frequency Step: 96 ppo
* Start Frequency: 0.36621094 Hz
*
* Freq(Hz) SPL(dB) Phase(degrees)
0.366211 30.971 -34.8101
0.368865 30.969 -34.8240
0.371538 30.966 -34.8452
0.374230 30.962 -34.8723
0.376942 30.958 -34.9043
0.379673 30.954 -34.9404
0.382424 30.949 -34.9799
0.385196 30.944 -35.0227
0.387987 30.940 -35.0684
0.390798 30.935 -35.1171
0.393630 30.930 -35.1686
0.396483 30.925 -35.2229
0.399356 30.920 -35.2801
0.402250 30.915 -35.3400
0.405165 30.910 -35.4027
0.408101 30.905 -35.4682
0.411058 30.900 -35.5365
0.414037 30.895 -35.6076
0.417037 30.890 -35.6814
0.420059 30.884 -35.7579
0.423103 30.879 -35.8373
0.426169 30.874 -35.9193
0.429257 30.869 -36.0040
0.432368 30.863 -36.0915
0.435501 30.858 -36.1816
0.438656 30.852 -36.2743
0.441835 30.847 -36.3697
0.445037 30.841 -36.4677
0.448262 30.836 -36.5682
0.451510 30.830 -36.6712
0.454782 30.825 -36.7768
0.458077 30.819 -36.8847
0.461397 30.813 -36.9951
0.464740 30.807 -37.1078
0.468108 30.802 -37.2229
0.471500 30.796 -37.3401
0.474917 30.790 -37.4595
0.478358 30.784 -37.5811
0.481825 30.778 -37.7047
0.485316 30.772 -37.8303
0.488833 30.766 -37.9578
0.492375 30.760 -38.0871
0.495943 30.754 -38.2182
0.499537 30.747 -38.3508
0.503157 30.741 -38.4851
0.506803 30.735 -38.6207
0.510475 30.729 -38.7577
0.514175 30.722 -38.8959
0.517900 30.716 -39.0352
0.521653 30.709 -39.1755
0.525434 30.703 -39.3166
0.529241 30.696 -39.4584
0.533076 30.690 -39.6008
0.536939 30.683 -39.7435
0.540830 30.676 -39.8865
0.544749 30.670 -40.0295
0.548696 30.663 -40.1725
0.552673 30.656 -40.3151
0.556677 30.649 -40.4572
0.560711 30.642 -40.5986
0.564774 30.635 -40.7391
0.568867 30.628 -40.8784
0.572989 30.621 -41.0164
0.577141 30.614 -41.1528
0.581324 30.607 -41.2873
0.585536 30.599 -41.4196
0.589779 30.592 -41.5496
0.594053 30.585 -41.6769
0.598358 30.577 -41.8011
0.602694 30.570 -41.9221
0.607061 30.562 -42.0395
0.611460 30.555 -42.1529
0.615891 30.547 -42.2620
0.620354 30.539 -42.3664
0.624849 30.532 -42.4658
0.629377 30.524 -42.5597
0.633938 30.516 -42.6478
0.638532 30.508 -42.7296
0.643159 30.500 -42.8047
0.647819 30.492 -42.8727
0.652514 30.484 -42.9330
0.657242 30.476 -42.9851
0.662005 30.467 -43.0287
0.666802 30.459 -43.0630
0.671634 30.451 -43.0877
0.676501 30.443 -43.1020
0.681403 30.434 -43.1055
0.686341 30.426 -43.0975
0.691314 30.417 -43.0774
0.696324 30.408 -43.0447
0.701370 30.400 -42.9986
0.706452 30.391 -42.9388
0.711571 30.382 -42.8647
0.716728 30.374 -42.7762
0.721921 30.365 -42.6733
0.727153 30.356 -42.5566
0.732422 30.347 -42.4269
0.737729 30.338 -42.2856
0.743075 30.329 -42.1341
0.748460 30.319 -41.9735
0.753883 30.308 -41.8044
0.759346 30.297 -41.6274
0.764849 30.284 -41.4423
0.770391 30.270 -41.2491
0.775974 30.255 -41.0476
0.781597 30.240 -40.8373
0.787261 30.223 -40.6179
0.792966 30.205 -40.3889
0.798712 30.187 -40.1498
0.804500 30.168 -39.9001
0.810329 30.148 -39.6394
0.816201 30.127 -39.3670
0.822116 30.106 -39.0824
0.828073 30.084 -38.7851
0.834074 30.062 -38.4745
0.840118 30.040 -38.1500
0.846206 30.017 -37.8110
0.852338 29.995 -37.4569
0.858514 29.972 -37.0871
0.864735 29.949 -36.7010
0.871001 29.926 -36.2979
0.877313 29.904 -35.8772
0.883670 29.882 -35.4384
0.890074 29.860 -34.9807
0.896524 29.839 -34.5037
0.903020 29.819 -34.0068
0.909564 29.800 -33.4894
0.916155 29.782 -32.9510
0.922794 29.765 -32.3911
0.929481 29.749 -31.8094
0.936216 29.735 -31.2053
0.943000 29.722 -30.5787
0.949834 29.711 -29.9292
0.956717 29.703 -29.2567
0.963649 29.696 -28.5612
0.970632 29.692 -27.8426
0.977666 29.690 -27.1011
0.984750 29.691 -26.3370
0.991886 29.696 -25.5506
0.999074 29.703 -24.7424
1.006314 29.714 -23.9131
1.013606 29.729 -23.0635
1.020951 29.747 -22.1945
1.028349 29.770 -21.3074
1.035801 29.797 -20.4032
1.043307 29.829 -19.4834
1.050867 29.866 -18.5496
1.058482 29.909 -17.6032
1.066152 29.957 -16.6458
1.073878 30.011 -15.6790
1.081660 30.071 -14.7041
1.089498 30.138 -13.7220
1.097393 30.212 -12.7333
1.105345 30.292 -11.7384
1.113355 30.380 -10.7375
1.121423 30.476 -9.7313
1.129549 30.578 -8.7210
1.137734 30.688 -7.7082
1.145979 30.806 -6.6949
1.154283 30.930 -5.6835
1.162647 31.062 -4.6763
1.171072 31.200 -3.6758
1.179558 31.345 -2.6843
1.188106 31.496 -1.7043
1.196715 31.654 -0.7381
1.205387 31.817 0.2123
1.214122 31.987 1.1448
1.222920 32.162 2.0575
1.231782 32.343 2.9486
1.240708 32.528 3.8165
1.249699 32.719 4.6598
1.258754 32.914 5.4772
1.267876 33.113 6.2675
1.277063 33.316 7.0297
1.286318 33.523 7.7629
1.295639 33.733 8.4664
1.305027 33.946 9.1396
1.314484 34.161 9.7819
1.324009 34.379 10.3929
1.333604 34.598 10.9723
1.343268 34.818 11.5200
1.353002 35.039 12.0357
1.362806 35.260 12.5195
1.372681 35.481 12.9714
1.382628 35.702 13.3914
1.392647 35.921 13.7798
1.402739 36.139 14.1368
1.412904 36.354 14.4631
1.423142 36.568 14.7592
1.433455 36.778 15.0264
1.443843 36.986 15.2662
1.454305 37.192 15.4810
1.464844 37.396 15.6735
1.475459 37.598 15.8470
1.486150 37.800 16.0045
1.496920 38.003 16.1484
1.507767 38.206 16.2803
1.518693 38.410 16.4009
1.529698 38.615 16.5108
1.540783 38.821 16.6100
1.551948 39.028 16.6983
1.563194 39.236 16.7754
1.574521 39.445 16.8413
1.585931 39.655 16.8955
1.597423 39.866 16.9379
1.608999 40.077 16.9681
1.620658 40.289 16.9859
1.632402 40.501 16.9911
1.644232 40.713 16.9835
1.656146 40.926 16.9629
1.668147 41.139 16.9290
1.680235 41.351 16.8818
1.692411 41.563 16.8210
1.704675 41.775 16.7465
1.717028 41.986 16.6581
1.729470 42.197 16.5558
1.742003 42.407 16.4395
1.754626 42.616 16.3090
1.767341 42.823 16.1645
1.780147 43.029 16.0061
1.793047 43.234 15.8343
1.806040 43.437 15.6495
1.819128 43.639 15.4529
1.832310 43.839 15.2458
1.845587 44.037 15.0297
1.858961 44.233 14.8062
1.872432 44.428 14.5764
1.886001 44.621 14.3412
1.899667 44.812 14.1011
1.913433 45.002 13.8564
1.927299 45.191 13.6070
1.941265 45.378 13.3530
1.955332 45.564 13.0942
1.969501 45.749 12.8306
1.983773 45.932 12.5620
1.998148 46.114 12.2881
2.012627 46.296 12.0089
2.027212 46.476 11.7242
2.041902 46.655 11.4336
2.056698 46.834 11.1371
2.071602 47.011 10.8344
2.086614 47.188 10.5253
2.101734 47.365 10.2095
2.116964 47.541 9.8870
2.132304 47.717 9.5575
2.147756 47.892 9.2211
2.163320 48.067 8.8777
2.178996 48.242 8.5275
2.194786 48.415 8.1711
2.210690 48.589 7.8089
2.226710 48.761 7.4416
2.242845 48.932 7.0699
2.259098 49.101 6.6942
2.275468 49.270 6.3149
2.291957 49.437 5.9324
2.308566 49.603 5.5467
2.325295 49.768 5.1580
2.342145 49.931 4.7663
2.359117 50.094 4.3717
2.376212 50.255 3.9742
2.393431 50.416 3.5738
2.410775 50.576 3.1703
2.428244 50.735 2.7639
2.445840 50.893 2.3543
2.463564 51.051 1.9414
2.481416 51.208 1.5253
2.499397 51.365 1.1057
2.517509 51.521 0.6826
2.535752 51.677 0.2558
2.554127 51.832 -0.1746
2.572635 51.987 -0.6085
2.591277 52.141 -1.0459
2.610055 52.294 -1.4865
2.628968 52.446 -1.9302
2.648019 52.597 -2.3767
2.667208 52.747 -2.8258
2.686535 52.895 -3.2773
2.706003 53.043 -3.7309
2.725612 53.190 -4.1866
2.745363 53.336 -4.6441
2.765257 53.481 -5.1034
2.785295 53.625 -5.5644
2.805478 53.769 -6.0269
2.825808 53.912 -6.4911
2.846285 54.055 -6.9568
2.866910 54.197 -7.4242
2.887685 54.339 -7.8932
2.908611 54.480 -8.3640
2.929688 54.621 -8.8367
2.950917 54.761 -9.3114
2.972301 54.900 -9.7881
2.993839 55.039 -10.2669
3.015534 55.176 -10.7477
3.037386 55.313 -11.2303
3.059396 55.448 -11.7146
3.081565 55.583 -12.2005
3.103896 55.717 -12.6879
3.126388 55.851 -13.1766
3.149043 55.983 -13.6666
3.171862 56.115 -14.1577
3.194847 56.247 -14.6499
3.217998 56.378 -15.1433
3.241317 56.509 -15.6379
3.264805 56.639 -16.1338
3.288463 56.768 -16.6311
3.312293 56.897 -17.1300
3.336295 57.025 -17.6307
3.360471 57.153 -18.1331
3.384822 57.280 -18.6374
3.409350 57.406 -19.1433
3.434056 57.531 -19.6508
3.458940 57.655 -20.1597
3.484005 57.779 -20.6699
3.509252 57.902 -21.1813
3.534681 58.025 -21.6937
3.560295 58.147 -22.2071
3.586094 58.268 -22.7215
3.612081 58.389 -23.2370
3.638255 58.510 -23.7536
3.664620 58.630 -24.2717
3.691175 58.749 -24.7913
3.717923 58.867 -25.3126
3.744864 58.985 -25.8357
3.772001 59.102 -26.3605
3.799335 59.218 -26.8869
3.826866 59.334 -27.4147
3.854597 59.449 -27.9438
3.882529 59.563 -28.4740
3.910664 59.677 -29.0051
3.939002 59.789 -29.5372
3.967546 59.902 -30.0702
3.996296 60.013 -30.6044
4.025255 60.124 -31.1399
4.054423 60.234 -31.6770
4.083804 60.344 -32.2159
4.113396 60.453 -32.7567
4.143204 60.560 -33.2993
4.173227 60.667 -33.8434
4.203468 60.774 -34.3887
4.233928 60.879 -34.9350
4.264609 60.984 -35.4818
4.295512 61.088 -36.0290
4.326639 61.191 -36.5765
4.357992 61.293 -37.1244
4.389572 61.395 -37.6729
4.421380 61.495 -38.2222
4.453419 61.595 -38.7727
4.485691 61.694 -39.3245
4.518196 61.792 -39.8774
4.550936 61.889 -40.4310
4.583914 61.985 -40.9850
4.617131 62.080 -41.5387
4.650589 62.174 -42.0918
4.684289 62.267 -42.6440
4.718233 62.360 -43.1951
4.752424 62.451 -43.7453
4.786862 62.542 -44.2949
4.821549 62.632 -44.8441
4.856488 62.720 -45.3931
4.891680 62.808 -45.9417
4.927127 62.895 -46.4895
4.962831 62.980 -47.0360
4.998794 63.065 -47.5807
5.035017 63.149 -48.1229
5.071503 63.232 -48.6625
5.108253 63.314 -49.1992
5.145270 63.396 -49.7332
5.182555 63.476 -50.2648
5.220110 63.556 -50.7941
5.257937 63.634 -51.3211
5.296038 63.712 -51.8455
5.334415 63.789 -52.3669
5.373071 63.865 -52.8848
5.412006 63.941 -53.3989
5.451224 64.015 -53.9087
5.490725 64.090 -54.4143
5.530514 64.163 -54.9157
5.570590 64.236 -55.4130
5.610957 64.308 -55.9064
5.651616 64.380 -56.3959
5.692570 64.451 -56.8813
5.733821 64.522 -57.3627
5.775370 64.592 -57.8396
5.817221 64.662 -58.3120
5.859375 64.732 -58.7798
5.901834 64.802 -59.2431
5.944602 64.871 -59.7019
5.987679 64.940 -60.1565
6.031068 65.009 -60.6072
6.074771 65.077 -61.0539
6.118792 65.146 -61.4970
6.163131 65.214 -61.9365
6.207792 65.283 -62.3725
6.252776 65.351 -62.8050
6.298086 65.420 -63.2343
6.343725 65.489 -63.6604
6.389694 65.557 -64.0837
6.435996 65.626 -64.5046
6.482634 65.695 -64.9234
6.529610 65.764 -65.3405
6.576926 65.834 -65.7561
6.624585 65.903 -66.1702
6.672590 65.973 -66.5832
6.720942 66.043 -66.9952
6.769645 66.113 -67.4065
6.818700 66.183 -67.8175
6.868111 66.254 -68.2285
6.917881 66.324 -68.6399
6.968010 66.395 -69.0518
7.018504 66.466 -69.4645
7.069362 66.537 -69.8781
7.120590 66.608 -70.2928
7.172189 66.680 -70.7088
7.224161 66.751 -71.1263
7.276511 66.822 -71.5457
7.329239 66.893 -71.9670
7.382350 66.965 -72.3905
7.435845 67.036 -72.8162
7.489729 67.107 -73.2442
7.544002 67.178 -73.6747
7.598669 67.249 -74.1077
7.653732 67.319 -74.5433
7.709194 67.390 -74.9818
7.765058 67.460 -75.4231
7.821327 67.530 -75.8672
7.878004 67.599 -76.3143
7.935091 67.669 -76.7642
7.992592 67.737 -77.2169
8.050510 67.806 -77.6725
8.108847 67.873 -78.1310
8.167607 67.941 -78.5923
8.226793 68.007 -79.0563
8.286408 68.074 -79.5227
8.346454 68.139 -79.9914
8.406936 68.204 -80.4622
8.467856 68.268 -80.9349
8.529218 68.331 -81.4094
8.591024 68.393 -81.8853
8.653278 68.454 -82.3621
8.715983 68.515 -82.8395
8.779143 68.575 -83.3169
8.842760 68.633 -83.7941
8.906839 68.691 -84.2706
8.971381 68.748 -84.7460
9.036392 68.804 -85.2196
9.101873 68.859 -85.6908
9.167829 68.913 -86.1590
9.234263 68.967 -86.6239
9.301178 69.020 -87.0851
9.368578 69.072 -87.5422
9.436467 69.123 -87.9946
9.504847 69.174 -88.4421
9.573723 69.225 -88.8844
9.643099 69.275 -89.3214
9.712976 69.325 -89.7532
9.783361 69.376 -90.1800
9.854255 69.426 -90.6020
9.925663 69.477 -91.0195
9.997588 69.528 -91.4330
10.070035 69.579 -91.8431
10.143007 69.632 -92.2507
10.216507 69.684 -92.6567
10.290540 69.738 -93.0619
10.365109 69.792 -93.4674
10.440219 69.846 -93.8738
10.515873 69.901 -94.2825
10.592076 69.957 -94.6943
10.668830 70.013 -95.1100
10.746141 70.069 -95.5303
10.824012 70.126 -95.9556
10.902447 70.182 -96.3862
10.981451 70.238 -96.8223
11.061027 70.293 -97.2639
11.141180 70.348 -97.7104
11.221913 70.402 -98.1612
11.303232 70.455 -98.6153
11.385140 70.506 -99.0716
11.467641 70.557 -99.5291
11.550741 70.606 -99.9862
11.634442 70.654 -100.4414
11.718750 70.700 -100.8930
11.803669 70.745 -101.3396
11.889203 70.789 -101.7799
11.975357 70.832 -102.2127
12.062136 70.875 -102.6369
12.149543 70.917 -103.0518
12.237583 70.959 -103.4572
12.326262 71.002 -103.8532
12.415583 71.045 -104.2404
12.505552 71.088 -104.6195
12.596172 71.133 -104.9917
12.687449 71.179 -105.3589
12.779387 71.226 -105.7228
12.871992 71.275 -106.0855
12.965268 71.325 -106.4489
13.059220 71.376 -106.8150
13.153852 71.428 -107.1857
13.249170 71.481 -107.5625
13.345179 71.534 -107.9465
13.441884 71.588 -108.3382
13.539289 71.641 -108.7377
13.637401 71.693 -109.1448
13.736223 71.745 -109.5585
13.835761 71.796 -109.9773
13.936021 71.845 -110.3996
14.037007 71.892 -110.8235
14.138725 71.938 -111.2469
14.241180 71.982 -111.6679
14.344377 72.025 -112.0844
14.448323 72.067 -112.4950
14.553021 72.108 -112.8987
14.658478 72.148 -113.2947
14.764700 72.187 -113.6829
14.871691 72.227 -114.0636
14.979457 72.266 -114.4378
15.088005 72.306 -114.8064
15.197339 72.345 -115.1705
15.307465 72.385 -115.5315
15.418389 72.425 -115.8902
15.530117 72.464 -116.2472
15.642655 72.503 -116.6024
15.756008 72.541 -116.9551
15.870182 72.579 -117.3043
15.985184 72.615 -117.6481
16.101019 72.651 -117.9844
16.217694 72.686 -118.3109
16.335214 72.720 -118.6257
16.453586 72.754 -118.9274
16.572815 72.789 -119.2154
16.692909 72.826 -119.4906
16.813872 72.865 -119.7553
16.935713 72.906 -120.0132
17.058436 72.951 -120.2697
17.182048 73.000 -120.5315
17.306556 73.052 -120.8060
17.431967 73.107 -121.1007
17.558286 73.165 -121.4228
17.685521 73.224 -121.7780
17.813677 73.283 -122.1703
17.942762 73.341 -122.6013
18.072783 73.396 -123.0697
18.203746 73.445 -123.5715
18.335658 73.489 -124.0999
18.468526 73.525 -124.6460
18.602356 73.554 -125.1993
18.737156 73.575 -125.7481
18.872934 73.588 -126.2813
19.009695 73.595 -126.7884
19.147447 73.598 -127.2612
19.286197 73.597 -127.6942
19.425953 73.595 -128.0856
19.566721 73.593 -128.4371
19.708510 73.595 -128.7542
19.851326 73.600 -129.0455
19.995177 73.611 -129.3215
20.140070 73.626 -129.5936
20.286013 73.645 -129.8724
20.433014 73.669 -130.1665
20.581080 73.694 -130.4817
20.730219 73.720 -130.8201
20.880439 73.745 -131.1805
21.031747 73.769 -131.5585
21.184152 73.790 -131.9481
21.337661 73.808 -132.3419
21.492282 73.825 -132.7336
21.648024 73.839 -133.1181
21.804895 73.854 -133.4929
21.962902 73.869 -133.8582
22.122054 73.885 -134.2169
22.282360 73.903 -134.5736
22.443827 73.923 -134.9337
22.606464 73.945 -135.3017
22.770280 73.967 -135.6805
22.935283 73.989 -136.0699
23.101481 74.010 -136.4668
23.268884 74.029 -136.8654
23.437500 74.046 -137.2584
23.607338 74.061 -137.6384
23.778406 74.076 -137.9998
23.950714 74.093 -138.3404
24.124271 74.112 -138.6624
24.299086 74.135 -138.9726
24.475167 74.163 -139.2817
24.652524 74.196 -139.6024
24.831166 74.233 -139.9465
25.011103 74.272 -140.3226
25.192344 74.310 -140.7335
25.374898 74.344 -141.1750
25.558775 74.372 -141.6358
25.743984 74.392 -142.0987
25.930536 74.405 -142.5432
26.118439 74.410 -142.9490
26.307704 74.412 -143.2992
26.498341 74.413 -143.5844
26.690359 74.417 -143.8049
26.883768 74.428 -143.9714
27.078579 74.449 -144.1043
27.274801 74.482 -144.2298
27.472446 74.524 -144.3754
27.671522 74.575 -144.5648
27.872042 74.630 -144.8143
28.074014 74.685 -145.1295
28.277450 74.737 -145.5063
28.482360 74.781 -145.9324
28.688755 74.818 -146.3904
28.896645 74.845 -146.8618
29.106042 74.864 -147.3304
29.316957 74.876 -147.7845
29.529400 74.882 -148.2180
29.743382 74.885 -148.6299
29.958915 74.886 -149.0226
30.176009 74.884 -149.3996
30.394677 74.881 -149.7632
30.614929 74.875 -150.1138
30.836778 74.866 -150.4489
31.060234 74.856 -150.7650
31.285309 74.844 -151.0590
31.512015 74.832 -151.3303
31.740364 74.822 -151.5816
31.970368 74.814 -151.8191
32.202039 74.810 -152.0515
32.435388 74.808 -152.2874
32.670428 74.809 -152.5333
32.907171 74.810 -152.7920
33.145630 74.812 -153.0624
33.385817 74.813 -153.3401
33.627745 74.814 -153.6199
33.871425 74.815 -153.8973
34.116871 74.817 -154.1705
34.364096 74.821 -154.4412
34.613113 74.827 -154.7137
34.863934 74.836 -154.9934
35.116572 74.846 -155.2853
35.371041 74.858 -155.5923
35.627354 74.870 -155.9147
35.885525 74.882 -156.2504
36.145566 74.892 -156.5956
36.407492 74.901 -156.9458
36.671316 74.909 -157.2962
36.937051 74.914 -157.6423
37.204712 74.919 -157.9798
37.474313 74.922 -158.3044
37.745867 74.924 -158.6132
38.019389 74.927 -158.9047
38.294893 74.930 -159.1799
38.572394 74.935 -159.4426
38.851905 74.943 -159.6983
39.133442 74.952 -159.9535
39.417019 74.962 -160.2128
39.702651 74.972 -160.4779
39.990353 74.981 -160.7473
40.280140 74.990 -161.0166
40.572026 74.997 -161.2815
40.866028 75.003 -161.5390
41.162160 75.010 -161.7902
41.460438 75.018 -162.0393
41.760877 75.027 -162.2932
42.063494 75.037 -162.5580
42.368303 75.045 -162.8375
42.675322 75.052 -163.1310
42.984565 75.057 -163.4340
43.296048 75.058 -163.7399
43.609789 75.056 -164.0423
43.925804 75.053 -164.3370
44.244108 75.049 -164.6234
44.564719 75.044 -164.9038
44.887654 75.039 -165.1813
45.212928 75.034 -165.4585
45.540560 75.029 -165.7360
45.870565 75.024 -166.0128
46.202962 75.018 -166.2873
46.537768 75.013 -166.5587
46.875000 75.009 -166.8281
47.214676 75.005 -167.0980
47.556813 75.003 -167.3710
47.901429 75.001 -167.6485
48.248542 75.000 -167.9294
48.598171 74.998 -168.2107
48.950334 74.997 -168.4888
49.305048 74.995 -168.7610
49.662333 74.995 -169.0275
50.022206 74.996 -169.2907
50.384688 74.997 -169.5548
50.749796 74.999 -169.8228
51.117550 75.000 -170.0941
51.487969 74.999 -170.3640
51.861072 74.996 -170.6249
52.236879 74.991 -170.8702
52.615409 74.986 -171.0981
52.996681 74.981 -171.3126
53.380717 74.976 -171.5214
53.767536 74.972 -171.7322
54.157158 74.968 -171.9486
54.549603 74.962 -172.1710
54.944892 74.955 -172.3992
55.343045 74.948 -172.6355
55.744084 74.940 -172.8839
56.148028 74.931 -173.1479
56.554900 74.920 -173.4276
56.964720 74.909 -173.7213
57.377510 74.896 -174.0292
57.793291 74.882 -174.3534
58.212085 74.866 -174.6928
58.633914 74.847 -175.0355
59.058799 74.823 -175.3574
59.486764 74.797 -175.6325
59.917829 74.775 -175.8498
60.352019 74.761 -176.0238
60.789354 74.759 -176.1889
61.229859 74.765 -176.3777
61.673556 74.774 -176.6035
62.120468 74.782 -176.8561
62.570618 74.787 -177.1150
63.024031 74.790 -177.3643
63.480729 74.791 -177.5994
63.940736 74.791 -177.8235
64.404077 74.789 -178.0406
64.870776 74.786 -178.2540
65.340856 74.782 -178.4666
65.814343 74.776 -178.6819
66.291261 74.768 -178.9021
66.771635 74.757 -179.1268
67.255489 74.745 -179.3542
67.742850 74.732 -179.5835
68.233743 74.719 -179.8152
68.728193 74.705 179.9503
69.226226 74.692 179.7134
69.727867 74.680 179.4744
70.233144 74.669 179.2324
70.742083 74.659 178.9863
71.254709 74.649 178.7367
71.771050 74.638 178.4861
72.291132 74.627 178.2378
72.814984 74.615 177.9936
73.342631 74.601 177.7548
73.874102 74.587 177.5227
74.409424 74.571 177.2984
74.948626 74.555 177.0802
75.491734 74.539 176.8618
76.038779 74.524 176.6343
76.589787 74.508 176.3932
77.144788 74.491 176.1418
77.703811 74.471 175.8908
78.266885 74.451 175.6498
78.834039 74.431 175.4228
79.405303 74.413 175.2087
79.980706 74.395 175.0078
80.560280 74.379 174.8232
81.144053 74.365 174.6565
81.732056 74.352 174.5024
82.324320 74.342 174.3502
82.920876 74.332 174.1910
83.521755 74.321 174.0221
84.126988 74.308 173.8450
84.736607 74.292 173.6613
85.350643 74.275 173.4704
85.969129 74.256 173.2710
86.592097 74.235 173.0629
87.219579 74.213 172.8483
87.851608 74.190 172.6313
88.488217 74.168 172.4164
89.129439 74.147 172.2057
89.775308 74.129 171.9996
90.425856 74.112 171.7966
91.081119 74.097 171.5939
91.741131 74.083 171.3889
92.405925 74.068 171.1818
93.075536 74.051 170.9785
93.750000 74.032 170.7877
94.429351 74.011 170.6130
95.113625 73.989 170.4517
95.802858 73.966 170.2982
96.497085 73.944 170.1473
97.196342 73.921 169.9954
97.900667 73.897 169.8400
98.610096 73.874 169.6812
99.324665 73.850 169.5195
100.044413 73.827 169.3551
100.769376 73.803 169.1876
101.499592 73.780 169.0167
102.235100 73.755 168.8440
102.975938 73.729 168.6733
103.722144 73.702 168.5095
104.473757 73.674 168.3547
105.230817 73.645 168.2074
105.993363 73.615 168.0648
106.761435 73.585 167.9246
107.535072 73.554 167.7849
108.314315 73.523 167.6443
109.099206 73.491 167.5031
109.889783 73.460 167.3624
110.686090 73.429 167.2239
111.488167 73.398 167.0897
112.296056 73.368 166.9640
113.109800 73.338 166.8541
113.929440 73.309 166.7681
114.755020 73.280 166.7121
115.586582 73.254 166.6852
116.424170 73.230 166.6769
117.267827 73.208 166.6697
118.117598 73.188 166.6477
118.973527 73.167 166.6049
119.835658 73.146 166.5506
120.704037 73.128 166.4939
121.578708 73.116 166.4099
122.459718 73.110 166.2438
123.347111 73.099 165.9810
124.240935 73.075 165.6884
125.141236 73.040 165.4552
126.048061 73.002 165.3138
126.961458 72.969 165.2397
127.881473 72.942 165.1952
128.808154 72.919 165.1522
129.741551 72.897 165.0987
130.681712 72.877 165.0334
131.628686 72.858 164.9542
132.582521 72.840 164.8552
133.543269 72.823 164.7343
134.510979 72.805 164.6000
135.485701 72.785 164.4670
136.467486 72.762 164.3439
137.456386 72.736 164.2351
138.452451 72.707 164.1436
139.455735 72.675 164.0626
140.466288 72.642 163.9791
141.484165 72.608 163.8869
142.509418 72.572 163.7924
143.542100 72.539 163.7043
144.582265 72.509 163.6187
145.629968 72.484 163.5235
146.685262 72.462 163.4135
147.748204 72.440 163.2972
148.818849 72.417 163.1938
149.897251 72.393 163.1200
150.983469 72.371 163.0764
152.077557 72.351 163.0483
153.179574 72.335 163.0175
154.289576 72.319 162.9739
155.407622 72.302 162.9162
156.533770 72.284 162.8486
157.668078 72.262 162.7774
158.810606 72.238 162.7062
159.961413 72.213 162.6339
161.120559 72.186 162.5563
162.288105 72.158 162.4713
163.464112 72.130 162.3805
164.648640 72.100 162.2878
165.841752 72.070 162.1966
167.043510 72.040 162.1088
168.253976 72.009 162.0248
169.473213 71.978 161.9446
170.701286 71.946 161.8679
171.938258 71.913 161.7945
173.184194 71.880 161.7241
174.439158 71.846 161.6573
175.703216 71.812 161.5949
176.976434 71.778 161.5372
178.258878 71.744 161.4854
179.550615 71.710 161.4423
180.851713 71.676 161.4102
182.162239 71.643 161.3883
183.482262 71.611 161.3745
184.811850 71.580 161.3671
186.151073 71.551 161.3649
187.500000 71.524 161.3680
188.858702 71.498 161.3774
190.227250 71.472 161.3927
191.605715 71.446 161.4114
192.994169 71.420 161.4282
194.392685 71.396 161.4361
195.801334 71.373 161.4274
197.220191 71.352 161.3982
198.649330 71.332 161.3519
200.088825 71.312 161.2974
201.538751 71.292 161.2446
202.999184 71.269 161.1999
204.470200 71.244 161.1636
205.951875 71.215 161.1322
207.444287 71.184 161.0988
208.947514 71.153 161.0529
210.461634 71.123 160.9852
211.986726 71.095 160.8958
213.522869 71.068 160.7953
215.070144 71.041 160.7005
216.628631 71.013 160.6310
218.198411 70.982 160.6026
219.779567 70.949 160.6179
221.372180 70.916 160.6632
222.976334 70.883 160.7166
224.592112 70.849 160.7602
226.219600 70.815 160.7838
227.858880 70.781 160.7839
229.510039 70.747 160.7652
231.173164 70.712 160.7388
232.848340 70.678 160.7156
234.535655 70.645 160.7028
236.235197 70.611 160.7053
237.947054 70.578 160.7276
239.671317 70.544 160.7708
241.408074 70.511 160.8304
243.157416 70.477 160.8992
244.919435 70.443 160.9721
246.694223 70.411 161.0440
248.481871 70.381 161.1066
250.282473 70.353 161.1528
252.096123 70.326 161.1805
253.922915 70.298 161.1932
255.762945 70.268 161.1982
257.616309 70.236 161.2049
259.483103 70.201 161.2208
261.363424 70.165 161.2480
263.257372 70.128 161.2839
265.165043 70.092 161.3244
267.086538 70.057 161.3679
269.021957 70.023 161.4160
270.971401 69.990 161.4717
272.934972 69.958 161.5361
274.912771 69.926 161.6086
276.904902 69.895 161.6879
278.911469 69.864 161.7713
280.932577 69.834 161.8555
282.968330 69.804 161.9371
285.018835 69.775 162.0150
287.084199 69.745 162.0927
289.164530 69.715 162.1765
291.259935 69.685 162.2726
293.370525 69.655 162.3821
295.496408 69.625 162.5002
297.637697 69.595 162.6202
299.794503 69.566 162.7379
301.966937 69.539 162.8510
304.155114 69.514 162.9581
306.359147 69.490 163.0589
308.579152 69.468 163.1543
310.815244 69.445 163.2466
313.067539 69.422 163.3385
315.336156 69.397 163.4305
317.621211 69.370 163.5212
319.922826 69.342 163.6094
322.241118 69.313 163.6965
324.576210 69.285 163.7858
326.928223 69.257 163.8807
329.297280 69.230 163.9818
331.683504 69.203 164.0856
334.087019 69.178 164.1873
336.507952 69.153 164.2847
338.946427 69.129 164.3792
341.402572 69.105 164.4748
343.876516 69.080 164.5752
346.368387 69.055 164.6817
348.878315 69.029 164.7933
351.406431 69.001 164.9078
353.952867 68.973 165.0234
356.517756 68.944 165.1387
359.101230 68.916 165.2523
361.703426 68.888 165.3629
364.324478 68.861 165.4709
366.964523 68.834 165.5794
369.623699 68.808 165.6923
372.302145 68.782 165.8127
375.000000 68.756 165.9410
377.717405 68.730 166.0745
380.454501 68.704 166.2097
383.211431 68.678 166.3445
385.988339 68.653 166.4790
388.785369 68.629 166.6133
391.602668 68.604 166.7477
394.440383 68.578 166.8835
397.298660 68.553 167.0228
400.177650 68.528 167.1676
403.077502 68.502 167.3181
405.998368 68.477 167.4734
408.940400 68.452 167.6323
411.903750 68.427 167.7935
414.888575 68.402 167.9573
417.895028 68.378 168.1248
420.923268 68.354 168.2975
423.973452 68.330 168.4749
427.045738 68.308 168.6555
430.140287 68.286 168.8375
433.257261 68.264 169.0192
436.396822 68.243 169.1990
439.559133 68.221 169.3766
442.744360 68.200 169.5528
445.952668 68.178 169.7285
449.184225 68.157 169.9046
452.439199 68.135 170.0818
455.717760 68.113 170.2598
459.020079 68.091 170.4375
462.346327 68.069 170.6151
465.696680 68.047 170.7931
469.071310 68.024 170.9733
472.470394 68.003 171.1584
475.894109 67.981 171.3514
479.342634 67.961 171.5538
482.816148 67.940 171.7651
486.314833 67.920 171.9820
489.838871 67.900 172.1999
493.388445 67.881 172.4155
496.963741 67.862 172.6270
500.564945 67.844 172.8350
504.192245 67.826 173.0419
507.845830 67.809 173.2502
511.525890 67.792 173.4611
515.232618 67.775 173.6751
518.966206 67.757 173.8917
522.726849 67.740 174.1100
526.514743 67.722 174.3298
530.330086 67.704 174.5515
534.173076 67.686 174.7757
538.043915 67.668 175.0032
541.942803 67.651 175.2350
545.869944 67.635 175.4718
549.825542 67.619 175.7125
553.809805 67.604 175.9558
557.822939 67.589 176.2005
561.865154 67.575 176.4456
565.936660 67.561 176.6907
570.037671 67.548 176.9363
574.168399 67.535 177.1834
578.329060 67.521 177.4335
582.519870 67.508 177.6874
586.741049 67.495 177.9455
590.992817 67.482 178.2069
595.275394 67.469 178.4700
599.589005 67.456 178.7330
603.933874 67.444 178.9948
608.310228 67.432 179.2559
612.718295 67.421 179.5171
617.158304 67.410 179.7802
621.630488 67.400 -179.9526
626.135079 67.390 -179.6780
630.672311 67.381 -179.3941
635.242423 67.371 -179.1015
639.845651 67.362 -178.8029
644.482237 67.353 -178.5010
649.152421 67.343 -178.1983
653.856447 67.335 -177.8972
658.594560 67.327 -177.5998
663.367008 67.320 -177.3068
668.174039 67.313 -177.0166
673.015903 67.307 -176.7257
677.892854 67.302 -176.4310
682.805145 67.297 -176.1299
687.753032 67.292 -175.8215
692.736774 67.288 -175.5065
697.756631 67.285 -175.1866
702.812863 67.282 -174.8631
707.905735 67.280 -174.5356
713.035511 67.278 -174.2034
718.202461 67.278 -173.8667
723.406852 67.277 -173.5267
728.648956 67.278 -173.1842
733.929047 67.278 -172.8389
739.247399 67.280 -172.4908
744.604290 67.282 -172.1407
750.000000 67.286 -171.7897
755.434809 67.290 -171.4382
760.909001 67.296 -171.0851
766.422861 67.302 -170.7290
771.976677 67.309 -170.3696
777.570739 67.317 -170.0072
783.205337 67.326 -169.6416
788.880766 67.335 -169.2723
794.597321 67.346 -168.9000
800.355301 67.358 -168.5255
806.155005 67.371 -168.1494
811.996736 67.385 -167.7721
817.880799 67.401 -167.3936
823.807501 67.417 -167.0134
829.777150 67.435 -166.6309
835.790057 67.454 -166.2463
841.846536 67.474 -165.8608
847.946903 67.495 -165.4760
854.091476 67.517 -165.0925
860.280575 67.541 -164.7103
866.514523 67.566 -164.3291
872.793644 67.592 -163.9488
879.118267 67.620 -163.5687
885.488720 67.649 -163.1886
891.905336 67.679 -162.8082
898.368450 67.711 -162.4283
904.878398 67.745 -162.0504
911.435520 67.780 -161.6758
918.040157 67.817 -161.3055
924.692655 67.855 -160.9402
931.393359 67.895 -160.5802
938.142619 67.936 -160.2258
944.940787 67.979 -159.8769
951.788218 68.023 -159.5328
958.685268 68.069 -159.1923
965.632296 68.116 -158.8550
972.629666 68.165 -158.5225
979.677741 68.216 -158.1971
986.776890 68.268 -157.8801
993.927482 68.321 -157.5718
1001.129891 68.374 -157.2722
1008.384491 68.429 -156.9817
1015.691660 68.485 -156.7006
1023.051781 68.542 -156.4296
1030.465236 68.599 -156.1695
1037.932411 68.658 -155.9203
1045.453698 68.717 -155.6820
1053.029486 68.778 -155.4545
1060.660172 68.838 -155.2378
1068.346153 68.900 -155.0317
1076.087829 68.961 -154.8353
1083.885605 69.023 -154.6483
1091.739887 69.085 -154.4706
1099.651084 69.147 -154.3028
1107.619609 69.209 -154.1451
1115.645878 69.271 -153.9975
1123.730308 69.333 -153.8602
1131.873321 69.395 -153.7337
1140.075341 69.457 -153.6185
1148.336797 69.518 -153.5146
1156.658119 69.580 -153.4207
1165.039741 69.642 -153.3352
1173.482099 69.703 -153.2574
1181.985634 69.764 -153.1870
1190.550789 69.824 -153.1237
1199.178011 69.884 -153.0673
1207.867749 69.944 -153.0178
1216.620457 70.003 -152.9757
1225.436590 70.062 -152.9414
1234.316609 70.120 -152.9149
1243.260976 70.178 -152.8957
1252.270157 70.235 -152.8832
1261.344623 70.292 -152.8770
1270.484846 70.349 -152.8767
1279.691303 70.405 -152.8810
1288.964474 70.461 -152.8891
1298.304842 70.517 -152.9008
1307.712894 70.572 -152.9168
1317.189120 70.626 -152.9382
1326.734016 70.680 -152.9658
1336.348077 70.734 -152.9991
1346.031806 70.788 -153.0374
1355.785708 70.841 -153.0809
1365.610290 70.895 -153.1302
1375.506065 70.948 -153.1856
1385.473549 71.002 -153.2467
1395.513261 71.055 -153.3131
1405.625726 71.109 -153.3853
1415.811469 71.162 -153.4638
1426.071023 71.216 -153.5493
1436.404921 71.270 -153.6423
1446.813703 71.324 -153.7441
1457.297912 71.377 -153.8566
1467.858093 71.431 -153.9819
1478.494798 71.485 -154.1215
1489.208581 71.538 -154.2764
1500.000000 71.591 -154.4480
1510.869618 71.644 -154.6383
1521.818002 71.696 -154.8499
1532.845723 71.747 -155.0853
1543.953355 71.797 -155.3465
1555.141477 71.844 -155.6351
1566.410674 71.889 -155.9526
1577.761531 71.930 -156.3000
1589.194642 71.966 -156.6779
1600.710601 71.996 -157.0858
1612.310010 72.020 -157.5217
1623.993473 72.035 -157.9818
1635.761599 72.041 -158.4603
1647.615002 72.035 -158.9486
1659.554299 72.017 -159.4345
1671.580114 71.986 -159.9019
1683.693072 71.941 -160.3315
1695.893807 71.883 -160.7022
1708.182952 71.813 -160.9927
1720.561150 71.733 -161.1830
1733.029045 71.646 -161.2560
1745.587288 71.555 -161.1997
1758.236533 71.465 -161.0092
1770.977440 71.380 -160.6874
1783.810673 71.304 -160.2449
1796.736900 71.241 -159.6985
1809.756796 71.193 -159.0709
1822.871040 71.162 -158.3875
1836.080315 71.147 -157.6738
1849.385310 71.150 -156.9527
1862.786718 71.167 -156.2436
1876.285239 71.198 -155.5612
1889.881575 71.242 -154.9160
1903.576436 71.295 -154.3146
1917.370535 71.356 -153.7605
1931.264593 71.424 -153.2554
1945.259332 71.496 -152.7988
1959.355483 71.572 -152.3888
1973.553781 71.650 -152.0222
1987.854965 71.730 -151.6954
2002.259781 71.812 -151.4049
2016.768981 71.894 -151.1475
2031.383320 71.976 -150.9207
2046.103561 72.058 -150.7220
2060.930471 72.141 -150.5489
2075.864823 72.222 -150.3989
2090.907395 72.304 -150.2693
2106.058972 72.385 -150.1577
2121.320344 72.466 -150.0620
2136.692305 72.546 -149.9800
2152.175658 72.626 -149.9101
2167.771210 72.705 -149.8515
2183.479774 72.785 -149.8037
2199.302169 72.864 -149.7670
2215.239219 72.944 -149.7411
2231.291755 73.024 -149.7258
2247.460615 73.104 -149.7212
2263.746641 73.185 -149.7270
2280.150683 73.266 -149.7431
2296.673595 73.347 -149.7692
2313.316238 73.429 -149.8055
2330.079481 73.511 -149.8520
2346.964198 73.594 -149.9093
2363.971268 73.677 -149.9778
2381.101578 73.762 -150.0585
2398.356022 73.847 -150.1521
2415.735498 73.934 -150.2593
2433.240913 74.021 -150.3807
2450.873180 74.110 -150.5173
2468.633217 74.200 -150.6703
2486.521951 74.291 -150.8409
2504.540314 74.383 -151.0300
2522.689246 74.476 -151.2383
2540.969692 74.571 -151.4671
2559.382606 74.667 -151.7189
2577.928947 74.765 -151.9968
2596.609683 74.864 -152.3042
2615.425787 74.965 -152.6446
2634.378241 75.068 -153.0216
2653.468031 75.172 -153.4390
2672.696154 75.277 -153.9010
2692.063613 75.383 -154.4118
2711.571415 75.489 -154.9758
2731.220579 75.594 -155.5970
2751.012130 75.699 -156.2800
2770.947098 75.802 -157.0288
2791.026522 75.903 -157.8478
2811.251451 76.001 -158.7410
2831.622938 76.094 -159.7124
2852.142045 76.181 -160.7660
2872.809842 76.260 -161.9053
2893.627406 76.330 -163.1329
2914.595823 76.389 -164.4503
2935.716186 76.434 -165.8582
2956.989596 76.463 -167.3552
2978.417161 76.474 -168.9375
3000.000000 76.462 -170.5975
3021.739237 76.426 -172.3241
3043.636005 76.361 -174.1009
3065.691446 76.264 -175.9065
3087.906710 76.133 -177.7136
3110.282955 75.966 -179.4896
3132.821347 75.759 178.8036
3155.523062 75.513 177.2089
3178.389283 75.229 175.7732
3201.421202 74.907 174.5461
3224.620020 74.552 173.5778
3247.986946 74.168 172.9167
3271.523198 73.762 172.6069
3295.230004 73.342 172.6846
3319.108599 72.920 173.1749
3343.160228 72.505 174.0876
3367.386145 72.111 175.4137
3391.787613 71.749 177.1229
3416.365904 71.432 179.1629
3441.122300 71.167 -178.5381
3466.058091 70.961 -176.0646
3491.174576 70.815 -173.5054
3516.473066 70.728 -170.9442
3541.954880 70.697 -168.4530
3567.621345 70.715 -166.0878
3593.473800 70.774 -163.8880
3619.513592 70.867 -161.8775
3645.742080 70.987 -160.0666
3672.160630 71.126 -158.4551
3698.770620 71.279 -157.0353
3725.573436 71.441 -155.7952
3752.570477 71.609 -154.7203
3779.763150 71.779 -153.7957
3807.152872 71.950 -153.0065
3834.741071 72.121 -152.3380
3862.529185 72.290 -151.7772
3890.518664 72.458 -151.3136
3918.710966 72.624 -150.9397
3947.107561 72.787 -150.6502
3975.709929 72.949 -150.4422
4004.519563 73.109 -150.3138
4033.537962 73.267 -150.2641
4062.766641 73.421 -150.2927
4092.207123 73.571 -150.3992
4121.860942 73.716 -150.5828
4151.729646 73.854 -150.8413
4181.814790 73.986 -151.1716
4212.117944 74.109 -151.5691
4242.640687 74.223 -152.0271
4273.384610 74.327 -152.5371
4304.351317 74.421 -153.0895
4335.542421 74.504 -153.6748
4366.959549 74.578 -154.2843
4398.604338 74.641 -154.9115
4430.478438 74.695 -155.5515
4462.583511 74.741 -156.2012
4494.921231 74.778 -156.8582
4527.493283 74.807 -157.5207
4560.301365 74.828 -158.1871
4593.347189 74.842 -158.8559
4626.632476 74.848 -159.5253
4660.158962 74.846 -160.1934
4693.928395 74.836 -160.8576
4727.942535 74.818 -161.5141
4762.203156 74.792 -162.1587
4796.712043 74.758 -162.7865
4831.470996 74.716 -163.3927
4866.481826 74.667 -163.9727
4901.746360 74.611 -164.5223
4937.266434 74.549 -165.0380
4973.043902 74.480 -165.5170
5009.080628 74.407 -165.9565
5045.378492 74.328 -166.3539
5081.939384 74.245 -166.7070
5118.765212 74.160 -167.0143
5155.857894 74.071 -167.2746
5193.219366 73.980 -167.4869
5230.851574 73.888 -167.6506
5268.756481 73.795 -167.7657
5306.936062 73.702 -167.8328
5345.392309 73.609 -167.8527
5384.127225 73.517 -167.8268
5423.142830 73.426 -167.7561
5462.441159 73.337 -167.6415
5502.024259 73.251 -167.4834
5541.894195 73.167 -167.2824
5582.053045 73.086 -167.0392
5622.502902 73.009 -166.7552
5663.245876 72.935 -166.4322
5704.284090 72.866 -166.0723
5745.619684 72.800 -165.6768
5787.254813 72.739 -165.2470
5829.191647 72.684 -164.7840
5871.432373 72.633 -164.2893
5913.979192 72.588 -163.7643
5956.834323 72.548 -163.2101
6000.000000 72.515 -162.6281
6043.478473 72.489 -162.0198
6087.272010 72.469 -161.3870
6131.382892 72.456 -160.7314
6175.813420 72.451 -160.0550
6220.565910 72.453 -159.3596
6265.642695 72.463 -158.6474
6311.046124 72.481 -157.9204
6356.778566 72.506 -157.1799
6402.842404 72.541 -156.4273
6449.240040 72.584 -155.6637
6495.973891 72.636 -154.8902
6543.046396 72.697 -154.1079
6590.460007 72.768 -153.3179
6638.217197 72.849 -152.5215
6686.320456 72.941 -151.7201
6734.772290 73.044 -150.9152
6783.575226 73.158 -150.1092
6832.731809 73.286 -149.3048
6882.244600 73.426 -148.5049
6932.116181 73.581 -147.7125
6982.349153 73.750 -146.9313
7032.946133 73.935 -146.1663
7083.909760 74.138 -145.4243
7135.242690 74.358 -144.7132
7186.947600 74.599 -144.0424
7239.027185 74.860 -143.4226
7291.484160 75.144 -142.8668
7344.321260 75.452 -142.3907
7397.541239 75.784 -142.0140
7451.146872 76.143 -141.7599
7505.140954 76.528 -141.6568
7559.526299 76.940 -141.7372
7614.305743 77.379 -142.0386
7669.482141 77.842 -142.6022
7725.058371 78.327 -143.4720
7781.037328 78.827 -144.6919
7837.421932 79.334 -146.3032
7894.215122 79.841 -148.3408
7951.419859 80.333 -150.8308
8009.039125 80.800 -153.7872
8067.075924 81.227 -157.2076
8125.533282 81.600 -161.0688
8184.414245 81.905 -165.3253
8243.721885 82.130 -169.9085
8303.459292 82.264 -174.7294
8363.629581 82.301 -179.6827
8424.235888 82.237 175.3468
8485.281374 82.075 170.4756
8546.769221 81.819 165.8127
8608.702634 81.481 161.4515
8671.084842 81.072 157.4633
8733.919097 80.606 153.8948
8797.208675 80.099 150.7671
8860.956876 79.564 148.0785
8925.167022 79.015 145.8077
8989.842461 78.462 143.9185
9054.986566 77.913 142.3645
9120.602731 77.373 141.0946
9186.694378 76.846 140.0570
9253.264952 76.332 139.2035
9320.317925 75.831 138.4933
9387.856790 75.338 137.8972
9455.885071 74.850 137.4003
9524.406312 74.361 137.0040
9593.424086 73.866 136.7267
9662.941992 73.362 136.6028
9732.963653 72.846 136.6785
9803.492719 72.323 137.0038
9874.532869 71.797 137.6194
9946.087805 71.278 138.5435
10018.161257 70.780 139.7606
10090.756983 70.312 141.2211
10163.878768 69.883 142.8479
10237.530423 69.499 144.5518
10311.715789 69.157 146.2471
10386.438732 68.854 147.8650
10461.703149 68.581 149.3613
10537.512962 68.331 150.7160
10613.872125 68.095 151.9296
10690.784618 67.865 153.0175
10768.254450 67.637 154.0049
10846.285661 67.406 154.9211
10924.882318 67.171 155.7971
11004.048518 66.930 156.6625
11083.788390 66.685 157.5447
11164.106090 66.436 158.4663
11245.005805 66.187 159.4450
11326.491752 65.941 160.4934
11408.568180 65.700 161.6191
11491.239368 65.468 162.8251
11574.509626 65.250 164.1092
11658.383294 65.049 165.4638
11742.864745 64.869 166.8746
11827.958384 64.713 168.3211
11913.668646 64.583 169.7767
12000.000000 64.478 171.2119
12086.956947 64.397 172.6004
12174.544019 64.337 173.9241
12262.765784 64.295 175.1747
12351.626840 64.269 176.3511
12441.131819 64.256 177.4569
12531.285389 64.253 178.4996
12622.092249 64.256 179.4901
12713.557132 64.264 -179.5567
12805.684808 64.275 -178.6233
12898.480079 64.287 -177.6908
12991.947783 64.302 -176.7406
13086.092792 64.318 -175.7555
13180.920015 64.337 -174.7198
13276.434395 64.360 -173.6191
13372.640911 64.389 -172.4418
13469.544580 64.426 -171.1795
13567.150452 64.471 -169.8271
13665.463617 64.529 -168.3815
13764.489200 64.599 -166.8420
13864.232362 64.686 -165.2093
13964.698305 64.790 -163.4855
14065.892266 64.917 -161.6770
14167.819519 65.071 -159.7984
14270.485380 65.254 -157.8744
14373.895200 65.472 -155.9398
14478.054370 65.727 -154.0387
14582.968320 66.020 -152.2226
14688.642520 66.353 -150.5483
14795.082478 66.725 -149.0782
14902.293745 67.134 -147.8800
15010.281908 67.577 -147.0274
15119.052599 68.049 -146.5987
15228.611486 68.539 -146.6730
15338.964283 69.036 -147.3235
15450.116741 69.524 -148.6085
15562.074656 69.982 -150.5626
15674.843864 70.390 -153.1887
15788.430244 70.727 -156.4524
15902.839718 70.970 -160.2797
16018.078250 71.102 -164.5597
16134.151848 71.112 -169.1538
16251.066563 70.992 -173.9093
16368.828491 70.745 -178.6753
16487.443769 70.378 176.6823
16606.918584 69.904 172.2698
16727.259161 69.338 168.1608
16848.471777 68.699 164.3959
16970.562748 68.004 160.9861
17093.538442 67.270 157.9170
17217.405268 66.515 155.1548
17342.169684 65.753 152.6546
17467.838194 64.997 150.3680
17594.417350 64.255 148.2505
17721.913751 63.537 146.2668
17850.334044 62.848 144.3936
17979.684923 62.191 142.6216
18109.973131 61.567 140.9577
18241.205462 60.976 139.4266
18373.388756 60.416 138.0712
18506.529905 59.884 136.9477
18640.635849 59.379 136.1176
18775.713581 58.899 135.6376
18911.770141 58.445 135.5508
19048.812624 58.017 135.8808
19186.848172 57.613 136.6270
19325.883983 57.236 137.7582
19465.927305 56.888 139.2021
19606.985439 56.576 140.8297
19749.065738 56.313 142.4433
19892.175609 56.120 143.7790
20036.322514 56.017 144.5497
