* Measurement data measured by REW V5.31.3
* Source: Headset (CX31993 HIFI AUDIO), MICROPHONE (Master Volume), R, volume: 0.250
* Format: 256k Log Swept Sine, 1 sweep at -12.0 dBFS with no timing reference
* Dated: 03 3, 25 11:24:27 AM
* REW Settings:
*  C-weighting compensation: Off
*  Target level: 75.0 dB
* Note: ; 
* Measurement: SGOR Luna 300 R
* Smoothing: 1/12 octave
* Frequency Step: 96 ppo
* Start Frequency: 0.36621094 Hz
*
* Freq(Hz) SPL(dB) Phase(degrees)
0.366211 31.654 51.4426
0.368865 31.680 51.3823
0.371538 31.718 51.2932
0.374230 31.765 51.1832
0.376942 31.818 51.0592
0.379673 31.875 50.9264
0.382424 31.934 50.7879
0.385196 31.994 50.6459
0.387987 32.056 50.5015
0.390798 32.118 50.3554
0.393630 32.181 50.2079
0.396483 32.244 50.0593
0.399356 32.308 49.9096
0.402250 32.372 49.7589
0.405165 32.437 49.6073
0.408101 32.503 49.4547
0.411058 32.568 49.3013
0.414037 32.635 49.1469
0.417037 32.701 48.9917
0.420059 32.769 48.8356
0.423103 32.836 48.6786
0.426169 32.905 48.5208
0.429257 32.973 48.3622
0.432368 33.043 48.2028
0.435501 33.112 48.0426
0.438656 33.182 47.8816
0.441835 33.253 47.7198
0.445037 33.324 47.5572
0.448262 33.396 47.3939
0.451510 33.469 47.2298
0.454782 33.541 47.0650
0.458077 33.615 46.8995
0.461397 33.689 46.7333
0.464740 33.763 46.5663
0.468108 33.838 46.3986
0.471500 33.913 46.2302
0.474917 33.989 46.0611
0.478358 34.066 45.8913
0.481825 34.143 45.7209
0.485316 34.221 45.5497
0.488833 34.299 45.3778
0.492375 34.378 45.2053
0.495943 34.457 45.0320
0.499537 34.537 44.8581
0.503157 34.618 44.6834
0.506803 34.699 44.5080
0.510475 34.781 44.3320
0.514175 34.863 44.1552
0.517900 34.946 43.9777
0.521653 35.030 43.7995
0.525434 35.114 43.6205
0.529241 35.198 43.4408
0.533076 35.284 43.2604
0.536939 35.370 43.0792
0.540830 35.456 42.8971
0.544749 35.544 42.7143
0.548696 35.631 42.5307
0.552673 35.720 42.3463
0.556677 35.809 42.1610
0.560711 35.899 41.9748
0.564774 35.989 41.7878
0.568867 36.080 41.5998
0.572989 36.172 41.4109
0.577141 36.265 41.2211
0.581324 36.358 41.0303
0.585536 36.451 40.8385
0.589779 36.546 40.6456
0.594053 36.641 40.4517
0.598358 36.737 40.2568
0.602694 36.833 40.0606
0.607061 36.931 39.8634
0.611460 37.029 39.6650
0.615891 37.127 39.4653
0.620354 37.227 39.2644
0.624849 37.327 39.0622
0.629377 37.427 38.8587
0.633938 37.529 38.6538
0.638532 37.631 38.4475
0.643159 37.734 38.2397
0.647819 37.838 38.0305
0.652514 37.943 37.8197
0.657242 38.048 37.6074
0.662005 38.154 37.3934
0.666802 38.261 37.1777
0.671634 38.368 36.9603
0.676501 38.477 36.7412
0.681403 38.586 36.5202
0.686341 38.696 36.2973
0.691314 38.806 36.0725
0.696324 38.917 35.8458
0.701370 39.029 35.6170
0.706452 39.142 35.3862
0.711571 39.254 35.1534
0.716728 39.367 34.9187
0.721921 39.478 34.6821
0.727153 39.589 34.4440
0.732422 39.697 34.2046
0.737729 39.803 33.9643
0.743075 39.907 33.7236
0.748460 40.010 33.4827
0.753883 40.111 33.2421
0.759346 40.212 33.0018
0.764849 40.312 32.7620
0.770391 40.412 32.5227
0.775974 40.512 32.2840
0.781597 40.611 32.0459
0.787261 40.711 31.8083
0.792966 40.811 31.5713
0.798712 40.910 31.3349
0.804500 41.010 31.0991
0.810329 41.109 30.8638
0.816201 41.209 30.6291
0.822116 41.308 30.3949
0.828073 41.407 30.1612
0.834074 41.507 29.9280
0.840118 41.606 29.6952
0.846206 41.706 29.4629
0.852338 41.805 29.2310
0.858514 41.905 28.9994
0.864735 42.004 28.7682
0.871001 42.104 28.5373
0.877313 42.204 28.3067
0.883670 42.303 28.0763
0.890074 42.403 27.8462
0.896524 42.503 27.6162
0.903020 42.603 27.3863
0.909564 42.703 27.1565
0.916155 42.803 26.9267
0.922794 42.904 26.6969
0.929481 43.004 26.4671
0.936216 43.105 26.2371
0.943000 43.206 26.0070
0.949834 43.307 25.7767
0.956717 43.408 25.5461
0.963649 43.509 25.3152
0.970632 43.611 25.0839
0.977666 43.713 24.8522
0.984750 43.815 24.6200
0.991886 43.918 24.3872
0.999074 44.021 24.1538
1.006314 44.124 23.9198
1.013606 44.228 23.6850
1.020951 44.332 23.4494
1.028349 44.437 23.2129
1.035801 44.542 22.9754
1.043307 44.647 22.7370
1.050867 44.753 22.4975
1.058482 44.860 22.2569
1.066152 44.967 22.0152
1.073878 45.075 21.7723
1.081660 45.183 21.5283
1.089498 45.292 21.2832
1.097393 45.401 21.0373
1.105345 45.510 20.7908
1.113355 45.620 20.5437
1.121423 45.730 20.2964
1.129549 45.840 20.0491
1.137734 45.950 19.8016
1.145979 46.061 19.5543
1.154283 46.171 19.3070
1.162647 46.281 19.0598
1.171072 46.391 18.8127
1.179558 46.502 18.5657
1.188106 46.612 18.3188
1.196715 46.723 18.0719
1.205387 46.833 17.8251
1.214122 46.944 17.5785
1.222920 47.055 17.3318
1.231782 47.165 17.0853
1.240708 47.276 16.8387
1.249699 47.387 16.5923
1.258754 47.499 16.3459
1.267876 47.610 16.0995
1.277063 47.721 15.8531
1.286318 47.833 15.6068
1.295639 47.945 15.3605
1.305027 48.057 15.1142
1.314484 48.169 14.8680
1.324009 48.282 14.6217
1.333604 48.394 14.3755
1.343268 48.507 14.1292
1.353002 48.621 13.8830
1.362806 48.734 13.6368
1.372681 48.848 13.3905
1.382628 48.963 13.1443
1.392647 49.078 12.8981
1.402739 49.193 12.6519
1.412904 49.308 12.4058
1.423142 49.424 12.1598
1.433455 49.541 11.9141
1.443843 49.658 11.6688
1.454305 49.775 11.4242
1.464844 49.893 11.1806
1.475459 50.011 10.9383
1.486150 50.129 10.6977
1.496920 50.247 10.4589
1.507767 50.366 10.2219
1.518693 50.484 9.9868
1.529698 50.603 9.7534
1.540783 50.722 9.5215
1.551948 50.841 9.2907
1.563194 50.960 9.0609
1.574521 51.079 8.8319
1.585931 51.198 8.6032
1.597423 51.317 8.3748
1.608999 51.437 8.1463
1.620658 51.556 7.9174
1.632402 51.676 7.6880
1.644232 51.796 7.4577
1.656146 51.916 7.2263
1.668147 52.037 6.9936
1.680235 52.157 6.7594
1.692411 52.278 6.5233
1.704675 52.399 6.2852
1.717028 52.521 6.0449
1.729470 52.643 5.8021
1.742003 52.765 5.5567
1.754626 52.887 5.3085
1.767341 53.010 5.0573
1.780147 53.133 4.8032
1.793047 53.257 4.5461
1.806040 53.381 4.2863
1.819128 53.505 4.0241
1.832310 53.630 3.7601
1.845587 53.755 3.4948
1.858961 53.880 3.2290
1.872432 54.005 2.9631
1.886001 54.131 2.6972
1.899667 54.256 2.4314
1.913433 54.382 2.1657
1.927299 54.508 1.8999
1.941265 54.634 1.6337
1.955332 54.760 1.3668
1.969501 54.886 1.0991
1.983773 55.013 0.8301
1.998148 55.140 0.5596
2.012627 55.267 0.2874
2.027212 55.394 0.0130
2.041902 55.521 -0.2636
2.056698 55.648 -0.5430
2.071602 55.776 -0.8252
2.086614 55.904 -1.1107
2.101734 56.032 -1.3996
2.116964 56.160 -1.6921
2.132304 56.289 -1.9884
2.147756 56.418 -2.2885
2.163320 56.547 -2.5924
2.178996 56.676 -2.8997
2.194786 56.806 -3.2100
2.210690 56.936 -3.5226
2.226710 57.066 -3.8370
2.242845 57.196 -4.1526
2.259098 57.326 -4.4691
2.275468 57.456 -4.7866
2.291957 57.587 -5.1052
2.308566 57.717 -5.4249
2.325295 57.848 -5.7463
2.342145 57.979 -6.0695
2.359117 58.109 -6.3950
2.376212 58.240 -6.7231
2.393431 58.371 -7.0542
2.410775 58.502 -7.3887
2.428244 58.633 -7.7269
2.445840 58.764 -8.0692
2.463564 58.895 -8.4160
2.481416 59.026 -8.7676
2.499397 59.157 -9.1241
2.517509 59.289 -9.4857
2.535752 59.420 -9.8523
2.554127 59.551 -10.2236
2.572635 59.682 -10.5993
2.591277 59.813 -10.9786
2.610055 59.945 -11.3612
2.628968 60.076 -11.7467
2.648019 60.207 -12.1349
2.667208 60.337 -12.5257
2.686535 60.468 -12.9193
2.706003 60.599 -13.3158
2.725612 60.729 -13.7155
2.745363 60.860 -14.1186
2.765257 60.990 -14.5255
2.785295 61.120 -14.9363
2.805478 61.249 -15.3515
2.825808 61.379 -15.7713
2.846285 61.508 -16.1961
2.866910 61.637 -16.6261
2.887685 61.766 -17.0615
2.908611 61.894 -17.5024
2.929688 62.022 -17.9488
2.950917 62.150 -18.4004
2.972301 62.277 -18.8569
2.993839 62.404 -19.3181
3.015534 62.531 -19.7837
3.037386 62.657 -20.2533
3.059396 62.783 -20.7269
3.081565 62.908 -21.2041
3.103896 63.033 -21.6850
3.126388 63.157 -22.1695
3.149043 63.281 -22.6575
3.171862 63.404 -23.1491
3.194847 63.527 -23.6445
3.217998 63.649 -24.1436
3.241317 63.771 -24.6469
3.264805 63.891 -25.1544
3.288463 64.012 -25.6665
3.312293 64.131 -26.1835
3.336295 64.250 -26.7054
3.360471 64.368 -27.2323
3.384822 64.485 -27.7639
3.409350 64.602 -28.2998
3.434056 64.718 -28.8396
3.458940 64.832 -29.3827
3.484005 64.946 -29.9288
3.509252 65.060 -30.4774
3.534681 65.172 -31.0282
3.560295 65.283 -31.5808
3.586094 65.394 -32.1353
3.612081 65.504 -32.6917
3.638255 65.613 -33.2504
3.664620 65.720 -33.8118
3.691175 65.827 -34.3766
3.717923 65.933 -34.9451
3.744864 66.037 -35.5173
3.772001 66.141 -36.0930
3.799335 66.243 -36.6716
3.826866 66.345 -37.2522
3.854597 66.445 -37.8341
3.882529 66.544 -38.4165
3.910664 66.642 -38.9984
3.939002 66.739 -39.5795
3.967546 66.835 -40.1594
3.996296 66.930 -40.7382
4.025255 67.024 -41.3162
4.054423 67.116 -41.8940
4.083804 67.208 -42.4724
4.113396 67.298 -43.0516
4.143204 67.387 -43.6313
4.173227 67.474 -44.2112
4.203468 67.561 -44.7903
4.233928 67.646 -45.3677
4.264609 67.730 -45.9425
4.295512 67.814 -46.5138
4.326639 67.896 -47.0809
4.357992 67.977 -47.6435
4.389572 68.058 -48.2017
4.421380 68.137 -48.7560
4.453419 68.215 -49.3069
4.485691 68.292 -49.8547
4.518196 68.369 -50.3995
4.550936 68.444 -50.9408
4.583914 68.518 -51.4781
4.617131 68.591 -52.0107
4.650589 68.664 -52.5377
4.684289 68.736 -53.0585
4.718233 68.808 -53.5725
4.752424 68.879 -54.0797
4.786862 68.949 -54.5799
4.821549 69.019 -55.0736
4.856488 69.089 -55.5611
4.891680 69.158 -56.0426
4.927127 69.227 -56.5183
4.962831 69.295 -56.9882
4.998794 69.363 -57.4522
5.035017 69.432 -57.9101
5.071503 69.500 -58.3616
5.108253 69.569 -58.8066
5.145270 69.638 -59.2449
5.182555 69.707 -59.6767
5.220110 69.776 -60.1022
5.257937 69.846 -60.5219
5.296038 69.916 -60.9366
5.334415 69.987 -61.3470
5.373071 70.058 -61.7537
5.412006 70.130 -62.1574
5.451224 70.203 -62.5585
5.490725 70.276 -62.9569
5.530514 70.350 -63.3529
5.570590 70.425 -63.7464
5.610957 70.501 -64.1380
5.651616 70.578 -64.5286
5.692570 70.656 -64.9190
5.733821 70.734 -65.3106
5.775370 70.814 -65.7043
5.817221 70.894 -66.1009
5.859375 70.975 -66.5009
5.901834 71.057 -66.9045
5.944602 71.139 -67.3118
5.987679 71.222 -67.7230
6.031068 71.306 -68.1388
6.074771 71.391 -68.5599
6.118792 71.476 -68.9872
6.163131 71.561 -69.4214
6.207792 71.646 -69.8631
6.252776 71.731 -70.3126
6.298086 71.817 -70.7701
6.343725 71.902 -71.2353
6.389694 71.988 -71.7081
6.435996 72.073 -72.1885
6.482634 72.158 -72.6765
6.529610 72.242 -73.1722
6.576926 72.325 -73.6758
6.624585 72.408 -74.1873
6.672590 72.490 -74.7066
6.720942 72.571 -75.2333
6.769645 72.650 -75.7666
6.818700 72.729 -76.3058
6.868111 72.807 -76.8501
6.917881 72.883 -77.3990
6.968010 72.958 -77.9521
7.018504 73.031 -78.5093
7.069362 73.103 -79.0700
7.120590 73.173 -79.6336
7.172189 73.241 -80.1989
7.224161 73.309 -80.7646
7.276511 73.374 -81.3300
7.329239 73.438 -81.8941
7.382350 73.500 -82.4568
7.435845 73.561 -83.0174
7.489729 73.620 -83.5755
7.544002 73.678 -84.1300
7.598669 73.735 -84.6801
7.653732 73.790 -85.2247
7.709194 73.844 -85.7634
7.765058 73.897 -86.2957
7.821327 73.949 -86.8216
7.878004 74.000 -87.3406
7.935091 74.050 -87.8525
7.992592 74.099 -88.3569
8.050510 74.148 -88.8534
8.108847 74.197 -89.3419
8.167607 74.245 -89.8226
8.226793 74.293 -90.2957
8.286408 74.341 -90.7615
8.346454 74.389 -91.2203
8.406936 74.437 -91.6725
8.467856 74.486 -92.1184
8.529218 74.534 -92.5583
8.591024 74.583 -92.9928
8.653278 74.633 -93.4228
8.715983 74.683 -93.8488
8.779143 74.733 -94.2717
8.842760 74.784 -94.6919
8.906839 74.836 -95.1100
8.971381 74.888 -95.5266
9.036392 74.941 -95.9424
9.101873 74.994 -96.3581
9.167829 75.047 -96.7742
9.234263 75.101 -97.1911
9.301178 75.155 -97.6092
9.368578 75.209 -98.0288
9.436467 75.263 -98.4502
9.504847 75.318 -98.8736
9.573723 75.372 -99.2992
9.643099 75.426 -99.7270
9.712976 75.481 -100.1571
9.783361 75.535 -100.5893
9.854255 75.588 -101.0237
9.925663 75.642 -101.4600
9.997588 75.695 -101.8982
10.070035 75.748 -102.3381
10.143007 75.800 -102.7796
10.216507 75.852 -103.2225
10.290540 75.904 -103.6666
10.365109 75.955 -104.1118
10.440219 76.006 -104.5581
10.515873 76.056 -105.0055
10.592076 76.106 -105.4539
10.668830 76.156 -105.9033
10.746141 76.205 -106.3537
10.824012 76.253 -106.8054
10.902447 76.302 -107.2583
10.981451 76.349 -107.7127
11.061027 76.397 -108.1686
11.141180 76.444 -108.6262
11.221913 76.490 -109.0856
11.303232 76.535 -109.5468
11.385140 76.580 -110.0100
11.467641 76.625 -110.4750
11.550741 76.668 -110.9418
11.634442 76.711 -111.4100
11.718750 76.752 -111.8796
11.803669 76.793 -112.3501
11.889203 76.832 -112.8210
11.975357 76.870 -113.2917
12.062136 76.908 -113.7617
12.149543 76.943 -114.2301
12.237583 76.978 -114.6963
12.326262 77.012 -115.1594
12.415583 77.044 -115.6185
12.505552 77.075 -116.0729
12.596172 77.105 -116.5219
12.687449 77.134 -116.9647
12.779387 77.163 -117.4008
12.871992 77.191 -117.8298
12.965268 77.218 -118.2513
13.059220 77.245 -118.6654
13.153852 77.273 -119.0722
13.249170 77.300 -119.4720
13.345179 77.327 -119.8653
13.441884 77.355 -120.2529
13.539289 77.383 -120.6357
13.637401 77.412 -121.0147
13.736223 77.442 -121.3911
13.835761 77.473 -121.7659
13.936021 77.504 -122.1405
14.037007 77.535 -122.5159
14.138725 77.568 -122.8931
14.241180 77.600 -123.2728
14.344377 77.633 -123.6559
14.448323 77.667 -124.0426
14.553021 77.700 -124.4333
14.658478 77.733 -124.8278
14.764700 77.766 -125.2262
14.871691 77.799 -125.6280
14.979457 77.831 -126.0328
15.088005 77.863 -126.4402
15.197339 77.894 -126.8498
15.307465 77.925 -127.2612
15.418389 77.955 -127.6743
15.530117 77.986 -128.0889
15.642655 78.016 -128.5051
15.756008 78.045 -128.9231
15.870182 78.074 -129.3433
15.985184 78.103 -129.7661
16.101019 78.132 -130.1918
16.217694 78.160 -130.6206
16.335214 78.187 -131.0525
16.453586 78.213 -131.4874
16.572815 78.239 -131.9245
16.692909 78.263 -132.3629
16.813872 78.286 -132.8013
16.935713 78.307 -133.2380
17.058436 78.327 -133.6712
17.182048 78.346 -134.0989
17.306556 78.363 -134.5194
17.431967 78.380 -134.9313
17.558286 78.396 -135.3335
17.685521 78.412 -135.7258
17.813677 78.428 -136.1086
17.942762 78.446 -136.4834
18.072783 78.464 -136.8522
18.203746 78.483 -137.2178
18.335658 78.504 -137.5836
18.468526 78.527 -137.9529
18.602356 78.550 -138.3288
18.737156 78.574 -138.7142
18.872934 78.598 -139.1106
19.009695 78.621 -139.5186
19.147447 78.643 -139.9375
19.286197 78.662 -140.3651
19.425953 78.680 -140.7981
19.566721 78.694 -141.2323
19.708510 78.705 -141.6626
19.851326 78.713 -142.0840
19.995177 78.718 -142.4915
20.140070 78.722 -142.8811
20.286013 78.724 -143.2498
20.433014 78.726 -143.5960
20.581080 78.728 -143.9197
20.730219 78.732 -144.2226
20.880439 78.737 -144.5077
21.031747 78.746 -144.7791
21.184152 78.757 -145.0417
21.337661 78.772 -145.3008
21.492282 78.790 -145.5617
21.648024 78.811 -145.8292
21.804895 78.834 -146.1078
21.962902 78.860 -146.4012
22.122054 78.887 -146.7125
22.282360 78.915 -147.0441
22.443827 78.943 -147.3974
22.606464 78.970 -147.7731
22.770280 78.996 -148.1705
22.935283 79.020 -148.5876
23.101481 79.040 -149.0209
23.268884 79.057 -149.4650
23.437500 79.068 -149.9129
23.607338 79.076 -150.3563
23.778406 79.078 -150.7862
23.950714 79.077 -151.1940
24.124271 79.073 -151.5723
24.299086 79.068 -151.9164
24.475167 79.064 -152.2249
24.652524 79.063 -152.5011
24.831166 79.066 -152.7523
25.011103 79.075 -152.9894
25.192344 79.089 -153.2256
25.374898 79.109 -153.4742
25.558775 79.134 -153.7467
25.743984 79.161 -154.0507
25.930536 79.188 -154.3891
26.118439 79.214 -154.7592
26.307704 79.235 -155.1537
26.498341 79.253 -155.5622
26.690359 79.265 -155.9726
26.883768 79.273 -156.3737
27.078579 79.277 -156.7571
27.274801 79.280 -157.1178
27.472446 79.282 -157.4554
27.671522 79.285 -157.7729
27.872042 79.289 -158.0760
28.074014 79.295 -158.3706
28.277450 79.303 -158.6620
28.482360 79.310 -158.9529
28.688755 79.318 -159.2438
28.896645 79.326 -159.5329
29.106042 79.333 -159.8175
29.316957 79.340 -160.0956
29.529400 79.347 -160.3672
29.743382 79.355 -160.6350
29.958915 79.365 -160.9042
30.176009 79.377 -161.1813
30.394677 79.389 -161.4726
30.614929 79.401 -161.7821
30.836778 79.410 -162.1101
31.060234 79.417 -162.4529
31.285309 79.419 -162.8024
31.512015 79.417 -163.1483
31.740364 79.410 -163.4798
31.970368 79.401 -163.7878
32.202039 79.390 -164.0675
32.435388 79.381 -164.3194
32.670428 79.375 -164.5499
32.907171 79.373 -164.7702
33.145630 79.376 -164.9946
33.385817 79.384 -165.2378
33.627745 79.395 -165.5114
33.871425 79.408 -165.8225
34.116871 79.419 -166.1718
34.364096 79.427 -166.5538
34.613113 79.430 -166.9579
34.863934 79.428 -167.3708
35.116572 79.421 -167.7788
35.371041 79.410 -168.1707
35.627354 79.397 -168.5394
35.885525 79.384 -168.8834
36.145566 79.373 -169.2061
36.407492 79.364 -169.5147
36.671316 79.357 -169.8181
36.937051 79.354 -170.1246
37.204712 79.352 -170.4404
37.474313 79.351 -170.7682
37.745867 79.349 -171.1071
38.019389 79.346 -171.4534
38.294893 79.340 -171.8013
38.572394 79.332 -172.1445
38.851905 79.323 -172.4773
39.133442 79.312 -172.7956
39.417019 79.300 -173.0975
39.702651 79.289 -173.3836
39.990353 79.278 -173.6562
40.280140 79.268 -173.9189
40.572026 79.260 -174.1754
40.866028 79.253 -174.4291
41.162160 79.246 -174.6823
41.460438 79.241 -174.9369
41.760877 79.236 -175.1941
42.063494 79.232 -175.4550
42.368303 79.228 -175.7201
42.675322 79.224 -175.9892
42.984565 79.219 -176.2609
43.296048 79.214 -176.5330
43.609789 79.209 -176.8030
43.925804 79.203 -177.0692
44.244108 79.199 -177.3319
44.564719 79.195 -177.5935
44.887654 79.191 -177.8577
45.212928 79.188 -178.1279
45.540560 79.185 -178.4059
45.870565 79.179 -178.6905
46.202962 79.171 -178.9772
46.537768 79.160 -179.2594
46.875000 79.147 -179.5296
47.214676 79.131 -179.7816
47.556813 79.114 179.9870
47.901429 79.097 179.7733
48.248542 79.083 179.5682
48.598171 79.071 179.3586
48.950334 79.061 179.1304
49.305048 79.051 178.8742
49.662333 79.039 178.5891
50.022206 79.023 178.2833
50.384688 79.002 177.9715
50.749796 78.980 177.6674
51.117550 78.956 177.3773
51.487969 78.935 177.0972
51.861072 78.918 176.8150
52.236879 78.905 176.5191
52.615409 78.893 176.2057
52.996681 78.881 175.8820
53.380717 78.868 175.5624
53.767536 78.855 175.2614
54.157158 78.843 174.9885
54.549603 78.833 174.7475
54.944892 78.825 174.5386
55.343045 78.820 174.3607
55.744084 78.817 174.2103
56.148028 78.816 174.0816
56.554900 78.815 173.9712
56.964720 78.812 173.8860
57.377510 78.807 173.8450
57.793291 78.802 173.8648
58.212085 78.805 173.9343
58.633914 78.822 173.9973
59.058799 78.852 173.9663
59.486764 78.884 173.7666
59.917829 78.905 173.3813
60.352019 78.899 172.8640
60.789354 78.864 172.3080
61.229859 78.804 171.7986
61.673556 78.732 171.3758
62.120468 78.659 171.0318
62.570618 78.591 170.7347
63.024031 78.530 170.4557
63.480729 78.477 170.1803
63.940736 78.430 169.9039
64.404077 78.391 169.6250
64.870776 78.357 169.3455
65.340856 78.329 169.0717
65.814343 78.306 168.8113
66.291261 78.287 168.5681
66.771635 78.272 168.3393
67.255489 78.261 168.1191
67.742850 78.250 167.9027
68.233743 78.239 167.6883
68.728193 78.226 167.4756
69.226226 78.211 167.2650
69.727867 78.192 167.0565
70.233144 78.170 166.8482
70.742083 78.147 166.6362
71.254709 78.122 166.4150
71.771050 78.095 166.1812
72.291132 78.066 165.9346
72.814984 78.036 165.6788
73.342631 78.005 165.4195
73.874102 77.973 165.1648
74.409424 77.940 164.9240
74.948626 77.908 164.7052
75.491734 77.877 164.5118
76.038779 77.848 164.3411
76.589787 77.822 164.1873
77.144788 77.797 164.0453
77.703811 77.773 163.9120
78.266885 77.749 163.7845
78.834039 77.726 163.6592
79.405303 77.702 163.5319
79.980706 77.679 163.3971
80.560280 77.656 163.2497
81.144053 77.632 163.0861
81.732056 77.607 162.9068
82.324320 77.580 162.7161
82.920876 77.552 162.5200
83.521755 77.523 162.3238
84.126988 77.494 162.1315
84.736607 77.464 161.9443
85.350643 77.434 161.7609
85.969129 77.405 161.5785
86.592097 77.377 161.3957
87.219579 77.348 161.2127
87.851608 77.320 161.0298
88.488217 77.292 160.8472
89.129439 77.265 160.6661
89.775308 77.240 160.4878
90.425856 77.217 160.3120
91.081119 77.194 160.1373
91.741131 77.173 159.9634
92.405925 77.149 159.7934
93.075536 77.124 159.6327
93.750000 77.095 159.4857
94.429351 77.064 159.3531
95.113625 77.029 159.2307
95.802858 76.992 159.1107
96.497085 76.953 158.9848
97.196342 76.912 158.8461
97.900667 76.871 158.6915
98.610096 76.829 158.5215
99.324665 76.790 158.3387
100.044413 76.752 158.1483
100.769376 76.718 157.9581
101.499592 76.686 157.7771
102.235100 76.657 157.6131
102.975938 76.630 157.4700
103.722144 76.603 157.3480
104.473757 76.576 157.2436
105.230817 76.547 157.1498
105.993363 76.515 157.0581
106.761435 76.480 156.9605
107.535072 76.442 156.8517
108.314315 76.403 156.7292
109.099206 76.362 156.5945
109.889783 76.321 156.4532
110.686090 76.281 156.3143
111.488167 76.241 156.1879
112.296056 76.201 156.0818
113.109800 76.158 155.9998
113.929440 76.112 155.9436
114.755020 76.060 155.9149
115.586582 75.999 155.9188
116.424170 75.933 155.9662
117.267827 75.864 156.0670
118.117598 75.801 156.2123
118.973527 75.754 156.3571
119.835658 75.726 156.4199
120.704037 75.711 156.3273
121.578708 75.696 156.0815
122.459718 75.671 155.7665
123.347111 75.636 155.4807
124.240935 75.597 155.2792
125.141236 75.557 155.1687
126.048061 75.522 155.1297
126.961458 75.490 155.1328
127.881473 75.461 155.1441
128.808154 75.435 155.1346
129.741551 75.407 155.0920
130.681712 75.376 155.0241
131.628686 75.343 154.9519
132.582521 75.309 154.8977
133.543269 75.278 154.8683
134.510979 75.250 154.8528
135.485701 75.225 154.8353
136.467486 75.200 154.8088
137.456386 75.171 154.7821
138.452451 75.138 154.7719
139.455735 75.102 154.7855
140.466288 75.068 154.8139
141.484165 75.038 154.8332
142.509418 75.011 154.8183
143.542100 74.986 154.7629
144.582265 74.961 154.6790
145.629968 74.936 154.5844
146.685262 74.911 154.4936
147.748204 74.886 154.4121
148.818849 74.862 154.3372
149.897251 74.838 154.2639
150.983469 74.813 154.1882
152.077557 74.785 154.1097
153.179574 74.754 154.0326
154.289576 74.720 153.9634
155.407622 74.683 153.9080
156.533770 74.645 153.8680
157.668078 74.608 153.8383
158.810606 74.572 153.8090
159.961413 74.538 153.7690
161.120559 74.506 153.7114
162.288105 74.473 153.6387
163.464112 74.440 153.5600
164.648640 74.407 153.4836
165.841752 74.373 153.4138
167.043510 74.338 153.3513
168.253976 74.304 153.2950
169.473213 74.269 153.2420
170.701286 74.235 153.1890
171.938258 74.201 153.1341
173.184194 74.166 153.0783
174.439158 74.131 153.0246
175.703216 74.095 152.9762
176.976434 74.057 152.9356
178.258878 74.017 152.9046
179.550615 73.976 152.8835
180.851713 73.933 152.8718
182.162239 73.889 152.8682
183.482262 73.844 152.8700
184.811850 73.799 152.8740
186.151073 73.754 152.8784
187.500000 73.710 152.8830
188.858702 73.667 152.8896
190.227250 73.626 152.9005
191.605715 73.586 152.9175
192.994169 73.547 152.9429
194.392685 73.508 152.9784
195.801334 73.468 153.0250
197.220191 73.428 153.0833
198.649330 73.387 153.1524
200.088825 73.348 153.2284
201.538751 73.309 153.3053
202.999184 73.271 153.3782
204.470200 73.233 153.4453
205.951875 73.195 153.5085
207.444287 73.158 153.5712
208.947514 73.122 153.6357
210.461634 73.087 153.7017
211.986726 73.054 153.7668
213.522869 73.023 153.8280
215.070144 72.993 153.8828
216.628631 72.963 153.9301
218.198411 72.932 153.9706
219.779567 72.900 154.0081
221.372180 72.866 154.0483
222.976334 72.832 154.0948
224.592112 72.799 154.1475
226.219600 72.766 154.2037
227.858880 72.735 154.2605
229.510039 72.703 154.3152
231.173164 72.671 154.3665
232.848340 72.639 154.4150
234.535655 72.607 154.4616
236.235197 72.575 154.5063
237.947054 72.543 154.5499
239.671317 72.510 154.5940
241.408074 72.475 154.6422
243.157416 72.438 154.6967
244.919435 72.399 154.7554
246.694223 72.359 154.8163
248.481871 72.318 154.8809
250.282473 72.277 154.9516
252.096123 72.236 155.0279
253.922915 72.196 155.1081
255.762945 72.157 155.1902
257.616309 72.117 155.2736
259.483103 72.078 155.3594
261.363424 72.039 155.4488
263.257372 72.001 155.5416
265.165043 71.963 155.6375
267.086538 71.925 155.7374
269.021957 71.889 155.8423
270.971401 71.853 155.9527
272.934972 71.818 156.0686
274.912771 71.783 156.1892
276.904902 71.747 156.3112
278.911469 71.712 156.4304
280.932577 71.676 156.5459
282.968330 71.640 156.6609
285.018835 71.605 156.7815
287.084199 71.570 156.9125
289.164530 71.537 157.0552
291.259935 71.504 157.2089
293.370525 71.471 157.3720
295.496408 71.439 157.5414
297.637697 71.406 157.7132
299.794503 71.372 157.8826
301.966937 71.339 158.0464
304.155114 71.305 158.2048
306.359147 71.272 158.3614
308.579152 71.239 158.5210
310.815244 71.208 158.6853
313.067539 71.177 158.8521
315.336156 71.148 159.0169
317.621211 71.119 159.1762
319.922826 71.090 159.3291
322.241118 71.062 159.4777
324.576210 71.035 159.6251
326.928223 71.008 159.7749
329.297280 70.982 159.9296
331.683504 70.955 160.0889
334.087019 70.929 160.2499
336.507952 70.902 160.4084
338.946427 70.875 160.5620
341.402572 70.848 160.7118
343.876516 70.821 160.8600
346.368387 70.794 161.0084
348.878315 70.766 161.1577
351.406431 70.739 161.3090
353.952867 70.711 161.4639
356.517756 70.683 161.6240
359.101230 70.654 161.7902
361.703426 70.626 161.9621
364.324478 70.597 162.1385
366.964523 70.569 162.3172
369.623699 70.540 162.4964
372.302145 70.512 162.6758
375.000000 70.484 162.8561
377.717405 70.455 163.0385
380.454501 70.427 163.2236
383.211431 70.400 163.4113
385.988339 70.372 163.6008
388.785369 70.345 163.7914
391.602668 70.317 163.9833
394.440383 70.290 164.1769
397.298660 70.263 164.3719
400.177650 70.237 164.5679
403.077502 70.211 164.7653
405.998368 70.186 164.9650
408.940400 70.161 165.1682
411.903750 70.136 165.3760
414.888575 70.112 165.5887
417.895028 70.087 165.8058
420.923268 70.062 166.0267
423.973452 70.037 166.2502
427.045738 70.012 166.4746
430.140287 69.988 166.6993
433.257261 69.963 166.9236
436.396822 69.939 167.1476
439.559133 69.915 167.3712
442.744360 69.892 167.5950
445.952668 69.868 167.8202
449.184225 69.845 168.0473
452.439199 69.823 168.2767
455.717760 69.800 168.5084
459.020079 69.779 168.7420
462.346327 69.758 168.9771
465.696680 69.738 169.2126
469.071310 69.718 169.4484
472.470394 69.697 169.6851
475.894109 69.677 169.9241
479.342634 69.657 170.1673
482.816148 69.637 170.4165
486.314833 69.617 170.6714
489.838871 69.597 170.9295
493.388445 69.578 171.1888
496.963741 69.558 171.4481
500.564945 69.540 171.7073
504.192245 69.521 171.9671
507.845830 69.503 172.2284
511.525890 69.486 172.4926
515.232618 69.469 172.7609
518.966206 69.451 173.0337
522.726849 69.434 173.3105
526.514743 69.417 173.5905
530.330086 69.399 173.8718
534.173076 69.382 174.1530
538.043915 69.365 174.4328
541.942803 69.349 174.7111
545.869944 69.333 174.9891
549.825542 69.318 175.2690
553.809805 69.303 175.5518
557.822939 69.288 175.8379
561.865154 69.274 176.1266
565.936660 69.261 176.4175
570.037671 69.247 176.7103
574.168399 69.234 177.0046
578.329060 69.222 177.2997
582.519870 69.210 177.5955
586.741049 69.198 177.8930
590.992817 69.187 178.1937
595.275394 69.176 178.4987
599.589005 69.166 178.8083
603.933874 69.156 179.1226
608.310228 69.146 179.4413
612.718295 69.136 179.7641
617.158304 69.127 -179.9096
621.630488 69.118 -179.5809
626.135079 69.109 -179.2513
630.672311 69.101 -178.9214
635.242423 69.092 -178.5914
639.845651 69.084 -178.2612
644.482237 69.077 -177.9306
649.152421 69.070 -177.5989
653.856447 69.064 -177.2648
658.594560 69.059 -176.9259
663.367008 69.055 -176.5812
668.174039 69.051 -176.2309
673.015903 69.049 -175.8763
677.892854 69.047 -175.5187
682.805145 69.046 -175.1586
687.753032 69.045 -174.7965
692.736774 69.044 -174.4327
697.756631 69.044 -174.0672
702.812863 69.044 -173.6999
707.905735 69.044 -173.3297
713.035511 69.045 -172.9563
718.202461 69.047 -172.5801
723.406852 69.049 -172.2021
728.648956 69.052 -171.8223
733.929047 69.056 -171.4395
739.247399 69.060 -171.0529
744.604290 69.065 -170.6633
750.000000 69.071 -170.2719
755.434809 69.077 -169.8789
760.909001 69.085 -169.4841
766.422861 69.093 -169.0871
771.976677 69.102 -168.6874
777.570739 69.113 -168.2846
783.205337 69.125 -167.8782
788.880766 69.139 -167.4682
794.597321 69.153 -167.0544
800.355301 69.169 -166.6370
806.155005 69.186 -166.2171
811.996736 69.204 -165.7958
817.880799 69.223 -165.3743
823.807501 69.243 -164.9533
829.777150 69.265 -164.5328
835.790057 69.288 -164.1120
841.846536 69.312 -163.6888
847.946903 69.337 -163.2621
854.091476 69.363 -162.8329
860.280575 69.391 -162.4039
866.514523 69.420 -161.9777
872.793644 69.451 -161.5559
879.118267 69.483 -161.1382
885.488720 69.516 -160.7232
891.905336 69.551 -160.3093
898.368450 69.587 -159.8956
904.878398 69.625 -159.4818
911.435520 69.664 -159.0687
918.040157 69.704 -158.6576
924.692655 69.746 -158.2490
931.393359 69.790 -157.8437
938.142619 69.835 -157.4431
944.940787 69.881 -157.0489
951.788218 69.929 -156.6617
958.685268 69.979 -156.2814
965.632296 70.030 -155.9079
972.629666 70.082 -155.5410
979.677741 70.136 -155.1802
986.776890 70.191 -154.8251
993.927482 70.247 -154.4762
1001.129891 70.304 -154.1344
1008.384491 70.363 -153.8013
1015.691660 70.423 -153.4780
1023.051781 70.484 -153.1653
1030.465236 70.546 -152.8631
1037.932411 70.608 -152.5710
1045.453698 70.672 -152.2889
1053.029486 70.736 -152.0171
1060.660172 70.800 -151.7557
1068.346153 70.865 -151.5041
1076.087829 70.931 -151.2614
1083.885605 70.998 -151.0269
1091.739887 71.065 -150.8007
1099.651084 71.132 -150.5839
1107.619609 71.200 -150.3773
1115.645878 71.267 -150.1815
1123.730308 71.335 -149.9967
1131.873321 71.403 -149.8225
1140.075341 71.472 -149.6577
1148.336797 71.540 -149.5009
1156.658119 71.609 -149.3512
1165.039741 71.677 -149.2086
1173.482099 71.745 -149.0729
1181.985634 71.812 -148.9444
1190.550789 71.880 -148.8232
1199.178011 71.948 -148.7091
1207.867749 72.015 -148.6016
1216.620457 72.083 -148.5003
1225.436590 72.150 -148.4049
1234.316609 72.217 -148.3152
1243.260976 72.284 -148.2314
1252.270157 72.351 -148.1540
1261.344623 72.418 -148.0836
1270.484846 72.484 -148.0205
1279.691303 72.551 -147.9639
1288.964474 72.617 -147.9129
1298.304842 72.684 -147.8674
1307.712894 72.750 -147.8279
1317.189120 72.816 -147.7944
1326.734016 72.883 -147.7665
1336.348077 72.949 -147.7435
1346.031806 73.015 -147.7247
1355.785708 73.082 -147.7098
1365.610290 73.149 -147.6986
1375.506065 73.216 -147.6919
1385.473549 73.283 -147.6913
1395.513261 73.350 -147.6981
1405.625726 73.418 -147.7130
1415.811469 73.487 -147.7358
1426.071023 73.556 -147.7665
1436.404921 73.625 -147.8049
1446.813703 73.695 -147.8511
1457.297912 73.765 -147.9056
1467.858093 73.836 -147.9697
1478.494798 73.908 -148.0451
1489.208581 73.980 -148.1335
1500.000000 74.052 -148.2357
1510.869618 74.125 -148.3524
1521.818002 74.199 -148.4852
1532.845723 74.272 -148.6357
1543.953355 74.346 -148.8061
1555.141477 74.419 -148.9983
1566.410674 74.493 -149.2144
1577.761531 74.566 -149.4566
1589.194642 74.637 -149.7271
1600.710601 74.708 -150.0282
1612.310010 74.776 -150.3616
1623.993473 74.842 -150.7291
1635.761599 74.903 -151.1320
1647.615002 74.960 -151.5707
1659.554299 75.011 -152.0446
1671.580114 75.055 -152.5522
1683.693072 75.091 -153.0899
1695.893807 75.116 -153.6512
1708.182952 75.130 -154.2266
1720.561150 75.131 -154.8031
1733.029045 75.119 -155.3652
1745.587288 75.093 -155.8945
1758.236533 75.052 -156.3708
1770.977440 75.000 -156.7731
1783.810673 74.936 -157.0811
1796.736900 74.864 -157.2772
1809.756796 74.787 -157.3479
1822.871040 74.710 -157.2860
1836.080315 74.636 -157.0909
1849.385310 74.571 -156.7703
1862.786718 74.517 -156.3391
1876.285239 74.478 -155.8185
1889.881575 74.456 -155.2333
1903.576436 74.453 -154.6094
1917.370535 74.467 -153.9718
1931.264593 74.498 -153.3432
1945.259332 74.544 -152.7417
1959.355483 74.603 -152.1815
1973.553781 74.673 -151.6722
1987.854965 74.752 -151.2193
2002.259781 74.837 -150.8257
2016.768981 74.929 -150.4910
2031.383320 75.024 -150.2136
2046.103561 75.121 -149.9901
2060.930471 75.221 -149.8165
2075.864823 75.320 -149.6885
2090.907395 75.420 -149.6025
2106.058972 75.520 -149.5554
2121.320344 75.618 -149.5445
2136.692305 75.716 -149.5669
2152.175658 75.813 -149.6194
2167.771210 75.909 -149.6990
2183.479774 76.003 -149.8033
2199.302169 76.096 -149.9303
2215.239219 76.188 -150.0784
2231.291755 76.279 -150.2467
2247.460615 76.368 -150.4341
2263.746641 76.456 -150.6398
2280.150683 76.542 -150.8628
2296.673595 76.627 -151.1024
2313.316238 76.711 -151.3583
2330.079481 76.794 -151.6299
2346.964198 76.876 -151.9169
2363.971268 76.957 -152.2186
2381.101578 77.036 -152.5345
2398.356022 77.115 -152.8646
2415.735498 77.193 -153.2088
2433.240913 77.269 -153.5671
2450.873180 77.344 -153.9397
2468.633217 77.418 -154.3267
2486.521951 77.490 -154.7280
2504.540314 77.562 -155.1437
2522.689246 77.633 -155.5738
2540.969692 77.703 -156.0184
2559.382606 77.772 -156.4780
2577.928947 77.839 -156.9531
2596.609683 77.906 -157.4448
2615.425787 77.972 -157.9540
2634.378241 78.037 -158.4821
2653.468031 78.101 -159.0305
2672.696154 78.165 -159.6006
2692.063613 78.228 -160.1941
2711.571415 78.289 -160.8130
2731.220579 78.350 -161.4594
2751.012130 78.410 -162.1355
2770.947098 78.468 -162.8436
2791.026522 78.524 -163.5862
2811.251451 78.579 -164.3664
2831.622938 78.632 -165.1878
2852.142045 78.681 -166.0539
2872.809842 78.728 -166.9673
2893.627406 78.770 -167.9291
2914.595823 78.806 -168.9399
2935.716186 78.834 -170.0012
2956.989596 78.855 -171.1156
2978.417161 78.866 -172.2854
3000.000000 78.867 -173.5115
3021.739237 78.855 -174.7937
3043.636005 78.830 -176.1302
3065.691446 78.790 -177.5175
3087.906710 78.732 -178.9500
3110.282955 78.653 179.5809
3132.821347 78.553 178.0867
3155.523062 78.427 176.5831
3178.389283 78.274 175.0902
3201.421202 78.091 173.6319
3224.620020 77.879 172.2356
3247.986946 77.636 170.9321
3271.523198 77.364 169.7556
3295.230004 77.062 168.7437
3319.108599 76.734 167.9358
3343.160228 76.382 167.3706
3367.386145 76.012 167.0836
3391.787613 75.629 167.1057
3416.365904 75.240 167.4610
3441.122300 74.854 168.1641
3466.058091 74.481 169.2166
3491.174576 74.130 170.6050
3516.473066 73.810 172.2992
3541.954880 73.529 174.2525
3567.621345 73.295 176.4045
3593.473800 73.111 178.6867
3619.513592 72.978 -178.9711
3645.742080 72.895 -176.6344
3672.160630 72.858 -174.3600
3698.770620 72.862 -172.1918
3725.573436 72.901 -170.1606
3752.570477 72.969 -168.2846
3779.763150 73.060 -166.5716
3807.152872 73.170 -165.0217
3834.741071 73.293 -163.6289
3862.529185 73.425 -162.3840
3890.518664 73.565 -161.2755
3918.710966 73.709 -160.2917
3947.107561 73.856 -159.4216
3975.709929 74.004 -158.6553
4004.519563 74.154 -157.9842
4033.537962 74.304 -157.4010
4062.766641 74.455 -156.9004
4092.207123 74.607 -156.4788
4121.860942 74.759 -156.1348
4151.729646 74.911 -155.8682
4181.814790 75.062 -155.6796
4212.117944 75.213 -155.5693
4242.640687 75.362 -155.5380
4273.384610 75.509 -155.5860
4304.351317 75.653 -155.7132
4335.542421 75.792 -155.9189
4366.959549 75.927 -156.2016
4398.604338 76.056 -156.5589
4430.478438 76.177 -156.9872
4462.583511 76.291 -157.4820
4494.921231 76.396 -158.0373
4527.493283 76.492 -158.6470
4560.301365 76.578 -159.3043
4593.347189 76.653 -160.0023
4626.632476 76.718 -160.7336
4660.158962 76.772 -161.4914
4693.928395 76.816 -162.2695
4727.942535 76.851 -163.0628
4762.203156 76.875 -163.8675
4796.712043 76.890 -164.6808
4831.470996 76.895 -165.5007
4866.481826 76.891 -166.3246
4901.746360 76.877 -167.1495
4937.266434 76.853 -167.9714
4973.043902 76.818 -168.7858
5009.080628 76.773 -169.5878
5045.378492 76.718 -170.3714
5081.939384 76.653 -171.1304
5118.765212 76.578 -171.8580
5155.857894 76.493 -172.5477
5193.219366 76.400 -173.1937
5230.851574 76.299 -173.7901
5268.756481 76.190 -174.3315
5306.936062 76.075 -174.8130
5345.392309 75.954 -175.2310
5384.127225 75.829 -175.5830
5423.142830 75.700 -175.8676
5462.441159 75.568 -176.0837
5502.024259 75.435 -176.2307
5541.894195 75.300 -176.3087
5582.053045 75.166 -176.3184
5622.502902 75.032 -176.2609
5663.245876 74.900 -176.1373
5704.284090 74.770 -175.9494
5745.619684 74.643 -175.6994
5787.254813 74.519 -175.3887
5829.191647 74.399 -175.0186
5871.432373 74.283 -174.5902
5913.979192 74.172 -174.1053
5956.834323 74.067 -173.5664
6000.000000 73.967 -172.9759
6043.478473 73.874 -172.3366
6087.272010 73.788 -171.6506
6131.382892 73.709 -170.9201
6175.813420 73.637 -170.1470
6220.565910 73.574 -169.3332
6265.642695 73.519 -168.4807
6311.046124 73.474 -167.5918
6356.778566 73.438 -166.6694
6402.842404 73.411 -165.7165
6449.240040 73.395 -164.7362
6495.973891 73.389 -163.7311
6543.046396 73.394 -162.7038
6590.460007 73.409 -161.6565
6638.217197 73.436 -160.5918
6686.320456 73.474 -159.5121
6734.772290 73.525 -158.4204
6783.575226 73.588 -157.3193
6832.731809 73.664 -156.2116
6882.244600 73.754 -155.0997
6932.116181 73.858 -153.9865
6982.349153 73.978 -152.8755
7032.946133 74.113 -151.7712
7083.909760 74.265 -150.6793
7135.242690 74.434 -149.6069
7186.947600 74.621 -148.5617
7239.027185 74.827 -147.5518
7291.484160 75.053 -146.5854
7344.321260 75.299 -145.6709
7397.541239 75.567 -144.8183
7451.146872 75.858 -144.0393
7505.140954 76.172 -143.3495
7559.526299 76.513 -142.7678
7614.305743 76.880 -142.3184
7669.482141 77.275 -142.0302
7725.058371 77.697 -141.9376
7781.037328 78.147 -142.0795
7837.421932 78.620 -142.4987
7894.215122 79.114 -143.2400
7951.419859 79.622 -144.3480
8009.039125 80.136 -145.8653
8067.075924 80.645 -147.8288
8125.533282 81.139 -150.2650
8184.414245 81.603 -153.1851
8243.721885 82.022 -156.5809
8303.459292 82.382 -160.4211
8363.629581 82.668 -164.6492
8424.235888 82.867 -169.1837
8485.281374 82.969 -173.9211
8546.769221 82.969 -178.7421
8608.702634 82.867 176.4791
8671.084842 82.665 171.8646
8733.919097 82.373 167.5232
8797.208675 82.004 163.5422
8860.956876 81.570 159.9833
8925.167022 81.089 156.8813
8989.842461 80.576 154.2451
9054.986566 80.044 152.0616
9120.602731 79.508 150.2992
9186.694378 78.975 148.9133
9253.264952 78.455 147.8506
9320.317925 77.952 147.0545
9387.856790 77.467 146.4682
9455.885071 77.002 146.0393
9524.406312 76.553 145.7238
9593.424086 76.116 145.4919
9662.941992 75.687 145.3314
9732.963653 75.259 145.2502
9803.492719 74.828 145.2747
9874.532869 74.391 145.4454
9946.087805 73.949 145.8082
10018.161257 73.505 146.4051
10090.756983 73.068 147.2618
10163.878768 72.648 148.3787
10237.530423 72.254 149.7250
10311.715789 71.897 151.2409
10386.438732 71.582 152.8469
10461.703149 71.312 154.4571
10537.512962 71.083 155.9933
10613.872125 70.890 157.3953
10690.784618 70.724 158.6255
10768.254450 70.577 159.6687
10846.285661 70.440 160.5281
10924.882318 70.306 161.2212
11004.048518 70.169 161.7739
11083.788390 70.024 162.2174
11164.106090 69.869 162.5853
11245.005805 69.703 162.9119
11326.491752 69.525 163.2296
11408.568180 69.339 163.5666
11491.239368 69.145 163.9458
11574.509626 68.947 164.3839
11658.383294 68.750 164.8902
11742.864745 68.557 165.4651
11827.958384 68.372 166.0996
11913.668646 68.200 166.7762
12000.000000 68.041 167.4728
12086.956947 67.895 168.1694
12174.544019 67.761 168.8525
12262.765784 67.636 169.5153
12351.626840 67.519 170.1561
12441.131819 67.409 170.7783
12531.285389 67.303 171.3890
12622.092249 67.199 171.9995
12713.557132 67.096 172.6241
12805.684808 66.994 173.2799
12898.480079 66.891 173.9838
12991.947783 66.789 174.7519
13086.092792 66.688 175.5983
13180.920015 66.589 176.5351
13276.434395 66.494 177.5722
13372.640911 66.407 178.7168
13469.544580 66.328 179.9723
13567.150452 66.260 -178.6607
13665.463617 66.206 -177.1847
13764.489200 66.167 -175.6039
13864.232362 66.144 -173.9230
13964.698305 66.139 -172.1455
14065.892266 66.153 -170.2747
14167.819519 66.189 -168.3177
14270.485380 66.249 -166.2882
14373.895200 66.337 -164.2057
14478.054370 66.456 -162.0946
14582.968320 66.607 -159.9828
14688.642520 66.794 -157.9019
14795.082478 67.017 -155.8891
14902.293745 67.281 -153.9898
15010.281908 67.585 -152.2618
15119.052599 67.930 -150.7767
15228.611486 68.315 -149.6178
15338.964283 68.733 -148.8750
15450.116741 69.175 -148.6365
15562.074656 69.627 -148.9796
15674.843864 70.070 -149.9605
15788.430244 70.485 -151.6059
15902.839718 70.849 -153.9056
16018.078250 71.141 -156.8092
16134.151848 71.342 -160.2281
16251.066563 71.439 -164.0431
16368.828491 71.422 -168.1158
16487.443769 71.290 -172.3028
16606.918584 71.046 -176.4700
16727.259161 70.700 179.4965
16848.471777 70.267 175.6812
16970.562748 69.762 172.1364
17093.538442 69.204 168.8803
17217.405268 68.611 165.9010
17342.169684 68.000 163.1613
17467.838194 67.383 160.6083
17594.417350 66.772 158.1825
17721.913751 66.174 155.8279
17850.334044 65.592 153.4997
17979.684923 65.025 151.1688
18109.973131 64.471 148.8271
18241.205462 63.924 146.4918
18373.388756 63.378 144.2089
18506.529905 62.827 142.0508
18640.635849 62.268 140.1071
18775.713581 61.699 138.4704
18911.770141 61.123 137.2227
19048.812624 60.542 136.4254
19186.848172 59.964 136.1136
19325.883983 59.395 136.2892
19465.927305 58.847 136.9108
19606.985439 58.340 137.8767
19749.065738 57.903 139.0069
19892.175609 57.576 140.0380
20036.322514 57.400 140.6657
