* Measurement data measured by REW V5.31.3
* Source: Headset (CX31993 HIFI AUDIO), MICROPHONE (Master Volume), R, volume: 0.250
* Format: 256k Log Swept Sine, 1 sweep at -12.0 dBFS with no timing reference
* Dated: 01 11, 25 3:47:26 PM
* REW Settings:
*  C-weighting compensation: Off
*  Target level: 75.0 dB
* Note: ; 
* Measurement: Softears Volume S high R
* Smoothing: 1/12 octave
* Frequency Step: 96 ppo
* Start Frequency: 0.36621094 Hz
*
* Freq(Hz) SPL(dB) Phase(degrees)
0.366211 38.079 -40.5472
0.368865 38.091 -40.6992
0.371538 38.107 -40.9271
0.374230 38.128 -41.2138
0.376942 38.151 -41.5445
0.379673 38.175 -41.9084
0.382424 38.201 -42.2984
0.385196 38.227 -42.7103
0.387987 38.254 -43.1417
0.390798 38.282 -43.5915
0.393630 38.309 -44.0596
0.396483 38.337 -44.5458
0.399356 38.365 -45.0507
0.402250 38.393 -45.5745
0.405165 38.421 -46.1179
0.408101 38.450 -46.6814
0.411058 38.478 -47.2657
0.414037 38.507 -47.8714
0.417037 38.536 -48.4992
0.420059 38.566 -49.1497
0.423103 38.595 -49.8236
0.426169 38.625 -50.5217
0.429257 38.655 -51.2446
0.432368 38.686 -51.9931
0.435501 38.716 -52.7679
0.438656 38.747 -53.5697
0.441835 38.778 -54.3993
0.445037 38.809 -55.2573
0.448262 38.840 -56.1444
0.451510 38.872 -57.0614
0.454782 38.904 -58.0089
0.458077 38.936 -58.9874
0.461397 38.968 -59.9977
0.464740 39.000 -61.0403
0.468108 39.033 -62.1156
0.471500 39.066 -63.2240
0.474917 39.099 -64.3659
0.478358 39.133 -65.5416
0.481825 39.167 -66.7512
0.485316 39.200 -67.9948
0.488833 39.235 -69.2722
0.492375 39.269 -70.5833
0.495943 39.304 -71.9277
0.499537 39.339 -73.3049
0.503157 39.374 -74.7141
0.506803 39.409 -76.1547
0.510475 39.445 -77.6254
0.514175 39.481 -79.1251
0.517900 39.517 -80.6523
0.521653 39.554 -82.2055
0.525434 39.591 -83.7827
0.529241 39.628 -85.3822
0.533076 39.665 -87.0016
0.536939 39.702 -88.6387
0.540830 39.740 -90.2911
0.544749 39.778 -91.9562
0.548696 39.817 -93.6312
0.552673 39.855 -95.3136
0.556677 39.894 -97.0005
0.560711 39.934 -98.6891
0.564774 39.973 -100.3767
0.568867 40.013 -102.0605
0.572989 40.053 -103.7379
0.577141 40.093 -105.4062
0.581324 40.134 -107.0630
0.585536 40.175 -108.7060
0.589779 40.216 -110.3331
0.594053 40.258 -111.9421
0.598358 40.300 -113.5314
0.602694 40.342 -115.0992
0.607061 40.384 -116.6441
0.611460 40.427 -118.1650
0.615891 40.470 -119.6606
0.620354 40.514 -121.1302
0.624849 40.557 -122.5730
0.629377 40.601 -123.9884
0.633938 40.646 -125.3763
0.638532 40.691 -126.7362
0.643159 40.736 -128.0682
0.647819 40.781 -129.3722
0.652514 40.827 -130.6484
0.657242 40.872 -131.8971
0.662005 40.919 -133.1185
0.666802 40.965 -134.3132
0.671634 41.013 -135.4816
0.676501 41.060 -136.6243
0.681403 41.108 -137.7418
0.686341 41.156 -138.8348
0.691314 41.205 -139.9039
0.696324 41.254 -140.9498
0.701370 41.304 -141.9731
0.706452 41.356 -142.9745
0.711571 41.409 -143.9545
0.716728 41.466 -144.9134
0.721921 41.527 -145.8515
0.727153 41.595 -146.7688
0.732422 41.672 -147.6649
0.737729 41.758 -148.5392
0.743075 41.854 -149.3913
0.748460 41.959 -150.2206
0.753883 42.070 -151.0271
0.759346 42.187 -151.8111
0.764849 42.310 -152.5728
0.770391 42.437 -153.3128
0.775974 42.569 -154.0317
0.781597 42.706 -154.7301
0.787261 42.846 -155.4088
0.792966 42.991 -156.0685
0.798712 43.139 -156.7099
0.804500 43.292 -157.3337
0.810329 43.448 -157.9406
0.816201 43.608 -158.5313
0.822116 43.772 -159.1065
0.828073 43.940 -159.6670
0.834074 44.111 -160.2133
0.840118 44.286 -160.7461
0.846206 44.464 -161.2661
0.852338 44.645 -161.7739
0.858514 44.830 -162.2701
0.864735 45.018 -162.7552
0.871001 45.208 -163.2299
0.877313 45.402 -163.6947
0.883670 45.598 -164.1502
0.890074 45.797 -164.5968
0.896524 45.998 -165.0352
0.903020 46.202 -165.4656
0.909564 46.408 -165.8888
0.916155 46.615 -166.3050
0.922794 46.825 -166.7148
0.929481 47.036 -167.1186
0.936216 47.249 -167.5168
0.943000 47.463 -167.9099
0.949834 47.677 -168.2982
0.956717 47.893 -168.6820
0.963649 48.109 -169.0619
0.970632 48.326 -169.4381
0.977666 48.543 -169.8110
0.984750 48.759 -170.1809
0.991886 48.976 -170.5482
0.999074 49.191 -170.9132
1.006314 49.406 -171.2761
1.013606 49.619 -171.6374
1.020951 49.831 -171.9973
1.028349 50.041 -172.3561
1.035801 50.249 -172.7141
1.043307 50.454 -173.0714
1.050867 50.657 -173.4284
1.058482 50.856 -173.7853
1.066152 51.052 -174.1421
1.073878 51.245 -174.4989
1.081660 51.434 -174.8557
1.089498 51.619 -175.2120
1.097393 51.801 -175.5674
1.105345 51.979 -175.9213
1.113355 52.155 -176.2730
1.121423 52.329 -176.6220
1.129549 52.501 -176.9679
1.137734 52.671 -177.3105
1.145979 52.839 -177.6498
1.154283 53.005 -177.9857
1.162647 53.170 -178.3186
1.171072 53.334 -178.6484
1.179558 53.496 -178.9753
1.188106 53.657 -179.2995
1.196715 53.816 -179.6212
1.205387 53.974 -179.9406
1.214122 54.130 179.7423
1.222920 54.286 179.4271
1.231782 54.440 179.1138
1.240708 54.593 178.8021
1.249699 54.745 178.4919
1.258754 54.896 178.1829
1.267876 55.046 177.8752
1.277063 55.196 177.5684
1.286318 55.344 177.2623
1.295639 55.492 176.9570
1.305027 55.639 176.6520
1.314484 55.786 176.3475
1.324009 55.932 176.0430
1.333604 56.078 175.7385
1.343268 56.223 175.4338
1.353002 56.369 175.1288
1.362806 56.514 174.8233
1.372681 56.660 174.5172
1.382628 56.805 174.2102
1.392647 56.951 173.9023
1.402739 57.098 173.5933
1.412904 57.245 173.2833
1.423142 57.393 172.9720
1.433455 57.541 172.6596
1.443843 57.690 172.3463
1.454305 57.839 172.0324
1.464844 57.989 171.7184
1.475459 58.139 171.4048
1.486150 58.288 171.0923
1.496920 58.437 170.7812
1.507767 58.586 170.4717
1.518693 58.733 170.1639
1.529698 58.880 169.8577
1.540783 59.026 169.5528
1.551948 59.172 169.2490
1.563194 59.316 168.9460
1.574521 59.460 168.6436
1.585931 59.603 168.3415
1.597423 59.745 168.0393
1.608999 59.887 167.7368
1.620658 60.028 167.4335
1.632402 60.169 167.1294
1.644232 60.309 166.8240
1.656146 60.448 166.5170
1.668147 60.588 166.2083
1.680235 60.726 165.8973
1.692411 60.865 165.5840
1.704675 61.003 165.2679
1.717028 61.141 164.9489
1.729470 61.279 164.6266
1.742003 61.417 164.3008
1.754626 61.555 163.9712
1.767341 61.693 163.6376
1.780147 61.830 163.2999
1.793047 61.968 162.9579
1.806040 62.107 162.6117
1.819128 62.245 162.2616
1.832310 62.383 161.9078
1.845587 62.520 161.5510
1.858961 62.658 161.1917
1.872432 62.795 160.8302
1.886001 62.931 160.4671
1.899667 63.067 160.1024
1.913433 63.202 159.7363
1.927299 63.336 159.3688
1.941265 63.470 159.0000
1.955332 63.603 158.6298
1.969501 63.736 158.2581
1.983773 63.868 157.8849
1.998148 64.000 157.5100
2.012627 64.131 157.1334
2.027212 64.262 156.7550
2.041902 64.392 156.3745
2.056698 64.522 155.9919
2.071602 64.651 155.6070
2.086614 64.780 155.2197
2.101734 64.909 154.8297
2.116964 65.038 154.4368
2.132304 65.167 154.0410
2.147756 65.295 153.6421
2.163320 65.423 153.2398
2.178996 65.551 152.8343
2.194786 65.678 152.4254
2.210690 65.806 152.0132
2.226710 65.932 151.5979
2.242845 66.058 151.1797
2.259098 66.184 150.7588
2.275468 66.309 150.3353
2.291957 66.433 149.9094
2.308566 66.556 149.4813
2.325295 66.679 149.0510
2.342145 66.802 148.6186
2.359117 66.923 148.1842
2.376212 67.044 147.7478
2.393431 67.165 147.3094
2.410775 67.285 146.8691
2.428244 67.404 146.4268
2.445840 67.523 145.9823
2.463564 67.641 145.5357
2.481416 67.759 145.0869
2.499397 67.877 144.6357
2.517509 67.994 144.1818
2.535752 68.111 143.7252
2.554127 68.227 143.2654
2.572635 68.343 142.8024
2.591277 68.458 142.3359
2.610055 68.573 141.8658
2.628968 68.686 141.3922
2.648019 68.799 140.9153
2.667208 68.911 140.4352
2.686535 69.023 139.9523
2.706003 69.133 139.4667
2.725612 69.243 138.9789
2.745363 69.352 138.4888
2.765257 69.461 137.9969
2.785295 69.568 137.5034
2.805478 69.675 137.0082
2.825808 69.782 136.5115
2.846285 69.888 136.0135
2.866910 69.993 135.5139
2.887685 70.097 135.0126
2.908611 70.201 134.5092
2.929688 70.305 134.0034
2.950917 70.407 133.4945
2.972301 70.509 132.9823
2.993839 70.609 132.4665
3.015534 70.709 131.9471
3.037386 70.808 131.4245
3.059396 70.906 130.8989
3.081565 71.003 130.3709
3.103896 71.099 129.8409
3.126388 71.195 129.3094
3.149043 71.289 128.7768
3.171862 71.383 128.2435
3.194847 71.476 127.7099
3.217998 71.568 127.1761
3.241317 71.659 126.6422
3.264805 71.750 126.1080
3.288463 71.840 125.5729
3.312293 71.929 125.0365
3.336295 72.017 124.4980
3.360471 72.103 123.9572
3.384822 72.189 123.4137
3.409350 72.274 122.8679
3.434056 72.358 122.3201
3.458940 72.441 121.7709
3.484005 72.523 121.2208
3.509252 72.604 120.6704
3.534681 72.684 120.1203
3.560295 72.763 119.5711
3.586094 72.841 119.0229
3.612081 72.918 118.4761
3.638255 72.995 117.9303
3.664620 73.071 117.3852
3.691175 73.145 116.8400
3.717923 73.219 116.2943
3.744864 73.291 115.7477
3.772001 73.363 115.2002
3.799335 73.433 114.6520
3.826866 73.503 114.1038
3.854597 73.571 113.5561
3.882529 73.639 113.0095
3.910664 73.705 112.4648
3.939002 73.771 111.9224
3.967546 73.836 111.3828
3.996296 73.901 110.8461
4.025255 73.964 110.3120
4.054423 74.027 109.7802
4.083804 74.088 109.2502
4.113396 74.149 108.7216
4.143204 74.209 108.1943
4.173227 74.268 107.6684
4.203468 74.326 107.1442
4.233928 74.383 106.6222
4.264609 74.439 106.1029
4.295512 74.495 105.5867
4.326639 74.551 105.0740
4.357992 74.605 104.5651
4.389572 74.660 104.0601
4.421380 74.713 103.5586
4.453419 74.766 103.0605
4.485691 74.819 102.5654
4.518196 74.870 102.0732
4.550936 74.922 101.5838
4.583914 74.972 101.0972
4.617131 75.023 100.6135
4.650589 75.073 100.1329
4.684289 75.122 99.6555
4.718233 75.172 99.1816
4.752424 75.221 98.7112
4.786862 75.271 98.2443
4.821549 75.320 97.7808
4.856488 75.368 97.3204
4.891680 75.417 96.8629
4.927127 75.465 96.4079
4.962831 75.514 95.9551
4.998794 75.562 95.5042
5.035017 75.611 95.0548
5.071503 75.659 94.6068
5.108253 75.708 94.1602
5.145270 75.757 93.7148
5.182555 75.806 93.2708
5.220110 75.855 92.8278
5.257937 75.904 92.3857
5.296038 75.953 91.9439
5.334415 76.002 91.5020
5.373071 76.052 91.0593
5.412006 76.102 90.6155
5.451224 76.151 90.1701
5.490725 76.201 89.7228
5.530514 76.251 89.2735
5.570590 76.301 88.8221
5.610957 76.352 88.3687
5.651616 76.402 87.9128
5.692570 76.452 87.4544
5.733821 76.502 86.9930
5.775370 76.552 86.5284
5.817221 76.601 86.0600
5.859375 76.651 85.5877
5.901834 76.700 85.1112
5.944602 76.748 84.6306
5.987679 76.796 84.1460
6.031068 76.844 83.6577
6.074771 76.891 83.1658
6.118792 76.938 82.6708
6.163131 76.984 82.1726
6.207792 77.028 81.6712
6.252776 77.072 81.1667
6.298086 77.115 80.6590
6.343725 77.157 80.1484
6.389694 77.198 79.6356
6.435996 77.238 79.1214
6.482634 77.277 78.6068
6.529610 77.314 78.0926
6.576926 77.350 77.5792
6.624585 77.385 77.0668
6.672590 77.418 76.5558
6.720942 77.451 76.0468
6.769645 77.481 75.5404
6.818700 77.511 75.0381
6.868111 77.539 74.5409
6.917881 77.566 74.0500
6.968010 77.592 73.5661
7.018504 77.617 73.0897
7.069362 77.640 72.6211
7.120590 77.663 72.1610
7.172189 77.685 71.7101
7.224161 77.706 71.2695
7.276511 77.726 70.8399
7.329239 77.747 70.4222
7.382350 77.767 70.0167
7.435845 77.787 69.6235
7.489729 77.807 69.2427
7.544002 77.827 68.8740
7.598669 77.848 68.5173
7.653732 77.870 68.1728
7.709194 77.892 67.8401
7.765058 77.916 67.5193
7.821327 77.941 67.2094
7.878004 77.968 66.9095
7.935091 77.996 66.6182
7.992592 78.026 66.3340
8.050510 78.059 66.0560
8.108847 78.093 65.7829
8.167607 78.129 65.5137
8.226793 78.168 65.2469
8.286408 78.209 64.9805
8.346454 78.252 64.7125
8.406936 78.297 64.4411
8.467856 78.345 64.1648
8.529218 78.394 63.8825
8.591024 78.445 63.5930
8.653278 78.498 63.2947
8.715983 78.552 62.9863
8.779143 78.608 62.6664
8.842760 78.664 62.3343
8.906839 78.721 61.9893
8.971381 78.779 61.6313
9.036392 78.837 61.2601
9.101873 78.894 60.8755
9.167829 78.952 60.4774
9.234263 79.009 60.0661
9.301178 79.065 59.6421
9.368578 79.120 59.2063
9.436467 79.174 58.7596
9.504847 79.226 58.3031
9.573723 79.276 57.8377
9.643099 79.325 57.3643
9.712976 79.372 56.8842
9.783361 79.417 56.3990
9.854255 79.460 55.9101
9.925663 79.501 55.4187
9.997588 79.540 54.9260
10.070035 79.576 54.4332
10.143007 79.611 53.9415
10.216507 79.643 53.4523
10.290540 79.674 52.9666
10.365109 79.703 52.4854
10.440219 79.729 52.0092
10.515873 79.755 51.5391
10.592076 79.778 51.0755
10.668830 79.800 50.6191
10.746141 79.821 50.1703
10.824012 79.841 49.7293
10.902447 79.859 49.2964
10.981451 79.876 48.8716
11.061027 79.893 48.4551
11.141180 79.908 48.0468
11.221913 79.923 47.6466
11.303232 79.937 47.2545
11.385140 79.950 46.8702
11.467641 79.963 46.4937
11.550741 79.975 46.1248
11.634442 79.987 45.7633
11.718750 79.999 45.4089
11.803669 80.009 45.0616
11.889203 80.020 44.7211
11.975357 80.030 44.3872
12.062136 80.040 44.0597
12.149543 80.050 43.7383
12.237583 80.059 43.4229
12.326262 80.068 43.1133
12.415583 80.077 42.8090
12.505552 80.087 42.5099
12.596172 80.095 42.2158
12.687449 80.104 41.9262
12.779387 80.113 41.6410
12.871992 80.122 41.3598
12.965268 80.131 41.0825
13.059220 80.139 40.8087
13.153852 80.148 40.5384
13.249170 80.157 40.2713
13.345179 80.166 40.0074
13.441884 80.174 39.7466
13.539289 80.183 39.4889
13.637401 80.192 39.2343
13.736223 80.201 38.9827
13.835761 80.210 38.7342
13.936021 80.219 38.4887
14.037007 80.229 38.2463
14.138725 80.239 38.0066
14.241180 80.250 37.7693
14.344377 80.261 37.5342
14.448323 80.273 37.3005
14.553021 80.286 37.0676
14.658478 80.300 36.8345
14.764700 80.315 36.6001
14.871691 80.331 36.3633
14.979457 80.349 36.1224
15.088005 80.367 35.8761
15.197339 80.387 35.6228
15.307465 80.407 35.3608
15.418389 80.428 35.0887
15.530117 80.450 34.8050
15.642655 80.472 34.5085
15.756008 80.495 34.1982
15.870182 80.517 33.8737
15.985184 80.538 33.5347
16.101019 80.558 33.1816
16.217694 80.576 32.8156
16.335214 80.592 32.4381
16.453586 80.606 32.0515
16.572815 80.616 31.6587
16.692909 80.624 31.2632
16.813872 80.628 30.8692
16.935713 80.629 30.4810
17.058436 80.626 30.1034
17.182048 80.620 29.7410
17.306556 80.611 29.3984
17.431967 80.601 29.0793
17.558286 80.589 28.7870
17.685521 80.576 28.5232
17.813677 80.564 28.2887
17.942762 80.553 28.0823
18.072783 80.545 27.9016
18.203746 80.539 27.7426
18.335658 80.538 27.5997
18.468526 80.540 27.4672
18.602356 80.546 27.3384
18.737156 80.555 27.2074
18.872934 80.568 27.0690
19.009695 80.583 26.9196
19.147447 80.599 26.7574
19.286197 80.615 26.5830
19.425953 80.630 26.3987
19.566721 80.644 26.2086
19.708510 80.657 26.0179
19.851326 80.668 25.8325
19.995177 80.678 25.6575
20.140070 80.688 25.4963
20.286013 80.699 25.3503
20.433014 80.713 25.2178
20.581080 80.729 25.0935
20.730219 80.750 24.9695
20.880439 80.776 24.8354
21.031747 80.806 24.6808
21.184152 80.840 24.4948
21.337661 80.876 24.2683
21.492282 80.912 23.9950
21.648024 80.946 23.6726
21.804895 80.975 23.3043
21.962902 80.998 22.8983
22.122054 81.012 22.4670
22.282360 81.017 22.0264
22.443827 81.012 21.5940
22.606464 80.998 21.1871
22.770280 80.977 20.8211
22.935283 80.951 20.5074
23.101481 80.924 20.2517
23.268884 80.899 20.0535
23.437500 80.878 19.9050
23.607338 80.864 19.7928
23.778406 80.859 19.6994
23.950714 80.862 19.6050
24.124271 80.873 19.4914
24.299086 80.891 19.3435
24.475167 80.912 19.1520
24.652524 80.934 18.9136
24.831166 80.955 18.6317
25.011103 80.972 18.3147
25.192344 80.984 17.9745
25.374898 80.990 17.6250
25.558775 80.992 17.2794
25.743984 80.989 16.9492
25.930536 80.984 16.6421
26.118439 80.977 16.3623
26.307704 80.971 16.1100
26.498341 80.967 15.8817
26.690359 80.966 15.6714
26.883768 80.968 15.4722
27.078579 80.973 15.2770
27.274801 80.981 15.0798
27.472446 80.990 14.8766
27.671522 81.001 14.6655
27.872042 81.012 14.4467
28.074014 81.022 14.2217
28.277450 81.031 13.9934
28.482360 81.039 13.7651
28.688755 81.046 13.5397
28.896645 81.052 13.3196
29.106042 81.057 13.1065
29.316957 81.061 12.9009
29.529400 81.064 12.7023
29.743382 81.068 12.5098
29.958915 81.071 12.3218
30.176009 81.074 12.1371
30.394677 81.076 11.9541
30.614929 81.079 11.7720
30.836778 81.080 11.5901
31.060234 81.081 11.4078
31.285309 81.082 11.2247
31.512015 81.082 11.0400
31.740364 81.081 10.8530
31.970368 81.080 10.6630
32.202039 81.078 10.4693
32.435388 81.075 10.2721
32.670428 81.072 10.0720
32.907171 81.067 9.8706
33.145630 81.062 9.6697
33.385817 81.055 9.4709
33.627745 81.049 9.2758
33.871425 81.043 9.0843
34.116871 81.037 8.8957
34.364096 81.033 8.7078
34.613113 81.030 8.5181
34.863934 81.028 8.3236
35.116572 81.027 8.1229
35.371041 81.027 7.9151
35.627354 81.026 7.7015
35.885525 81.025 7.4847
36.145566 81.023 7.2683
36.407492 81.021 7.0557
36.671316 81.018 6.8497
36.937051 81.016 6.6515
37.204712 81.014 6.4599
37.474313 81.014 6.2722
37.745867 81.014 6.0845
38.019389 81.015 5.8933
38.294893 81.016 5.6969
38.572394 81.016 5.4958
38.851905 81.014 5.2932
39.133442 81.011 5.0929
39.417019 81.007 4.8990
39.702651 81.002 4.7130
39.990353 80.997 4.5336
40.280140 80.993 4.3569
40.572026 80.990 4.1782
40.866028 80.987 3.9933
41.162160 80.984 3.8004
41.460438 80.980 3.6003
41.760877 80.975 3.3960
42.063494 80.969 3.1914
42.368303 80.963 2.9902
42.675322 80.956 2.7953
42.984565 80.949 2.6088
43.296048 80.944 2.4313
43.609789 80.940 2.2618
43.925804 80.939 2.0975
44.244108 80.939 1.9337
44.564719 80.942 1.7659
44.887654 80.945 1.5931
45.212928 80.948 1.4197
45.540560 80.950 1.2544
45.870565 80.952 1.1061
46.202962 80.956 0.9771
46.537768 80.964 0.8580
46.875000 80.976 0.7288
47.214676 80.992 0.5659
47.556813 81.007 0.3540
47.901429 81.016 0.0957
48.248542 81.015 -0.1874
48.598171 81.003 -0.4628
48.950334 80.983 -0.7008
49.305048 80.957 -0.8868
49.662333 80.933 -1.0262
50.022206 80.911 -1.1392
50.384688 80.894 -1.2501
50.749796 80.879 -1.3762
51.117550 80.864 -1.5233
51.487969 80.848 -1.6874
51.861072 80.831 -1.8602
52.236879 80.813 -2.0347
52.615409 80.795 -2.2074
52.996681 80.779 -2.3784
53.380717 80.764 -2.5502
53.767536 80.751 -2.7261
54.157158 80.740 -2.9087
54.549603 80.730 -3.0983
54.944892 80.721 -3.2921
55.343045 80.712 -3.4853
55.744084 80.702 -3.6725
56.148028 80.694 -3.8503
56.554900 80.686 -4.0180
56.964720 80.680 -4.1778
57.377510 80.675 -4.3346
57.793291 80.671 -4.4955
58.212085 80.668 -4.6678
58.633914 80.664 -4.8561
59.058799 80.657 -5.0583
59.486764 80.646 -5.2650
59.917829 80.631 -5.4635
60.352019 80.613 -5.6431
60.789354 80.593 -5.8001
61.229859 80.575 -5.9378
61.673556 80.558 -6.0631
62.120468 80.544 -6.1832
62.570618 80.532 -6.3043
63.024031 80.523 -6.4326
63.480729 80.516 -6.5735
63.940736 80.510 -6.7306
64.404077 80.504 -6.9030
64.870776 80.497 -7.0864
65.340856 80.487 -7.2746
65.814343 80.476 -7.4618
66.291261 80.462 -7.6423
66.771635 80.447 -7.8112
67.255489 80.430 -7.9648
67.742850 80.413 -8.1035
68.233743 80.397 -8.2319
68.728193 80.383 -8.3574
69.226226 80.368 -8.4866
69.727867 80.355 -8.6228
70.233144 80.341 -8.7671
70.742083 80.326 -8.9189
71.254709 80.312 -9.0773
71.771050 80.296 -9.2404
72.291132 80.281 -9.4067
72.814984 80.265 -9.5762
73.342631 80.249 -9.7495
73.874102 80.233 -9.9271
74.409424 80.216 -10.1080
74.948626 80.198 -10.2891
75.491734 80.179 -10.4664
76.038779 80.159 -10.6362
76.589787 80.139 -10.7966
77.144788 80.120 -10.9484
77.703811 80.102 -11.0957
78.266885 80.085 -11.2435
78.834039 80.069 -11.3932
79.405303 80.054 -11.5431
79.980706 80.040 -11.6919
80.560280 80.026 -11.8413
81.144053 80.013 -11.9932
81.732056 80.001 -12.1458
82.324320 79.987 -12.2939
82.920876 79.973 -12.4341
83.521755 79.959 -12.5660
84.126988 79.944 -12.6901
84.736607 79.928 -12.8052
85.350643 79.912 -12.9116
85.969129 79.894 -13.0138
86.592097 79.875 -13.1172
87.219579 79.854 -13.2219
87.851608 79.831 -13.3236
88.488217 79.807 -13.4218
89.129439 79.783 -13.5240
89.775308 79.760 -13.6413
90.425856 79.736 -13.7773
91.081119 79.710 -13.9268
91.741131 79.684 -14.0813
92.405925 79.659 -14.2369
93.075536 79.634 -14.3942
93.750000 79.610 -14.5530
94.429351 79.587 -14.7108
95.113625 79.565 -14.8654
95.802858 79.544 -15.0183
96.497085 79.524 -15.1736
97.196342 79.504 -15.3322
97.900667 79.482 -15.4895
98.610096 79.459 -15.6394
99.324665 79.435 -15.7794
100.044413 79.409 -15.9108
100.769376 79.383 -16.0352
101.499592 79.355 -16.1512
102.235100 79.328 -16.2572
102.975938 79.301 -16.3537
103.722144 79.276 -16.4470
104.473757 79.254 -16.5471
105.230817 79.232 -16.6625
105.993363 79.211 -16.7950
106.761435 79.188 -16.9395
107.535072 79.164 -17.0862
108.314315 79.138 -17.2272
109.099206 79.111 -17.3593
109.889783 79.083 -17.4839
110.686090 79.055 -17.6024
111.488167 79.026 -17.7137
112.296056 78.997 -17.8145
113.109800 78.968 -17.9043
113.929440 78.941 -17.9878
114.755020 78.914 -18.0713
115.586582 78.889 -18.1585
116.424170 78.862 -18.2503
117.267827 78.834 -18.3464
118.117598 78.803 -18.4451
118.973527 78.767 -18.5405
119.835658 78.728 -18.6235
120.704037 78.688 -18.6901
121.578708 78.649 -18.7490
122.459718 78.613 -18.8177
123.347111 78.581 -18.9056
124.240935 78.552 -19.0052
125.141236 78.525 -19.0957
126.048061 78.501 -19.1560
126.961458 78.482 -19.1785
127.881473 78.467 -19.1758
128.808154 78.454 -19.1723
129.741551 78.439 -19.1896
130.681712 78.415 -19.2369
131.628686 78.381 -19.3087
132.582521 78.335 -19.3889
133.543269 78.283 -19.4659
134.510979 78.229 -19.5425
135.485701 78.178 -19.6290
136.467486 78.132 -19.7336
137.456386 78.090 -19.8558
138.452451 78.050 -19.9852
139.455735 78.012 -20.1062
140.466288 77.973 -20.2059
141.484165 77.934 -20.2810
142.509418 77.895 -20.3385
143.542100 77.857 -20.3898
144.582265 77.819 -20.4427
145.629968 77.781 -20.4987
146.685262 77.744 -20.5548
147.748204 77.705 -20.6060
148.818849 77.665 -20.6459
149.897251 77.623 -20.6708
150.983469 77.580 -20.6829
152.077557 77.535 -20.6881
153.179574 77.489 -20.6907
154.289576 77.442 -20.6916
155.407622 77.395 -20.6897
156.533770 77.348 -20.6841
157.668078 77.301 -20.6733
158.810606 77.254 -20.6552
159.961413 77.205 -20.6259
161.120559 77.156 -20.5832
162.288105 77.106 -20.5273
163.464112 77.056 -20.4581
164.648640 77.006 -20.3707
165.841752 76.956 -20.2565
167.043510 76.907 -20.1082
168.253976 76.860 -19.9283
169.473213 76.816 -19.7279
170.701286 76.772 -19.5159
171.938258 76.728 -19.2921
173.184194 76.685 -19.0499
174.439158 76.644 -18.7859
175.703216 76.607 -18.5034
176.976434 76.576 -18.2059
178.258878 76.551 -17.8949
179.550615 76.533 -17.5741
180.851713 76.525 -17.2571
182.162239 76.526 -16.9702
183.482262 76.534 -16.7444
184.811850 76.549 -16.6036
186.151073 76.564 -16.5543
187.500000 76.576 -16.5820
188.858702 76.584 -16.6617
190.227250 76.585 -16.7717
191.605715 76.580 -16.9017
192.994169 76.571 -17.0503
194.392685 76.556 -17.2155
195.801334 76.536 -17.3882
197.220191 76.511 -17.5532
198.649330 76.482 -17.6946
200.088825 76.449 -17.8021
201.538751 76.414 -17.8732
202.999184 76.377 -17.9120
204.470200 76.338 -17.9261
205.951875 76.297 -17.9222
207.444287 76.255 -17.9044
208.947514 76.213 -17.8746
210.461634 76.171 -17.8341
211.986726 76.130 -17.7838
213.522869 76.088 -17.7245
215.070144 76.047 -17.6575
216.628631 76.005 -17.5842
218.198411 75.963 -17.5067
219.779567 75.921 -17.4265
221.372180 75.879 -17.3439
222.976334 75.838 -17.2578
224.592112 75.798 -17.1657
226.219600 75.759 -17.0663
227.858880 75.720 -16.9606
229.510039 75.682 -16.8512
231.173164 75.644 -16.7400
232.848340 75.607 -16.6284
234.535655 75.570 -16.5173
236.235197 75.534 -16.4064
237.947054 75.497 -16.2941
239.671317 75.459 -16.1787
241.408074 75.420 -16.0589
243.157416 75.379 -15.9331
244.919435 75.338 -15.8003
246.694223 75.295 -15.6605
248.481871 75.253 -15.5139
250.282473 75.211 -15.3614
252.096123 75.170 -15.2029
253.922915 75.132 -15.0372
255.762945 75.096 -14.8616
257.616309 75.062 -14.6749
259.483103 75.028 -14.4791
261.363424 74.993 -14.2772
263.257372 74.957 -14.0714
265.165043 74.919 -13.8623
267.086538 74.880 -13.6489
269.021957 74.841 -13.4301
270.971401 74.803 -13.2061
272.934972 74.766 -12.9800
274.912771 74.731 -12.7567
276.904902 74.697 -12.5404
278.911469 74.664 -12.3336
280.932577 74.631 -12.1368
282.968330 74.597 -11.9475
285.018835 74.562 -11.7599
287.084199 74.528 -11.5660
289.164530 74.493 -11.3580
291.259935 74.458 -11.1318
293.370525 74.422 -10.8884
295.496408 74.387 -10.6310
297.637697 74.352 -10.3606
299.794503 74.318 -10.0777
301.966937 74.285 -9.7858
304.155114 74.253 -9.4906
306.359147 74.223 -9.1954
308.579152 74.193 -8.8995
310.815244 74.165 -8.6025
313.067539 74.137 -8.3073
315.336156 74.108 -8.0164
317.621211 74.080 -7.7289
319.922826 74.051 -7.4407
322.241118 74.021 -7.1475
324.576210 73.993 -6.8475
326.928223 73.964 -6.5408
329.297280 73.937 -6.2281
331.683504 73.912 -5.9106
334.087019 73.887 -5.5892
336.507952 73.863 -5.2643
338.946427 73.840 -4.9354
341.402572 73.817 -4.6018
343.876516 73.794 -4.2620
346.368387 73.771 -3.9144
348.878315 73.748 -3.5587
351.406431 73.726 -3.1977
353.952867 73.704 -2.8350
356.517756 73.683 -2.4709
359.101230 73.662 -2.1026
361.703426 73.641 -1.7253
364.324478 73.621 -1.3362
366.964523 73.601 -0.9344
369.623699 73.581 -0.5195
372.302145 73.563 -0.0898
375.000000 73.547 0.3560
377.717405 73.533 0.8182
380.454501 73.521 1.2960
383.211431 73.512 1.7866
385.988339 73.508 2.2855
388.785369 73.508 2.7874
391.602668 73.514 3.2859
394.440383 73.525 3.7740
397.298660 73.541 4.2446
400.177650 73.562 4.6900
403.077502 73.585 5.1045
405.998368 73.610 5.4847
408.940400 73.635 5.8301
411.903750 73.660 6.1439
414.888575 73.682 6.4327
417.895028 73.703 6.7048
420.923268 73.720 6.9688
423.973452 73.736 7.2322
427.045738 73.750 7.5002
430.140287 73.764 7.7745
433.257261 73.779 8.0518
436.396822 73.794 8.3253
439.559133 73.810 8.5885
442.744360 73.825 8.8380
445.952668 73.839 9.0746
449.184225 73.852 9.3018
452.439199 73.863 9.5234
455.717760 73.873 9.7437
459.020079 73.880 9.9673
462.346327 73.887 10.1985
465.696680 73.892 10.4387
469.071310 73.896 10.6874
472.470394 73.899 10.9427
475.894109 73.902 11.2031
479.342634 73.904 11.4669
482.816148 73.907 11.7335
486.314833 73.910 12.0030
489.838871 73.914 12.2759
493.388445 73.918 12.5525
496.963741 73.922 12.8334
500.564945 73.927 13.1185
504.192245 73.932 13.4077
507.845830 73.938 13.7006
511.525890 73.944 13.9969
515.232618 73.950 14.2965
518.966206 73.956 14.5984
522.726849 73.963 14.9015
526.514743 73.970 15.2046
530.330086 73.978 15.5073
534.173076 73.987 15.8092
538.043915 73.996 16.1098
541.942803 74.006 16.4089
545.869944 74.016 16.7069
549.825542 74.026 17.0040
553.809805 74.036 17.3010
557.822939 74.047 17.5991
561.865154 74.057 17.8991
565.936660 74.067 18.2017
570.037671 74.077 18.5071
574.168399 74.087 18.8156
578.329060 74.097 19.1274
582.519870 74.107 19.4430
586.741049 74.117 19.7623
590.992817 74.128 20.0850
595.275394 74.139 20.4110
599.589005 74.151 20.7402
603.933874 74.163 21.0730
608.310228 74.175 21.4092
612.718295 74.189 21.7479
617.158304 74.204 22.0882
621.630488 74.220 22.4290
626.135079 74.237 22.7692
630.672311 74.255 23.1079
635.242423 74.273 23.4443
639.845651 74.292 23.7778
644.482237 74.311 24.1083
649.152421 74.330 24.4368
653.856447 74.349 24.7650
658.594560 74.368 25.0948
663.367008 74.386 25.4276
668.174039 74.405 25.7640
673.015903 74.424 26.1052
677.892854 74.443 26.4514
682.805145 74.462 26.8021
687.753032 74.482 27.1569
692.736774 74.503 27.5150
697.756631 74.524 27.8762
702.812863 74.547 28.2397
707.905735 74.570 28.6047
713.035511 74.594 28.9700
718.202461 74.619 29.3344
723.406852 74.645 29.6974
728.648956 74.672 30.0586
733.929047 74.700 30.4179
739.247399 74.728 30.7760
744.604290 74.756 31.1340
750.000000 74.785 31.4934
755.434809 74.815 31.8558
760.909001 74.845 32.2220
766.422861 74.876 32.5929
771.976677 74.907 32.9688
777.570739 74.939 33.3498
783.205337 74.972 33.7350
788.880766 75.006 34.1234
794.597321 75.040 34.5132
800.355301 75.075 34.9035
806.155005 75.112 35.2943
811.996736 75.149 35.6869
817.880799 75.188 36.0822
823.807501 75.229 36.4803
829.777150 75.271 36.8801
835.790057 75.316 37.2792
841.846536 75.362 37.6755
847.946903 75.410 38.0679
854.091476 75.459 38.4571
860.280575 75.509 38.8454
866.514523 75.559 39.2351
872.793644 75.610 39.6278
879.118267 75.662 40.0241
885.488720 75.715 40.4232
891.905336 75.768 40.8227
898.368450 75.823 41.2191
904.878398 75.878 41.6091
911.435520 75.936 41.9908
918.040157 75.995 42.3641
924.692655 76.057 42.7301
931.393359 76.121 43.0900
938.142619 76.187 43.4445
944.940787 76.255 43.7935
951.788218 76.324 44.1361
958.685268 76.395 44.4711
965.632296 76.467 44.7977
972.629666 76.540 45.1154
979.677741 76.614 45.4236
986.776890 76.690 45.7218
993.927482 76.767 46.0095
1001.129891 76.845 46.2861
1008.384491 76.924 46.5514
1015.691660 77.004 46.8050
1023.051781 77.085 47.0468
1030.465236 77.166 47.2769
1037.932411 77.248 47.4956
1045.453698 77.330 47.7031
1053.029486 77.413 47.8995
1060.660172 77.496 48.0847
1068.346153 77.579 48.2582
1076.087829 77.662 48.4201
1083.885605 77.746 48.5701
1091.739887 77.829 48.7079
1099.651084 77.913 48.8330
1107.619609 77.996 48.9450
1115.645878 78.079 49.0439
1123.730308 78.163 49.1303
1131.873321 78.246 49.2049
1140.075341 78.328 49.2688
1148.336797 78.411 49.3228
1156.658119 78.493 49.3669
1165.039741 78.574 49.4002
1173.482099 78.655 49.4220
1181.985634 78.736 49.4325
1190.550789 78.816 49.4326
1199.178011 78.895 49.4240
1207.867749 78.972 49.4088
1216.620457 79.049 49.3884
1225.436590 79.124 49.3643
1234.316609 79.197 49.3364
1243.260976 79.268 49.3046
1252.270157 79.339 49.2684
1261.344623 79.407 49.2279
1270.484846 79.475 49.1841
1279.691303 79.541 49.1379
1288.964474 79.606 49.0893
1298.304842 79.671 49.0386
1307.712894 79.734 48.9862
1317.189120 79.796 48.9328
1326.734016 79.858 48.8791
1336.348077 79.919 48.8254
1346.031806 79.979 48.7720
1355.785708 80.039 48.7191
1365.610290 80.098 48.6665
1375.506065 80.157 48.6145
1385.473549 80.215 48.5631
1395.513261 80.273 48.5125
1405.625726 80.330 48.4630
1415.811469 80.387 48.4153
1426.071023 80.444 48.3694
1436.404921 80.500 48.3256
1446.813703 80.556 48.2841
1457.297912 80.611 48.2454
1467.858093 80.666 48.2098
1478.494798 80.722 48.1770
1489.208581 80.777 48.1467
1500.000000 80.832 48.1183
1510.869618 80.888 48.0917
1521.818002 80.943 48.0670
1532.845723 80.999 48.0440
1543.953355 81.056 48.0228
1555.141477 81.112 48.0033
1566.410674 81.169 47.9852
1577.761531 81.227 47.9685
1589.194642 81.285 47.9528
1600.710601 81.344 47.9374
1612.310010 81.403 47.9222
1623.993473 81.463 47.9073
1635.761599 81.524 47.8923
1647.615002 81.585 47.8770
1659.554299 81.647 47.8609
1671.580114 81.710 47.8438
1683.693072 81.774 47.8256
1695.893807 81.838 47.8063
1708.182952 81.904 47.7856
1720.561150 81.970 47.7632
1733.029045 82.037 47.7389
1745.587288 82.105 47.7120
1758.236533 82.175 47.6823
1770.977440 82.245 47.6490
1783.810673 82.317 47.6118
1796.736900 82.389 47.5701
1809.756796 82.463 47.5236
1822.871040 82.537 47.4719
1836.080315 82.613 47.4146
1849.385310 82.689 47.3514
1862.786718 82.766 47.2822
1876.285239 82.845 47.2068
1889.881575 82.925 47.1243
1903.576436 83.005 47.0336
1917.370535 83.088 46.9333
1931.264593 83.171 46.8226
1945.259332 83.256 46.7009
1959.355483 83.342 46.5683
1973.553781 83.429 46.4244
1987.854965 83.518 46.2690
2002.259781 83.607 46.1013
2016.768981 83.697 45.9210
2031.383320 83.788 45.7275
2046.103561 83.879 45.5203
2060.930471 83.971 45.2983
2075.864823 84.064 45.0607
2090.907395 84.158 44.8066
2106.058972 84.252 44.5350
2121.320344 84.348 44.2444
2136.692305 84.444 43.9337
2152.175658 84.542 43.6019
2167.771210 84.639 43.2487
2183.479774 84.738 42.8738
2199.302169 84.836 42.4767
2215.239219 84.933 42.0570
2231.291755 85.030 41.6141
2247.460615 85.127 41.1476
2263.746641 85.222 40.6565
2280.150683 85.316 40.1399
2296.673595 85.409 39.5967
2313.316238 85.500 39.0266
2330.079481 85.591 38.4291
2346.964198 85.679 37.8039
2363.971268 85.765 37.1509
2381.101578 85.850 36.4707
2398.356022 85.931 35.7637
2415.735498 86.010 35.0299
2433.240913 86.086 34.2695
2450.873180 86.158 33.4829
2468.633217 86.225 32.6712
2486.521951 86.289 31.8352
2504.540314 86.347 30.9758
2522.689246 86.400 30.0941
2540.969692 86.448 29.1919
2559.382606 86.490 28.2717
2577.928947 86.526 27.3353
2596.609683 86.556 26.3846
2615.425787 86.580 25.4215
2634.378241 86.598 24.4489
2653.468031 86.609 23.4701
2672.696154 86.614 22.4877
2692.063613 86.612 21.5043
2711.571415 86.603 20.5223
2731.220579 86.588 19.5444
2751.012130 86.566 18.5733
2770.947098 86.536 17.6116
2791.026522 86.501 16.6620
2811.251451 86.458 15.7274
2831.622938 86.410 14.8104
2852.142045 86.355 13.9136
2872.809842 86.294 13.0397
2893.627406 86.228 12.1914
2914.595823 86.156 11.3712
2935.716186 86.080 10.5812
2956.989596 85.998 9.8229
2978.417161 85.913 9.0981
3000.000000 85.824 8.4084
3021.739237 85.731 7.7550
3043.636005 85.635 7.1384
3065.691446 85.537 6.5595
3087.906710 85.436 6.0186
3110.282955 85.333 5.5161
3132.821347 85.229 5.0520
3155.523062 85.124 4.6265
3178.389283 85.019 4.2393
3201.421202 84.913 3.8906
3224.620020 84.807 3.5801
3247.986946 84.702 3.3075
3271.523198 84.597 3.0721
3295.230004 84.493 2.8734
3319.108599 84.391 2.7103
3343.160228 84.289 2.5819
3367.386145 84.189 2.4872
3391.787613 84.091 2.4254
3416.365904 83.995 2.3959
3441.122300 83.901 2.3977
3466.058091 83.809 2.4298
3491.174576 83.720 2.4911
3516.473066 83.634 2.5803
3541.954880 83.551 2.6965
3567.621345 83.471 2.8384
3593.473800 83.394 3.0048
3619.513592 83.321 3.1943
3645.742080 83.252 3.4056
3672.160630 83.186 3.6371
3698.770620 83.124 3.8871
3725.573436 83.066 4.1539
3752.570477 83.012 4.4357
3779.763150 82.962 4.7307
3807.152872 82.917 5.0376
3834.741071 82.875 5.3550
3862.529185 82.837 5.6816
3890.518664 82.803 6.0162
3918.710966 82.774 6.3572
3947.107561 82.749 6.7027
3975.709929 82.729 7.0513
4004.519563 82.712 7.4016
4033.537962 82.701 7.7523
4062.766641 82.694 8.1022
4092.207123 82.691 8.4496
4121.860942 82.693 8.7926
4151.729646 82.700 9.1291
4181.814790 82.710 9.4573
4212.117944 82.726 9.7751
4242.640687 82.745 10.0811
4273.384610 82.768 10.3728
4304.351317 82.796 10.6482
4335.542421 82.828 10.9049
4366.959549 82.863 11.1404
4398.604338 82.903 11.3521
4430.478438 82.947 11.5367
4462.583511 82.994 11.6914
4494.921231 83.045 11.8127
4527.493283 83.099 11.8977
4560.301365 83.156 11.9429
4593.347189 83.216 11.9451
4626.632476 83.277 11.9006
4660.158962 83.340 11.8063
4693.928395 83.403 11.6593
4727.942535 83.465 11.4574
4762.203156 83.526 11.1990
4796.712043 83.584 10.8832
4831.470996 83.639 10.5096
4866.481826 83.689 10.0792
4901.746360 83.734 9.5940
4937.266434 83.771 9.0570
4973.043902 83.801 8.4720
5009.080628 83.822 7.8442
5045.378492 83.833 7.1795
5081.939384 83.833 6.4847
5118.765212 83.821 5.7678
5155.857894 83.798 5.0375
5193.219366 83.762 4.3034
5230.851574 83.713 3.5754
5268.756481 83.652 2.8638
5306.936062 83.577 2.1787
5345.392309 83.490 1.5305
5384.127225 83.392 0.9293
5423.142830 83.282 0.3850
5462.441159 83.162 -0.0935
5502.024259 83.034 -0.4979
5541.894195 82.897 -0.8212
5582.053045 82.754 -1.0569
5622.502902 82.607 -1.2001
5663.245876 82.456 -1.2467
5704.284090 82.303 -1.1940
5745.619684 82.150 -1.0404
5787.254813 81.999 -0.7856
5829.191647 81.851 -0.4304
5871.432373 81.708 0.0229
5913.979192 81.571 0.5720
5956.834323 81.443 1.2130
6000.000000 81.325 1.9417
6043.478473 81.218 2.7524
6087.272010 81.124 3.6385
6131.382892 81.044 4.5922
6175.813420 80.981 5.6046
6220.565910 80.934 6.6660
6265.642695 80.907 7.7650
6311.046124 80.900 8.8889
6356.778566 80.915 10.0233
6402.842404 80.952 11.1522
6449.240040 81.013 12.2570
6495.973891 81.097 13.3174
6543.046396 81.207 14.3109
6590.460007 81.340 15.2134
6638.217197 81.498 15.9991
6686.320456 81.677 16.6416
6734.772290 81.878 17.1138
6783.575226 82.095 17.3894
6832.731809 82.326 17.4436
6882.244600 82.567 17.2550
6932.116181 82.811 16.8062
6982.349153 83.052 16.0854
7032.946133 83.285 15.0881
7083.909760 83.500 13.8184
7135.242690 83.691 12.2910
7186.947600 83.850 10.5323
7239.027185 83.970 8.5805
7291.484160 84.047 6.4841
7344.321260 84.077 4.2995
7397.541239 84.059 2.0870
7451.146872 83.993 -0.0934
7505.140954 83.884 -2.1868
7559.526299 83.735 -4.1465
7614.305743 83.553 -5.9373
7669.482141 83.345 -7.5359
7725.058371 83.118 -8.9316
7781.037328 82.878 -10.1235
7837.421932 82.632 -11.1193
7894.215122 82.384 -11.9324
7951.419859 82.139 -12.5801
8009.039125 81.900 -13.0831
8067.075924 81.669 -13.4628
8125.533282 81.448 -13.7413
8184.414245 81.237 -13.9392
8243.721885 81.038 -14.0756
8303.459292 80.848 -14.1667
8363.629581 80.668 -14.2263
8424.235888 80.496 -14.2650
8485.281374 80.332 -14.2908
8546.769221 80.174 -14.3092
8608.702634 80.020 -14.3242
8671.084842 79.871 -14.3384
8733.919097 79.724 -14.3536
8797.208675 79.580 -14.3718
8860.956876 79.437 -14.3946
8925.167022 79.293 -14.4233
8989.842461 79.149 -14.4587
9054.986566 79.002 -14.5001
9120.602731 78.850 -14.5443
9186.694378 78.692 -14.5856
9253.264952 78.527 -14.6146
9320.317925 78.352 -14.6191
9387.856790 78.166 -14.5842
9455.885071 77.970 -14.4929
9524.406312 77.764 -14.3275
9593.424086 77.549 -14.0711
9662.941992 77.327 -13.7089
9732.963653 77.100 -13.2290
9803.492719 76.870 -12.6234
9874.532869 76.641 -11.8882
9946.087805 76.415 -11.0226
10018.161257 76.195 -10.0291
10090.756983 75.982 -8.9124
10163.878768 75.779 -7.6794
10237.530423 75.588 -6.3388
10311.715789 75.411 -4.9014
10386.438732 75.249 -3.3793
10461.703149 75.104 -1.7864
10537.512962 74.978 -0.1378
10613.872125 74.870 1.5516
10690.784618 74.782 3.2665
10768.254450 74.715 4.9917
10846.285661 74.668 6.7120
10924.882318 74.642 8.4120
11004.048518 74.637 10.0758
11083.788390 74.653 11.6868
11164.106090 74.691 13.2267
11245.005805 74.751 14.6752
11326.491752 74.831 16.0070
11408.568180 74.933 17.1914
11491.239368 75.053 18.1934
11574.509626 75.188 18.9780
11658.383294 75.334 19.5150
11742.864745 75.483 19.7842
11827.958384 75.629 19.7766
11913.668646 75.763 19.4967
12000.000000 75.877 18.9622
12086.956947 75.965 18.2042
12174.544019 76.020 17.2664
12262.765784 76.039 16.2034
12351.626840 76.019 15.0764
12441.131819 75.961 13.9480
12531.285389 75.869 12.8761
12622.092249 75.747 11.9090
12713.557132 75.603 11.0823
12805.684808 75.443 10.4173
12898.480079 75.276 9.9229
12991.947783 75.107 9.5975
13086.092792 74.943 9.4326
13180.920015 74.789 9.4152
13276.434395 74.649 9.5303
13372.640911 74.528 9.7626
13469.544580 74.428 10.0970
13567.150452 74.354 10.5173
13665.463617 74.309 11.0048
13764.489200 74.296 11.5363
13864.232362 74.320 12.0824
13964.698305 74.381 12.6052
14065.892266 74.482 13.0568
14167.819519 74.622 13.3801
14270.485380 74.797 13.5114
14373.895200 74.999 13.3873
14478.054370 75.218 12.9545
14582.968320 75.440 12.1809
14688.642520 75.647 11.0652
14795.082478 75.826 9.6414
14902.293745 75.964 7.9753
15010.281908 76.054 6.1571
15119.052599 76.094 4.2861
15228.611486 76.091 2.4526
15338.964283 76.056 0.7170
15450.116741 76.005 -0.9070
15562.074656 75.953 -2.4618
15674.843864 75.913 -4.0412
15788.430244 75.888 -5.7714
15902.839718 75.870 -7.7816
16018.078250 75.843 -10.1742
16134.151848 75.785 -13.0020
16251.066563 75.669 -16.2574
16368.828491 75.469 -19.8719
16487.443769 75.167 -23.7251
16606.918584 74.747 -27.6608
16727.259161 74.205 -31.5088
16848.471777 73.545 -35.1068
16970.562748 72.778 -38.3187
17093.538442 71.921 -41.0464
17217.405268 70.992 -43.2338
17342.169684 70.013 -44.8637
17467.838194 69.005 -45.9516
17594.417350 67.984 -46.5340
17721.913751 66.966 -46.6527
17850.334044 65.963 -46.3362
17979.684923 64.983 -45.5781
18109.973131 64.034 -44.3114
18241.205462 63.130 -42.3823
18373.388756 62.296 -39.5283
18506.529905 61.585 -35.3882
18640.635849 61.087 -29.6176
18775.713581 60.913 -22.2384
18911.770141 61.140 -14.1422
19048.812624 61.727 -7.0394
19186.848172 62.524 -2.3942
19325.883983 63.351 -0.5378
19465.927305 64.077 -0.8657
19606.985439 64.636 -2.4451
19749.065738 65.023 -4.4133
19892.175609 65.256 -6.1097
20036.322514 65.364 -7.0807
