* Measurement data measured by REW V5.31.3
* Source: Headset (CX31993 HIFI AUDIO), MICROPHONE (Master Volume), R, volume: 0.250
* Format: 256k Log Swept Sine, 1 sweep at -12.0 dBFS with no timing reference
* Dated: 12 31, 24 12:53:21 PM
* REW Settings:
*  C-weighting compensation: Off
*  Target level: 75.0 dB
* Note: ; 
* Measurement: Sony Linkbuds Fit R
* Smoothing: 1/12 octave
* Frequency Step: 96 ppo
* Start Frequency: 0.36621094 Hz
*
* Freq(Hz) SPL(dB) Phase(degrees)
0.366211 30.639 -85.3618
0.368865 30.679 -85.3445
0.371538 30.738 -85.3175
0.374230 30.811 -85.2819
0.376942 30.893 -85.2384
0.379673 30.980 -85.1876
0.382424 31.072 -85.1301
0.385196 31.165 -85.0663
0.387987 31.260 -84.9965
0.390798 31.356 -84.9210
0.393630 31.453 -84.8400
0.396483 31.551 -84.7540
0.399356 31.650 -84.6631
0.402250 31.749 -84.5676
0.405165 31.849 -84.4677
0.408101 31.950 -84.3638
0.411058 32.051 -84.2561
0.414037 32.153 -84.1448
0.417037 32.256 -84.0303
0.420059 32.360 -83.9129
0.423103 32.465 -83.7927
0.426169 32.570 -83.6701
0.429257 32.676 -83.5454
0.432368 32.783 -83.4188
0.435501 32.890 -83.2905
0.438656 32.999 -83.1610
0.441835 33.108 -83.0304
0.445037 33.218 -82.8989
0.448262 33.329 -82.7670
0.451510 33.440 -82.6348
0.454782 33.552 -82.5025
0.458077 33.666 -82.3706
0.461397 33.780 -82.2391
0.464740 33.894 -82.1084
0.468108 34.010 -81.9787
0.471500 34.126 -81.8503
0.474917 34.244 -81.7234
0.478358 34.362 -81.5982
0.481825 34.481 -81.4749
0.485316 34.601 -81.3539
0.488833 34.722 -81.2353
0.492375 34.843 -81.1194
0.495943 34.966 -81.0063
0.499537 35.089 -80.8964
0.503157 35.214 -80.7897
0.506803 35.339 -80.6866
0.510475 35.465 -80.5871
0.514175 35.592 -80.4916
0.517900 35.720 -80.4001
0.521653 35.849 -80.3130
0.525434 35.979 -80.2303
0.529241 36.109 -80.1523
0.533076 36.241 -80.0792
0.536939 36.374 -80.0110
0.540830 36.507 -79.9481
0.544749 36.642 -79.8905
0.548696 36.778 -79.8385
0.552673 36.914 -79.7921
0.556677 37.052 -79.7516
0.560711 37.190 -79.7170
0.564774 37.330 -79.6887
0.568867 37.470 -79.6666
0.572989 37.612 -79.6510
0.577141 37.755 -79.6420
0.581324 37.898 -79.6397
0.585536 38.043 -79.6443
0.589779 38.189 -79.6559
0.594053 38.336 -79.6747
0.598358 38.484 -79.7007
0.602694 38.633 -79.7342
0.607061 38.783 -79.7752
0.611460 38.934 -79.8239
0.615891 39.086 -79.8804
0.620354 39.239 -79.9449
0.624849 39.394 -80.0174
0.629377 39.549 -80.0980
0.633938 39.706 -80.1870
0.638532 39.864 -80.2844
0.643159 40.023 -80.3904
0.647819 40.183 -80.5051
0.652514 40.344 -80.6285
0.657242 40.507 -80.7608
0.662005 40.670 -80.9022
0.666802 40.835 -81.0528
0.671634 41.001 -81.2126
0.676501 41.168 -81.3817
0.681403 41.337 -81.5604
0.686341 41.506 -81.7487
0.691314 41.677 -81.9467
0.696324 41.849 -82.1544
0.701370 42.021 -82.3718
0.706452 42.194 -82.5989
0.711571 42.367 -82.8355
0.716728 42.538 -83.0810
0.721921 42.708 -83.3347
0.727153 42.875 -83.5954
0.732422 43.036 -83.8614
0.737729 43.193 -84.1306
0.743075 43.345 -84.4013
0.748460 43.493 -84.6717
0.753883 43.638 -84.9408
0.759346 43.781 -85.2079
0.764849 43.923 -85.4728
0.770391 44.064 -85.7353
0.775974 44.204 -85.9956
0.781597 44.344 -86.2537
0.787261 44.482 -86.5099
0.792966 44.620 -86.7644
0.798712 44.758 -87.0173
0.804500 44.895 -87.2691
0.810329 45.031 -87.5199
0.816201 45.167 -87.7700
0.822116 45.302 -88.0196
0.828073 45.436 -88.2691
0.834074 45.570 -88.5186
0.840118 45.704 -88.7685
0.846206 45.837 -89.0190
0.852338 45.969 -89.2703
0.858514 46.101 -89.5229
0.864735 46.233 -89.7768
0.871001 46.364 -90.0325
0.877313 46.495 -90.2901
0.883670 46.625 -90.5499
0.890074 46.755 -90.8123
0.896524 46.884 -91.0775
0.903020 47.014 -91.3457
0.909564 47.142 -91.6172
0.916155 47.271 -91.8924
0.922794 47.399 -92.1714
0.929481 47.527 -92.4547
0.936216 47.655 -92.7423
0.943000 47.783 -93.0348
0.949834 47.911 -93.3322
0.956717 48.039 -93.6349
0.963649 48.166 -93.9432
0.970632 48.294 -94.2574
0.977666 48.421 -94.5778
0.984750 48.549 -94.9047
0.991886 48.677 -95.2383
0.999074 48.805 -95.5791
1.006314 48.934 -95.9272
1.013606 49.062 -96.2830
1.020951 49.192 -96.6468
1.028349 49.321 -97.0190
1.035801 49.451 -97.3998
1.043307 49.582 -97.7895
1.050867 49.713 -98.1885
1.058482 49.845 -98.5968
1.066152 49.978 -99.0149
1.073878 50.112 -99.4425
1.081660 50.246 -99.8797
1.089498 50.381 -100.3259
1.097393 50.516 -100.7804
1.105345 50.651 -101.2422
1.113355 50.787 -101.7102
1.121423 50.922 -102.1832
1.129549 51.057 -102.6603
1.137734 51.192 -103.1410
1.145979 51.327 -103.6246
1.154283 51.460 -104.1108
1.162647 51.594 -104.5994
1.171072 51.727 -105.0899
1.179558 51.859 -105.5824
1.188106 51.992 -106.0765
1.196715 52.123 -106.5723
1.205387 52.255 -107.0696
1.214122 52.386 -107.5682
1.222920 52.516 -108.0683
1.231782 52.646 -108.5697
1.240708 52.776 -109.0723
1.249699 52.906 -109.5763
1.258754 53.035 -110.0816
1.267876 53.164 -110.5883
1.277063 53.293 -111.0964
1.286318 53.421 -111.6060
1.295639 53.550 -112.1172
1.305027 53.678 -112.6301
1.314484 53.806 -113.1449
1.324009 53.934 -113.6615
1.333604 54.062 -114.1804
1.343268 54.190 -114.7015
1.353002 54.317 -115.2251
1.362806 54.445 -115.7513
1.372681 54.573 -116.2805
1.382628 54.702 -116.8129
1.392647 54.830 -117.3486
1.402739 54.959 -117.8880
1.412904 55.087 -118.4313
1.423142 55.217 -118.9787
1.433455 55.346 -119.5304
1.443843 55.476 -120.0865
1.454305 55.605 -120.6471
1.464844 55.735 -121.2119
1.475459 55.865 -121.7807
1.486150 55.995 -122.3531
1.496920 56.125 -122.9287
1.507767 56.254 -123.5071
1.518693 56.383 -124.0881
1.529698 56.511 -124.6713
1.540783 56.639 -125.2566
1.551948 56.766 -125.8437
1.563194 56.894 -126.4327
1.574521 57.020 -127.0235
1.585931 57.147 -127.6159
1.597423 57.273 -128.2100
1.608999 57.398 -128.8057
1.620658 57.523 -129.4032
1.632402 57.648 -130.0025
1.644232 57.773 -130.6037
1.656146 57.897 -131.2069
1.668147 58.021 -131.8121
1.680235 58.145 -132.4197
1.692411 58.269 -133.0298
1.704675 58.392 -133.6425
1.717028 58.516 -134.2582
1.729470 58.639 -134.8771
1.742003 58.762 -135.4994
1.754626 58.885 -136.1255
1.767341 59.008 -136.7558
1.780147 59.131 -137.3906
1.793047 59.254 -138.0303
1.806040 59.377 -138.6754
1.819128 59.500 -139.3264
1.832310 59.623 -139.9835
1.845587 59.745 -140.6471
1.858961 59.867 -141.3173
1.872432 59.989 -141.9937
1.886001 60.110 -142.6762
1.899667 60.230 -143.3641
1.913433 60.350 -144.0568
1.927299 60.470 -144.7538
1.941265 60.589 -145.4543
1.955332 60.708 -146.1580
1.969501 60.826 -146.8640
1.983773 60.943 -147.5720
1.998148 61.060 -148.2815
2.012627 61.177 -148.9921
2.027212 61.293 -149.7032
2.041902 61.409 -150.4147
2.056698 61.525 -151.1262
2.071602 61.640 -151.8376
2.086614 61.755 -152.5485
2.101734 61.870 -153.2590
2.116964 61.984 -153.9689
2.132304 62.098 -154.6785
2.147756 62.212 -155.3880
2.163320 62.326 -156.0979
2.178996 62.439 -156.8088
2.194786 62.552 -157.5217
2.210690 62.664 -158.2376
2.226710 62.776 -158.9573
2.242845 62.888 -159.6814
2.259098 62.998 -160.4099
2.275468 63.108 -161.1426
2.291957 63.218 -161.8791
2.308566 63.327 -162.6188
2.325295 63.435 -163.3608
2.342145 63.542 -164.1046
2.359117 63.649 -164.8493
2.376212 63.756 -165.5944
2.393431 63.861 -166.3390
2.410775 63.967 -167.0826
2.428244 64.072 -167.8246
2.445840 64.176 -168.5645
2.463564 64.280 -169.3018
2.481416 64.383 -170.0363
2.499397 64.487 -170.7678
2.517509 64.589 -171.4965
2.535752 64.692 -172.2228
2.554127 64.794 -172.9476
2.572635 64.895 -173.6720
2.591277 64.996 -174.3972
2.610055 65.096 -175.1241
2.628968 65.196 -175.8532
2.648019 65.294 -176.5845
2.667208 65.392 -177.3178
2.686535 65.489 -178.0524
2.706003 65.586 -178.7878
2.725612 65.682 -179.5230
2.745363 65.777 179.7427
2.765257 65.872 179.0101
2.785295 65.966 178.2801
2.805478 66.060 177.5533
2.825808 66.153 176.8307
2.846285 66.246 176.1125
2.866910 66.339 175.3994
2.887685 66.431 174.6912
2.908611 66.523 173.9876
2.929688 66.614 173.2880
2.950917 66.705 172.5914
2.972301 66.795 171.8967
2.993839 66.885 171.2033
3.015534 66.974 170.5107
3.037386 67.062 169.8191
3.059396 67.150 169.1286
3.081565 67.237 168.4399
3.103896 67.324 167.7534
3.126388 67.410 167.0699
3.149043 67.496 166.3902
3.171862 67.581 165.7149
3.194847 67.667 165.0446
3.217998 67.752 164.3800
3.241317 67.837 163.7214
3.264805 67.922 163.0690
3.288463 68.007 162.4226
3.312293 68.091 161.7817
3.336295 68.176 161.1457
3.360471 68.260 160.5139
3.384822 68.343 159.8860
3.409350 68.426 159.2617
3.434056 68.509 158.6409
3.458940 68.592 158.0239
3.484005 68.675 157.4107
3.509252 68.757 156.8016
3.534681 68.840 156.1968
3.560295 68.923 155.5968
3.586094 69.006 155.0018
3.612081 69.089 154.4120
3.638255 69.172 153.8275
3.664620 69.255 153.2485
3.691175 69.339 152.6748
3.717923 69.423 152.1061
3.744864 69.507 151.5422
3.772001 69.591 150.9828
3.799335 69.675 150.4274
3.826866 69.759 149.8759
3.854597 69.844 149.3279
3.882529 69.928 148.7832
3.910664 70.013 148.2416
3.939002 70.099 147.7029
3.967546 70.185 147.1671
3.996296 70.271 146.6343
4.025255 70.358 146.1043
4.054423 70.445 145.5774
4.083804 70.533 145.0536
4.113396 70.621 144.5327
4.143204 70.709 144.0146
4.173227 70.798 143.4990
4.203468 70.887 142.9854
4.233928 70.976 142.4733
4.264609 71.066 141.9624
4.295512 71.156 141.4521
4.326639 71.247 140.9420
4.357992 71.338 140.4321
4.389572 71.429 139.9221
4.421380 71.520 139.4121
4.453419 71.612 138.9022
4.485691 71.704 138.3924
4.518196 71.796 137.8828
4.550936 71.889 137.3731
4.583914 71.981 136.8633
4.617131 72.074 136.3533
4.650589 72.167 135.8426
4.684289 72.260 135.3311
4.718233 72.352 134.8185
4.752424 72.445 134.3046
4.786862 72.538 133.7892
4.821549 72.630 133.2724
4.856488 72.722 132.7543
4.891680 72.815 132.2350
4.927127 72.907 131.7150
4.962831 72.998 131.1943
4.998794 73.090 130.6733
5.035017 73.181 130.1521
5.071503 73.271 129.6307
5.108253 73.362 129.1090
5.145270 73.451 128.5869
5.182555 73.540 128.0643
5.220110 73.629 127.5412
5.257937 73.717 127.0179
5.296038 73.804 126.4948
5.334415 73.891 125.9725
5.373071 73.978 125.4515
5.412006 74.063 124.9323
5.451224 74.149 124.4152
5.490725 74.233 123.9002
5.530514 74.317 123.3873
5.570590 74.400 122.8763
5.610957 74.482 122.3674
5.651616 74.564 121.8608
5.692570 74.645 121.3570
5.733821 74.726 120.8565
5.775370 74.806 120.3599
5.817221 74.885 119.8675
5.859375 74.964 119.3795
5.901834 75.043 118.8959
5.944602 75.120 118.4165
5.987679 75.198 117.9414
6.031068 75.275 117.4707
6.074771 75.351 117.0045
6.118792 75.428 116.5429
6.163131 75.504 116.0864
6.207792 75.580 115.6349
6.252776 75.655 115.1885
6.298086 75.731 114.7473
6.343725 75.806 114.3108
6.389694 75.881 113.8791
6.435996 75.957 113.4518
6.482634 76.032 113.0287
6.529610 76.107 112.6099
6.576926 76.182 112.1950
6.624585 76.258 111.7841
6.672590 76.333 111.3770
6.720942 76.409 110.9734
6.769645 76.485 110.5730
6.818700 76.561 110.1753
6.868111 76.637 109.7801
6.917881 76.714 109.3869
6.968010 76.790 108.9955
7.018504 76.867 108.6058
7.069362 76.944 108.2175
7.120590 77.021 107.8303
7.172189 77.099 107.4440
7.224161 77.176 107.0581
7.276511 77.254 106.6723
7.329239 77.331 106.2863
7.382350 77.409 105.9001
7.435845 77.486 105.5134
7.489729 77.564 105.1260
7.544002 77.642 104.7379
7.598669 77.719 104.3488
7.653732 77.797 103.9586
7.709194 77.874 103.5670
7.765058 77.951 103.1740
7.821327 78.028 102.7796
7.878004 78.104 102.3836
7.935091 78.180 101.9861
7.992592 78.256 101.5870
8.050510 78.332 101.1863
8.108847 78.407 100.7838
8.167607 78.482 100.3796
8.226793 78.556 99.9738
8.286408 78.630 99.5662
8.346454 78.703 99.1570
8.406936 78.776 98.7462
8.467856 78.848 98.3337
8.529218 78.919 97.9197
8.591024 78.990 97.5042
8.653278 79.060 97.0874
8.715983 79.129 96.6693
8.779143 79.198 96.2501
8.842760 79.266 95.8299
8.906839 79.333 95.4089
8.971381 79.399 94.9872
9.036392 79.464 94.5652
9.101873 79.528 94.1432
9.167829 79.592 93.7215
9.234263 79.654 93.3003
9.301178 79.716 92.8799
9.368578 79.776 92.4608
9.436467 79.836 92.0432
9.504847 79.895 91.6278
9.573723 79.952 91.2149
9.643099 80.009 90.8046
9.712976 80.066 90.3974
9.783361 80.121 89.9937
9.854255 80.176 89.5936
9.925663 80.230 89.1974
9.997588 80.284 88.8054
10.070035 80.337 88.4174
10.143007 80.390 88.0334
10.216507 80.443 87.6532
10.290540 80.496 87.2767
10.365109 80.549 86.9036
10.440219 80.601 86.5334
10.515873 80.655 86.1654
10.592076 80.708 85.7990
10.668830 80.761 85.4335
10.746141 80.815 85.0682
10.824012 80.869 84.7024
10.902447 80.924 84.3351
10.981451 80.978 83.9656
11.061027 81.033 83.5931
11.141180 81.088 83.2171
11.221913 81.143 82.8371
11.303232 81.198 82.4527
11.385140 81.252 82.0636
11.467641 81.306 81.6698
11.550741 81.360 81.2715
11.634442 81.413 80.8690
11.718750 81.465 80.4629
11.803669 81.516 80.0538
11.889203 81.566 79.6424
11.975357 81.616 79.2297
12.062136 81.664 78.8167
12.149543 81.711 78.4043
12.237583 81.758 77.9933
12.326262 81.803 77.5847
12.415583 81.848 77.1790
12.505552 81.893 76.7767
12.596172 81.937 76.3780
12.687449 81.981 75.9827
12.779387 82.026 75.5905
12.871992 82.070 75.2008
12.965268 82.115 74.8125
13.059220 82.161 74.4246
13.153852 82.207 74.0355
13.249170 82.253 73.6439
13.345179 82.300 73.2483
13.441884 82.348 72.8475
13.539289 82.395 72.4402
13.637401 82.443 72.0255
13.736223 82.490 71.6030
13.835761 82.536 71.1729
13.936021 82.581 70.7354
14.037007 82.625 70.2916
14.138725 82.667 69.8430
14.241180 82.707 69.3917
14.344377 82.746 68.9400
14.448323 82.782 68.4904
14.553021 82.816 68.0457
14.658478 82.848 67.6084
14.764700 82.879 67.1811
14.871691 82.909 66.7655
14.979457 82.937 66.3631
15.088005 82.966 65.9747
15.197339 82.994 65.6000
15.307465 83.024 65.2379
15.418389 83.055 64.8867
15.530117 83.087 64.5437
15.642655 83.121 64.2057
15.756008 83.157 63.8690
15.870182 83.195 63.5300
15.985184 83.235 63.1852
16.101019 83.276 62.8316
16.217694 83.317 62.4669
16.335214 83.358 62.0900
16.453586 83.399 61.7008
16.572815 83.439 61.3003
16.692909 83.476 60.8908
16.813872 83.511 60.4755
16.935713 83.544 60.0582
17.058436 83.574 59.6433
17.182048 83.601 59.2350
17.306556 83.627 58.8375
17.431967 83.650 58.4538
17.558286 83.672 58.0861
17.685521 83.695 57.7352
17.813677 83.717 57.4006
17.942762 83.741 57.0799
18.072783 83.767 56.7697
18.203746 83.794 56.4658
18.335658 83.824 56.1631
18.468526 83.856 55.8565
18.602356 83.890 55.5417
18.737156 83.924 55.2153
18.872934 83.959 54.8753
19.009695 83.992 54.5214
19.147447 84.025 54.1552
19.286197 84.055 53.7795
19.425953 84.082 53.3990
19.566721 84.106 53.0189
19.708510 84.127 52.6445
19.851326 84.146 52.2812
19.995177 84.162 51.9334
20.140070 84.178 51.6039
20.286013 84.193 51.2941
20.433014 84.208 51.0033
20.581080 84.226 50.7291
20.730219 84.245 50.4677
20.880439 84.267 50.2142
21.031747 84.291 49.9635
21.184152 84.317 49.7107
21.337661 84.346 49.4518
21.492282 84.376 49.1840
21.648024 84.406 48.9061
21.804895 84.437 48.6184
21.962902 84.468 48.3224
22.122054 84.497 48.0202
22.282360 84.527 47.7142
22.443827 84.555 47.4066
22.606464 84.584 47.0986
22.770280 84.612 46.7906
22.935283 84.641 46.4815
23.101481 84.671 46.1696
23.268884 84.701 45.8523
23.437500 84.732 45.5271
23.607338 84.762 45.1920
23.778406 84.792 44.8461
23.950714 84.822 44.4901
24.124271 84.849 44.1258
24.299086 84.875 43.7566
24.475167 84.898 43.3869
24.652524 84.919 43.0209
24.831166 84.939 42.6623
25.011103 84.958 42.3135
25.192344 84.977 41.9749
25.374898 84.996 41.6443
25.558775 85.017 41.3178
25.743984 85.039 40.9898
25.930536 85.063 40.6545
26.118439 85.088 40.3065
26.307704 85.112 39.9425
26.498341 85.135 39.5623
26.690359 85.154 39.1691
26.883768 85.170 38.7693
27.078579 85.182 38.3724
27.274801 85.188 37.9890
27.472446 85.192 37.6293
27.671522 85.192 37.3017
27.872042 85.193 37.0106
28.074014 85.195 36.7558
28.277450 85.201 36.5320
28.482360 85.211 36.3293
28.688755 85.228 36.1353
28.896645 85.250 35.9366
29.106042 85.276 35.7219
29.316957 85.306 35.4830
29.529400 85.337 35.2165
29.743382 85.367 34.9236
29.958915 85.396 34.6091
30.176009 85.422 34.2803
30.394677 85.445 33.9447
30.614929 85.466 33.6086
30.836778 85.484 33.2765
31.060234 85.502 32.9505
31.285309 85.518 32.6306
31.512015 85.533 32.3161
31.740364 85.548 32.0060
31.970368 85.562 31.6999
32.202039 85.575 31.3984
32.435388 85.588 31.1025
32.670428 85.600 30.8136
32.907171 85.611 30.5320
33.145630 85.623 30.2569
33.385817 85.635 29.9863
33.627745 85.648 29.7173
33.871425 85.661 29.4467
34.116871 85.675 29.1720
34.364096 85.688 28.8919
34.613113 85.701 28.6062
34.863934 85.713 28.3159
35.116572 85.724 28.0229
35.371041 85.733 27.7290
35.627354 85.742 27.4357
35.885525 85.750 27.1442
36.145566 85.757 26.8550
36.407492 85.764 26.5684
36.671316 85.771 26.2841
36.937051 85.777 26.0022
37.204712 85.784 25.7225
37.474313 85.790 25.4449
37.745867 85.797 25.1692
38.019389 85.804 24.8947
38.294893 85.811 24.6208
38.572394 85.819 24.3468
38.851905 85.827 24.0715
39.133442 85.835 23.7943
39.417019 85.844 23.5146
39.702651 85.852 23.2330
39.990353 85.860 22.9502
40.280140 85.867 22.6679
40.572026 85.873 22.3881
40.866028 85.879 22.1124
41.162160 85.884 21.8417
41.460438 85.889 21.5762
41.760877 85.895 21.3151
42.063494 85.900 21.0568
42.368303 85.906 20.7999
42.675322 85.912 20.5424
42.984565 85.918 20.2826
43.296048 85.923 20.0189
43.609789 85.928 19.7501
43.925804 85.933 19.4760
44.244108 85.935 19.1974
44.564719 85.936 18.9169
44.887654 85.936 18.6375
45.212928 85.934 18.3619
45.540560 85.931 18.0917
45.870565 85.927 17.8267
46.202962 85.924 17.5658
46.537768 85.920 17.3083
46.875000 85.916 17.0549
47.214676 85.912 16.8076
47.556813 85.908 16.5685
47.901429 85.905 16.3379
48.248542 85.903 16.1134
48.598171 85.904 15.8900
48.950334 85.907 15.6623
49.305048 85.911 15.4264
49.662333 85.915 15.1821
50.022206 85.919 14.9321
50.384688 85.922 14.6810
50.749796 85.924 14.4326
51.117550 85.926 14.1884
51.487969 85.928 13.9476
51.861072 85.931 13.7076
52.236879 85.933 13.4662
52.615409 85.935 13.2218
52.996681 85.936 12.9745
53.380717 85.935 12.7256
53.767536 85.934 12.4766
54.157158 85.931 12.2286
54.549603 85.927 11.9828
54.944892 85.922 11.7393
55.343045 85.917 11.4985
55.744084 85.911 11.2601
56.148028 85.905 11.0239
56.554900 85.899 10.7885
56.964720 85.894 10.5521
57.377510 85.888 10.3132
57.793291 85.883 10.0715
58.212085 85.878 9.8285
58.633914 85.872 9.5865
59.058799 85.866 9.3480
59.486764 85.860 9.1138
59.917829 85.854 8.8842
60.352019 85.848 8.6595
60.789354 85.841 8.4413
61.229859 85.834 8.2319
61.673556 85.826 8.0333
62.120468 85.819 7.8453
62.570618 85.811 7.6661
63.024031 85.803 7.4939
63.480729 85.795 7.3271
63.940736 85.787 7.1646
64.404077 85.779 7.0031
64.870776 85.770 6.8394
65.340856 85.761 6.6724
65.814343 85.751 6.5035
66.291261 85.742 6.3341
66.771635 85.733 6.1601
67.255489 85.727 5.9703
67.742850 85.721 5.7524
68.233743 85.715 5.5013
68.728193 85.705 5.2245
69.226226 85.692 4.9376
69.727867 85.676 4.6556
70.233144 85.658 4.3859
70.742083 85.641 4.1287
71.254709 85.625 3.8799
71.771050 85.610 3.6353
72.291132 85.597 3.3915
72.814984 85.584 3.1481
73.342631 85.570 2.9072
73.874102 85.557 2.6734
74.409424 85.542 2.4508
74.948626 85.528 2.2408
75.491734 85.514 2.0418
76.038779 85.501 1.8504
76.589787 85.488 1.6637
77.144788 85.475 1.4796
77.703811 85.461 1.2968
78.266885 85.447 1.1147
78.834039 85.433 0.9332
79.405303 85.418 0.7523
79.980706 85.402 0.5721
80.560280 85.385 0.3927
81.144053 85.368 0.2139
81.732056 85.351 0.0359
82.324320 85.332 -0.1403
82.920876 85.314 -0.3145
83.521755 85.296 -0.4877
84.126988 85.278 -0.6630
84.736607 85.261 -0.8444
85.350643 85.244 -1.0333
85.969129 85.225 -1.2282
86.592097 85.205 -1.4242
87.219579 85.184 -1.6162
87.851608 85.162 -1.8007
88.488217 85.139 -1.9772
89.129439 85.117 -2.1464
89.775308 85.095 -2.3093
90.425856 85.072 -2.4651
91.081119 85.050 -2.6124
91.741131 85.029 -2.7509
92.405925 85.008 -2.8826
93.075536 84.989 -3.0117
93.750000 84.970 -3.1418
94.429351 84.951 -3.2744
95.113625 84.931 -3.4088
95.802858 84.910 -3.5435
96.497085 84.888 -3.6766
97.196342 84.865 -3.8068
97.900667 84.841 -3.9341
98.610096 84.816 -4.0600
99.324665 84.791 -4.1873
100.044413 84.766 -4.3187
100.769376 84.741 -4.4560
101.499592 84.715 -4.5990
102.235100 84.690 -4.7461
102.975938 84.664 -4.8948
103.722144 84.638 -5.0421
104.473757 84.611 -5.1833
105.230817 84.583 -5.3137
105.993363 84.555 -5.4296
106.761435 84.527 -5.5317
107.535072 84.500 -5.6237
108.314315 84.473 -5.7106
109.099206 84.445 -5.7969
109.889783 84.417 -5.8851
110.686090 84.389 -5.9756
111.488167 84.359 -6.0671
112.296056 84.330 -6.1580
113.109800 84.300 -6.2464
113.929440 84.269 -6.3314
114.755020 84.239 -6.4125
115.586582 84.209 -6.4904
116.424170 84.178 -6.5663
117.267827 84.147 -6.6421
118.117598 84.116 -6.7196
118.973527 84.084 -6.8010
119.835658 84.053 -6.8890
120.704037 84.022 -6.9850
121.578708 83.991 -7.0856
122.459718 83.961 -7.1856
123.347111 83.931 -7.2803
124.240935 83.902 -7.3654
125.141236 83.873 -7.4358
126.048061 83.844 -7.4873
126.961458 83.814 -7.5200
127.881473 83.785 -7.5395
128.808154 83.754 -7.5538
129.741551 83.722 -7.5702
130.681712 83.688 -7.5927
131.628686 83.651 -7.6216
132.582521 83.613 -7.6552
133.543269 83.573 -7.6912
134.510979 83.532 -7.7272
135.485701 83.489 -7.7590
136.467486 83.443 -7.7784
137.456386 83.396 -7.7758
138.452451 83.347 -7.7452
139.455735 83.297 -7.6844
140.466288 83.247 -7.5947
141.484165 83.199 -7.4807
142.509418 83.153 -7.3474
143.542100 83.111 -7.1989
144.582265 83.073 -7.0365
145.629968 83.041 -6.8618
146.685262 83.013 -6.6776
147.748204 82.991 -6.4894
148.818849 82.973 -6.3033
149.897251 82.959 -6.1261
150.983469 82.946 -5.9636
152.077557 82.934 -5.8198
153.179574 82.923 -5.6982
154.289576 82.912 -5.6016
155.407622 82.900 -5.5312
156.533770 82.888 -5.4849
157.668078 82.876 -5.4562
158.810606 82.864 -5.4380
159.961413 82.852 -5.4242
161.120559 82.839 -5.4098
162.288105 82.826 -5.3901
163.464112 82.811 -5.3617
164.648640 82.795 -5.3235
165.841752 82.777 -5.2779
167.043510 82.758 -5.2281
168.253976 82.737 -5.1767
169.473213 82.715 -5.1251
170.701286 82.692 -5.0746
171.938258 82.668 -5.0254
173.184194 82.643 -4.9752
174.439158 82.618 -4.9206
175.703216 82.592 -4.8585
176.976434 82.568 -4.7871
178.258878 82.545 -4.7064
179.550615 82.523 -4.6184
180.851713 82.502 -4.5262
182.162239 82.482 -4.4320
183.482262 82.461 -4.3360
184.811850 82.440 -4.2386
186.151073 82.418 -4.1407
187.500000 82.396 -4.0425
188.858702 82.373 -3.9438
190.227250 82.351 -3.8436
191.605715 82.330 -3.7410
192.994169 82.309 -3.6350
194.392685 82.289 -3.5243
195.801334 82.269 -3.4075
197.220191 82.249 -3.2855
198.649330 82.228 -3.1613
200.088825 82.207 -3.0390
201.538751 82.186 -2.9209
202.999184 82.165 -2.8075
204.470200 82.145 -2.6984
205.951875 82.127 -2.5926
207.444287 82.110 -2.4871
208.947514 82.094 -2.3777
210.461634 82.078 -2.2604
211.986726 82.061 -2.1334
213.522869 82.044 -1.9969
215.070144 82.025 -1.8529
216.628631 82.006 -1.7043
218.198411 81.987 -1.5538
219.779567 81.969 -1.4033
221.372180 81.951 -1.2545
222.976334 81.934 -1.1104
224.592112 81.918 -0.9741
226.219600 81.903 -0.8474
227.858880 81.888 -0.7284
229.510039 81.874 -0.6122
231.173164 81.860 -0.4939
232.848340 81.845 -0.3702
234.535655 81.831 -0.2395
236.235197 81.817 -0.0996
237.947054 81.804 0.0521
239.671317 81.790 0.2170
241.408074 81.778 0.3940
243.157416 81.766 0.5796
244.919435 81.755 0.7698
246.694223 81.745 0.9604
248.481871 81.736 1.1487
250.282473 81.727 1.3322
252.096123 81.718 1.5094
253.922915 81.710 1.6807
255.762945 81.702 1.8483
257.616309 81.694 2.0161
259.483103 81.685 2.1874
261.363424 81.675 2.3650
263.257372 81.665 2.5496
265.165043 81.654 2.7391
267.086538 81.643 2.9298
269.021957 81.632 3.1179
270.971401 81.622 3.3007
272.934972 81.614 3.4771
274.912771 81.609 3.6481
276.904902 81.607 3.8157
278.911469 81.606 3.9816
280.932577 81.605 4.1464
282.968330 81.605 4.3104
285.018835 81.603 4.4747
287.084199 81.601 4.6400
289.164530 81.599 4.8066
291.259935 81.596 4.9747
293.370525 81.592 5.1454
295.496408 81.589 5.3199
297.637697 81.587 5.4996
299.794503 81.584 5.6847
301.966937 81.582 5.8741
304.155114 81.581 6.0647
306.359147 81.581 6.2515
308.579152 81.582 6.4304
310.815244 81.583 6.6000
313.067539 81.584 6.7622
315.336156 81.586 6.9211
317.621211 81.588 7.0809
319.922826 81.589 7.2437
322.241118 81.591 7.4083
324.576210 81.592 7.5715
326.928223 81.594 7.7295
329.297280 81.594 7.8805
331.683504 81.595 8.0243
334.087019 81.595 8.1631
336.507952 81.595 8.3022
338.946427 81.595 8.4475
341.402572 81.594 8.6030
343.876516 81.593 8.7706
346.368387 81.591 8.9506
348.878315 81.590 9.1413
351.406431 81.589 9.3397
353.952867 81.588 9.5419
356.517756 81.588 9.7425
359.101230 81.588 9.9358
361.703426 81.589 10.1162
364.324478 81.590 10.2812
366.964523 81.592 10.4339
369.623699 81.593 10.5799
372.302145 81.595 10.7258
375.000000 81.596 10.8785
377.717405 81.598 11.0439
380.454501 81.599 11.2245
383.211431 81.599 11.4191
385.988339 81.597 11.6252
388.785369 81.594 11.8415
391.602668 81.590 12.0698
394.440383 81.587 12.3159
397.298660 81.587 12.5868
400.177650 81.591 12.8859
403.077502 81.602 13.2103
405.998368 81.621 13.5518
408.940400 81.649 13.8970
411.903750 81.685 14.2292
414.888575 81.729 14.5291
417.895028 81.777 14.7778
420.923268 81.826 14.9614
423.973452 81.874 15.0746
427.045738 81.917 15.1240
430.140287 81.952 15.1246
433.257261 81.980 15.0952
436.396822 82.000 15.0527
439.559133 82.013 15.0104
442.744360 82.022 14.9768
445.952668 82.029 14.9561
449.184225 82.035 14.9496
452.439199 82.040 14.9592
455.717760 82.046 14.9873
459.020079 82.052 15.0336
462.346327 82.058 15.0944
465.696680 82.065 15.1644
469.071310 82.073 15.2407
472.470394 82.083 15.3210
475.894109 82.092 15.4020
479.342634 82.101 15.4791
482.816148 82.108 15.5490
486.314833 82.115 15.6100
489.838871 82.121 15.6623
493.388445 82.127 15.7087
496.963741 82.133 15.7556
500.564945 82.140 15.8116
504.192245 82.147 15.8843
507.845830 82.155 15.9763
511.525890 82.162 16.0837
515.232618 82.170 16.1992
518.966206 82.178 16.3157
522.726849 82.185 16.4268
526.514743 82.192 16.5279
530.330086 82.197 16.6180
534.173076 82.202 16.7017
538.043915 82.205 16.7866
541.942803 82.208 16.8796
545.869944 82.211 16.9838
549.825542 82.214 17.0971
553.809805 82.218 17.2153
557.822939 82.223 17.3332
561.865154 82.231 17.4468
565.936660 82.239 17.5552
570.037671 82.248 17.6578
574.168399 82.257 17.7546
578.329060 82.265 17.8469
582.519870 82.271 17.9379
586.741049 82.275 18.0299
590.992817 82.278 18.1248
595.275394 82.280 18.2241
599.589005 82.282 18.3300
603.933874 82.285 18.4438
608.310228 82.287 18.5647
612.718295 82.290 18.6883
617.158304 82.291 18.8102
621.630488 82.292 18.9277
626.135079 82.291 19.0410
630.672311 82.289 19.1511
635.242423 82.287 19.2602
639.845651 82.285 19.3695
644.482237 82.284 19.4780
649.152421 82.282 19.5836
653.856447 82.281 19.6851
658.594560 82.281 19.7859
663.367008 82.282 19.8934
668.174039 82.284 20.0139
673.015903 82.288 20.1475
677.892854 82.291 20.2889
682.805145 82.295 20.4326
687.753032 82.297 20.5742
692.736774 82.299 20.7108
697.756631 82.300 20.8406
702.812863 82.302 20.9631
707.905735 82.305 21.0809
713.035511 82.311 21.1995
718.202461 82.319 21.3273
723.406852 82.328 21.4717
728.648956 82.338 21.6343
733.929047 82.347 21.8092
739.247399 82.355 21.9857
744.604290 82.362 22.1547
750.000000 82.366 22.3126
755.434809 82.369 22.4604
760.909001 82.371 22.5996
766.422861 82.371 22.7311
771.976677 82.369 22.8564
777.570739 82.368 22.9792
783.205337 82.368 23.1052
788.880766 82.370 23.2387
794.597321 82.374 23.3815
800.355301 82.379 23.5353
806.155005 82.386 23.7018
811.996736 82.394 23.8813
817.880799 82.402 24.0729
823.807501 82.411 24.2755
829.777150 82.421 24.4857
835.790057 82.430 24.6977
841.846536 82.438 24.9052
847.946903 82.446 25.1041
854.091476 82.452 25.2942
860.280575 82.458 25.4789
866.514523 82.464 25.6646
872.793644 82.471 25.8575
879.118267 82.480 26.0608
885.488720 82.491 26.2721
891.905336 82.504 26.4866
898.368450 82.519 26.7015
904.878398 82.536 26.9173
911.435520 82.552 27.1338
918.040157 82.567 27.3481
924.692655 82.582 27.5542
931.393359 82.597 27.7454
938.142619 82.612 27.9187
944.940787 82.625 28.0753
951.788218 82.636 28.2215
958.685268 82.647 28.3668
965.632296 82.656 28.5207
972.629666 82.665 28.6891
979.677741 82.673 28.8740
986.776890 82.682 29.0756
993.927482 82.690 29.2957
1001.129891 82.700 29.5396
1008.384491 82.713 29.8145
1015.691660 82.730 30.1252
1023.051781 82.753 30.4704
1030.465236 82.782 30.8423
1037.932411 82.819 31.2281
1045.453698 82.862 31.6118
1053.029486 82.909 31.9771
1060.660172 82.962 32.3108
1068.346153 83.019 32.6041
1076.087829 83.080 32.8521
1083.885605 83.145 33.0524
1091.739887 83.214 33.2039
1099.651084 83.285 33.3072
1107.619609 83.356 33.3639
1115.645878 83.427 33.3756
1123.730308 83.493 33.3428
1131.873321 83.556 33.2665
1140.075341 83.612 33.1489
1148.336797 83.661 32.9932
1156.658119 83.703 32.8037
1165.039741 83.738 32.5858
1173.482099 83.766 32.3462
1181.985634 83.789 32.0916
1190.550789 83.808 31.8283
1199.178011 83.824 31.5634
1207.867749 83.837 31.3049
1216.620457 83.847 31.0607
1225.436590 83.854 30.8376
1234.316609 83.857 30.6395
1243.260976 83.856 30.4672
1252.270157 83.853 30.3189
1261.344623 83.846 30.1923
1270.484846 83.837 30.0846
1279.691303 83.825 29.9922
1288.964474 83.808 29.9110
1298.304842 83.786 29.8382
1307.712894 83.759 29.7744
1317.189120 83.726 29.7256
1326.734016 83.688 29.7028
1336.348077 83.646 29.7187
1346.031806 83.603 29.7870
1355.785708 83.559 29.9198
1365.610290 83.517 30.1258
1375.506065 83.477 30.4070
1385.473549 83.442 30.7576
1395.513261 83.412 31.1651
1405.625726 83.389 31.6128
1415.811469 83.373 32.0819
1426.071023 83.365 32.5534
1436.404921 83.367 33.0098
1446.813703 83.379 33.4366
1457.297912 83.401 33.8238
1467.858093 83.431 34.1656
1478.494798 83.466 34.4606
1489.208581 83.504 34.7116
1500.000000 83.539 34.9246
1510.869618 83.570 35.1068
1521.818002 83.593 35.2654
1532.845723 83.607 35.4077
1543.953355 83.611 35.5432
1555.141477 83.607 35.6861
1566.410674 83.597 35.8529
1577.761531 83.585 36.0579
1589.194642 83.574 36.3115
1600.710601 83.567 36.6213
1612.310010 83.564 36.9898
1623.993473 83.568 37.4106
1635.761599 83.578 37.8662
1647.615002 83.595 38.3320
1659.554299 83.616 38.7837
1671.580114 83.639 39.2046
1683.693072 83.663 39.5865
1695.893807 83.686 39.9291
1708.182952 83.709 40.2390
1720.561150 83.733 40.5279
1733.029045 83.757 40.8089
1745.587288 83.783 41.0930
1758.236533 83.810 41.3904
1770.977440 83.838 41.7122
1783.810673 83.868 42.0712
1796.736900 83.900 42.4777
1809.756796 83.937 42.9377
1822.871040 83.980 43.4538
1836.080315 84.029 44.0247
1849.385310 84.087 44.6433
1862.786718 84.154 45.2956
1876.285239 84.231 45.9614
1889.881575 84.318 46.6170
1903.576436 84.417 47.2371
1917.370535 84.526 47.7961
1931.264593 84.646 48.2732
1945.259332 84.775 48.6584
1959.355483 84.912 48.9547
1973.553781 85.055 49.1728
1987.854965 85.204 49.3239
2002.259781 85.356 49.4142
2016.768981 85.509 49.4447
2031.383320 85.661 49.4113
2046.103561 85.809 49.3065
2060.930471 85.950 49.1219
2075.864823 86.084 48.8530
2090.907395 86.208 48.5003
2106.058972 86.322 48.0689
2121.320344 86.428 47.5660
2136.692305 86.526 47.0017
2152.175658 86.618 46.3904
2167.771210 86.704 45.7515
2183.479774 86.783 45.1049
2199.302169 86.855 44.4671
2215.239219 86.918 43.8521
2231.291755 86.975 43.2731
2247.460615 87.026 42.7422
2263.746641 87.074 42.2647
2280.150683 87.119 41.8372
2296.673595 87.163 41.4496
2313.316238 87.205 41.0880
2330.079481 87.246 40.7369
2346.964198 87.284 40.3823
2363.971268 87.319 40.0138
2381.101578 87.352 39.6254
2398.356022 87.383 39.2162
2415.735498 87.414 38.7931
2433.240913 87.445 38.3708
2450.873180 87.478 37.9645
2468.633217 87.513 37.5822
2486.521951 87.549 37.2225
2504.540314 87.585 36.8758
2522.689246 87.621 36.5259
2540.969692 87.655 36.1539
2559.382606 87.686 35.7421
2577.928947 87.712 35.2781
2596.609683 87.734 34.7565
2615.425787 87.752 34.1794
2634.378241 87.767 33.5560
2653.468031 87.778 32.8994
2672.696154 87.786 32.2219
2692.063613 87.790 31.5334
2711.571415 87.789 30.8423
2731.220579 87.784 30.1579
2751.012130 87.774 29.4925
2770.947098 87.760 28.8618
2791.026522 87.742 28.2816
2811.251451 87.722 27.7635
2831.622938 87.700 27.3102
2852.142045 87.677 26.9119
2872.809842 87.651 26.5480
2893.627406 87.621 26.1925
2914.595823 87.586 25.8246
2935.716186 87.546 25.4355
2956.989596 87.500 25.0290
2978.417161 87.449 24.6166
3000.000000 87.396 24.2166
3021.739237 87.342 23.8517
3043.636005 87.288 23.5445
3065.691446 87.237 23.3088
3087.906710 87.189 23.1456
3110.282955 87.143 23.0432
3132.821347 87.101 22.9800
3155.523062 87.060 22.9299
3178.389283 87.022 22.8700
3201.421202 86.984 22.7840
3224.620020 86.947 22.6661
3247.986946 86.913 22.5232
3271.523198 86.881 22.3719
3295.230004 86.852 22.2327
3319.108599 86.827 22.1224
3343.160228 86.805 22.0487
3367.386145 86.785 22.0067
3391.787613 86.766 21.9797
3416.365904 86.746 21.9432
3441.122300 86.725 21.8717
3466.058091 86.701 21.7472
3491.174576 86.674 21.5630
3516.473066 86.644 21.3264
3541.954880 86.612 21.0584
3567.621345 86.579 20.7889
3593.473800 86.545 20.5481
3619.513592 86.511 20.3576
3645.742080 86.478 20.2250
3672.160630 86.445 20.1417
3698.770620 86.411 20.0847
3725.573436 86.375 20.0230
3752.570477 86.336 19.9282
3779.763150 86.293 19.7842
3807.152872 86.244 19.5898
3834.741071 86.191 19.3578
3862.529185 86.133 19.1135
3890.518664 86.073 18.8897
3918.710966 86.012 18.7160
3947.107561 85.952 18.6105
3975.709929 85.893 18.5757
4004.519563 85.835 18.5986
4033.537962 85.778 18.6541
4062.766641 85.720 18.7105
4092.207123 85.660 18.7397
4121.860942 85.598 18.7219
4151.729646 85.534 18.6489
4181.814790 85.468 18.5248
4212.117944 85.401 18.3631
4242.640687 85.334 18.1808
4273.384610 85.268 17.9921
4304.351317 85.203 17.8096
4335.542421 85.137 17.6481
4366.959549 85.072 17.5249
4398.604338 85.008 17.4597
4430.478438 84.944 17.4744
4462.583511 84.882 17.5883
4494.921231 84.824 17.8119
4527.493283 84.769 18.1407
4560.301365 84.718 18.5532
4593.347189 84.671 19.0134
4626.632476 84.625 19.4797
4660.158962 84.582 19.9167
4693.928395 84.540 20.3047
4727.942535 84.501 20.6438
4762.203156 84.465 20.9537
4796.712043 84.435 21.2684
4831.470996 84.411 21.6262
4866.481826 84.397 22.0586
4901.746360 84.392 22.5793
4937.266434 84.399 23.1785
4973.043902 84.416 23.8248
5009.080628 84.444 24.4728
5045.378492 84.482 25.0717
5081.939384 84.529 25.5746
5118.765212 84.585 25.9472
5155.857894 84.650 26.1722
5193.219366 84.725 26.2491
5230.851574 84.809 26.1875
5268.756481 84.903 26.0002
5306.936062 85.004 25.6974
5345.392309 85.110 25.2865
5384.127225 85.220 24.7762
5423.142830 85.329 24.1799
5462.441159 85.437 23.5170
5502.024259 85.541 22.8090
5541.894195 85.640 22.0745
5582.053045 85.731 21.3212
5622.502902 85.810 20.5411
5663.245876 85.875 19.7112
5704.284090 85.923 18.7999
5745.619684 85.949 17.7783
5787.254813 85.951 16.6300
5829.191647 85.929 15.3600
5871.432373 85.881 13.9987
5913.979192 85.809 12.5981
5956.834323 85.713 11.2231
6000.000000 85.596 9.9396
6043.478473 85.460 8.8011
6087.272010 85.306 7.8382
6131.382892 85.136 7.0529
6175.813420 84.953 6.4218
6220.565910 84.755 5.9064
6265.642695 84.546 5.4663
6311.046124 84.324 5.0718
6356.778566 84.092 4.7151
6402.842404 83.852 4.4147
6449.240040 83.605 4.2114
6495.973891 83.356 4.1588
6543.046396 83.105 4.3113
6590.460007 82.857 4.7107
6638.217197 82.614 5.3765
6686.320456 82.376 6.3031
6734.772290 82.146 7.4647
6783.575226 81.928 8.8215
6832.731809 81.727 10.3264
6882.244600 81.548 11.9301
6932.116181 81.396 13.5887
6982.349153 81.275 15.2728
7032.946133 81.186 16.9867
7083.909760 81.127 18.7836
7135.242690 81.099 20.7495
7186.947600 81.110 22.9568
7239.027185 81.169 25.4228
7291.484160 81.290 28.0916
7344.321260 81.483 30.8356
7397.541239 81.758 33.4689
7451.146872 82.116 35.7726
7505.140954 82.549 37.5414
7559.526299 83.042 38.6402
7614.305743 83.578 39.0240
7669.482141 84.142 38.7024
7725.058371 84.718 37.6913
7781.037328 85.291 35.9984
7837.421932 85.839 33.6345
7894.215122 86.342 30.6339
7951.419859 86.777 27.0695
8009.039125 87.123 23.0580
8067.075924 87.364 18.7566
8125.533282 87.491 14.3480
8184.414245 87.501 10.0162
8243.721885 87.398 5.9202
8303.459292 87.190 2.1764
8363.629581 86.894 -1.1458
8424.235888 86.526 -4.0196
8485.281374 86.107 -6.4500
8546.769221 85.658 -8.4551
8608.702634 85.197 -10.0482
8671.084842 84.743 -11.2301
8733.919097 84.313 -11.9938
8797.208675 83.918 -12.3367
8860.956876 83.570 -12.2766
8925.167022 83.273 -11.8650
8989.842461 83.032 -11.1945
9054.986566 82.845 -10.3916
9120.602731 82.710 -9.6005
9186.694378 82.621 -8.9600
9253.264952 82.572 -8.5854
9320.317925 82.559 -8.5555
9387.856790 82.575 -8.9097
9455.885071 82.616 -9.6552
9524.406312 82.675 -10.7807
9593.424086 82.745 -12.2672
9662.941992 82.818 -14.0933
9732.963653 82.887 -16.2343
9803.492719 82.942 -18.6580
9874.532869 82.976 -21.3204
9946.087805 82.977 -24.1620
10018.161257 82.937 -27.1098
10090.756983 82.847 -30.0895
10163.878768 82.701 -33.0422
10237.530423 82.494 -35.9349
10311.715789 82.222 -38.7572
10386.438732 81.882 -41.5123
10461.703149 81.478 -44.2064
10537.512962 81.010 -46.8369
10613.872125 80.486 -49.3789
10690.784618 79.911 -51.7760
10768.254450 79.294 -53.9455
10846.285661 78.644 -55.7908
10924.882318 77.969 -57.2175
11004.048518 77.279 -58.1542
11083.788390 76.580 -58.5739
11164.106090 75.879 -58.5059
11245.005805 75.180 -58.0283
11326.491752 74.487 -57.2487
11408.568180 73.803 -56.2821
11491.239368 73.129 -55.2267
11574.509626 72.467 -54.1417
11658.383294 71.820 -53.0421
11742.864745 71.188 -51.9109
11827.958384 70.573 -50.7164
11913.668646 69.976 -49.4243
12000.000000 69.397 -48.0023
12086.956947 68.837 -46.4181
12174.544019 68.296 -44.6355
12262.765784 67.773 -42.6077
12351.626840 67.270 -40.2750
12441.131819 66.787 -37.5751
12531.285389 66.324 -34.4641
12622.092249 65.881 -30.9374
12713.557132 65.457 -27.0345
12805.684808 65.052 -22.8276
12898.480079 64.667 -18.3996
12991.947783 64.306 -13.8164
13086.092792 63.974 -9.0947
13180.920015 63.682 -4.1780
13276.434395 63.448 1.0616
13372.640911 63.295 6.7961
13469.544580 63.254 13.1943
13567.150452 63.360 20.3497
13665.463617 63.649 28.1878
13764.489200 64.145 36.3972
13864.232362 64.853 44.4502
13964.698305 65.758 51.7301
14065.892266 66.822 57.7015
14167.819519 67.999 62.0269
14270.485380 69.235 64.5886
14373.895200 70.484 65.4409
14478.054370 71.700 64.7454
14582.968320 72.846 62.7208
14688.642520 73.887 59.6110
14795.082478 74.797 55.6619
14902.293745 75.558 51.1007
15010.281908 76.160 46.1249
15119.052599 76.603 40.9016
15228.611486 76.900 35.5652
15338.964283 77.076 30.2071
15450.116741 77.159 24.8713
15562.074656 77.185 19.5677
15674.843864 77.183 14.2906
15788.430244 77.176 9.0308
15902.839718 77.173 3.7786
16018.078250 77.170 -1.4757
16134.151848 77.153 -6.7443
16251.066563 77.098 -12.0477
16368.828491 76.975 -17.4144
16487.443769 76.759 -22.8643
16606.918584 76.427 -28.3904
16727.259161 75.966 -33.9519
16848.471777 75.374 -39.4748
16970.562748 74.657 -44.8483
17093.538442 73.830 -49.9234
17217.405268 72.910 -54.5273
17342.169684 71.922 -58.4880
17467.838194 70.887 -61.6581
17594.417350 69.831 -63.9406
17721.913751 68.772 -65.3192
17850.334044 67.730 -65.8742
17979.684923 66.717 -65.7734
18109.973131 65.745 -65.2454
18241.205462 64.820 -64.5455
18373.388756 63.947 -63.9156
18506.529905 63.126 -63.5415
18640.635849 62.352 -63.5327
18775.713581 61.617 -63.9324
18911.770141 60.909 -64.7390
19048.812624 60.214 -65.9205
19186.848172 59.516 -67.4203
19325.883983 58.805 -69.1562
19465.927305 58.081 -71.0162
19606.985439 57.361 -72.8549
19749.065738 56.690 -74.4924
19892.175609 56.151 -75.7306
20036.322514 55.845 -76.3969
