* Measurement data measured by REW V5.31.3
* Source: Headset (CX31993 HIFI AUDIO), MICROPHONE (Master Volume), R, volume: 0.250
* Format: 256k Log Swept Sine, 1 sweep at -12.0 dBFS with no timing reference
* Dated: 12 31, 24 12:54:55 PM
* REW Settings:
*  C-weighting compensation: Off
*  Target level: 75.0 dB
* Note: ; 
* Measurement: Sony LB Fit Excited L
* Smoothing: 1/12 octave
* Frequency Step: 96 ppo
* Start Frequency: 0.36621094 Hz
*
* Freq(Hz) SPL(dB) Phase(degrees)
0.366211 48.404 7.9048
0.368865 48.400 7.9062
0.371538 48.396 7.9084
0.374230 48.390 7.9110
0.376942 48.383 7.9141
0.379673 48.376 7.9174
0.382424 48.369 7.9209
0.385196 48.361 7.9246
0.387987 48.353 7.9283
0.390798 48.345 7.9322
0.393630 48.337 7.9362
0.396483 48.330 7.9403
0.399356 48.321 7.9444
0.402250 48.313 7.9487
0.405165 48.305 7.9531
0.408101 48.297 7.9576
0.411058 48.289 7.9622
0.414037 48.280 7.9669
0.417037 48.272 7.9717
0.420059 48.263 7.9766
0.423103 48.255 7.9817
0.426169 48.246 7.9868
0.429257 48.238 7.9921
0.432368 48.229 7.9975
0.435501 48.220 8.0031
0.438656 48.211 8.0087
0.441835 48.202 8.0145
0.445037 48.193 8.0205
0.448262 48.184 8.0266
0.451510 48.175 8.0328
0.454782 48.166 8.0392
0.458077 48.157 8.0457
0.461397 48.148 8.0524
0.464740 48.138 8.0592
0.468108 48.129 8.0662
0.471500 48.119 8.0734
0.474917 48.110 8.0807
0.478358 48.100 8.0883
0.481825 48.090 8.0959
0.485316 48.081 8.1038
0.488833 48.071 8.1119
0.492375 48.061 8.1202
0.495943 48.051 8.1286
0.499537 48.041 8.1373
0.503157 48.031 8.1462
0.506803 48.020 8.1553
0.510475 48.010 8.1646
0.514175 48.000 8.1741
0.517900 47.989 8.1839
0.521653 47.979 8.1939
0.525434 47.968 8.2042
0.529241 47.958 8.2147
0.533076 47.947 8.2254
0.536939 47.936 8.2365
0.540830 47.925 8.2478
0.544749 47.914 8.2593
0.548696 47.903 8.2712
0.552673 47.892 8.2834
0.556677 47.881 8.2958
0.560711 47.869 8.3086
0.564774 47.858 8.3217
0.568867 47.846 8.3351
0.572989 47.835 8.3489
0.577141 47.823 8.3630
0.581324 47.812 8.3775
0.585536 47.800 8.3923
0.589779 47.788 8.4076
0.594053 47.776 8.4232
0.598358 47.764 8.4392
0.602694 47.752 8.4556
0.607061 47.739 8.4725
0.611460 47.727 8.4898
0.615891 47.715 8.5076
0.620354 47.702 8.5258
0.624849 47.690 8.5445
0.629377 47.677 8.5638
0.633938 47.664 8.5835
0.638532 47.651 8.6038
0.643159 47.638 8.6246
0.647819 47.625 8.6460
0.652514 47.612 8.6680
0.657242 47.599 8.6906
0.662005 47.585 8.7138
0.666802 47.572 8.7376
0.671634 47.558 8.7622
0.676501 47.545 8.7874
0.681403 47.531 8.8133
0.686341 47.517 8.8400
0.691314 47.503 8.8673
0.696324 47.489 8.8952
0.701370 47.474 8.9236
0.706452 47.459 8.9521
0.711571 47.443 8.9805
0.716728 47.426 9.0077
0.721921 47.406 9.0328
0.727153 47.384 9.0543
0.732422 47.357 9.0707
0.737729 47.326 9.0810
0.743075 47.291 9.0852
0.748460 47.252 9.0842
0.753883 47.211 9.0788
0.759346 47.167 9.0700
0.764849 47.121 9.0581
0.770391 47.074 9.0437
0.775974 47.025 9.0270
0.781597 46.975 9.0081
0.787261 46.924 8.9870
0.792966 46.872 8.9639
0.798712 46.818 8.9387
0.804500 46.763 8.9114
0.810329 46.707 8.8821
0.816201 46.650 8.8508
0.822116 46.591 8.8175
0.828073 46.531 8.7822
0.834074 46.469 8.7449
0.840118 46.406 8.7056
0.846206 46.342 8.6644
0.852338 46.276 8.6212
0.858514 46.208 8.5761
0.864735 46.140 8.5292
0.871001 46.069 8.4803
0.877313 45.997 8.4296
0.883670 45.923 8.3772
0.890074 45.848 8.3229
0.896524 45.771 8.2669
0.903020 45.693 8.2093
0.909564 45.612 8.1499
0.916155 45.530 8.0890
0.922794 45.446 8.0265
0.929481 45.361 7.9626
0.936216 45.273 7.8972
0.943000 45.184 7.8305
0.949834 45.092 7.7625
0.956717 44.999 7.6932
0.963649 44.903 7.6229
0.970632 44.806 7.5516
0.977666 44.706 7.4793
0.984750 44.605 7.4063
0.991886 44.501 7.3326
0.999074 44.395 7.2584
1.006314 44.286 7.1837
1.013606 44.176 7.1089
1.020951 44.063 7.0340
1.028349 43.948 6.9593
1.035801 43.830 6.8848
1.043307 43.710 6.8110
1.050867 43.587 6.7378
1.058482 43.461 6.6656
1.066152 43.333 6.5942
1.073878 43.200 6.5235
1.081660 43.064 6.4532
1.089498 42.923 6.3822
1.097393 42.776 6.3092
1.105345 42.620 6.2322
1.113355 42.456 6.1489
1.121423 42.280 6.0573
1.129549 42.093 5.9556
1.137734 41.894 5.8421
1.145979 41.683 5.7156
1.154283 41.460 5.5750
1.162647 41.226 5.4189
1.171072 40.982 5.2463
1.179558 40.727 5.0555
1.188106 40.464 4.8450
1.196715 40.192 4.6128
1.205387 39.912 4.3565
1.214122 39.627 4.0731
1.222920 39.335 3.7590
1.231782 39.039 3.4096
1.240708 38.740 3.0189
1.249699 38.438 2.5791
1.258754 38.136 2.0799
1.267876 37.834 1.5072
1.277063 37.533 0.8412
1.286318 37.236 0.0534
1.295639 36.943 -0.8990
1.305027 36.657 -2.0833
1.314484 36.378 -3.6114
1.324009 36.109 -5.6836
1.333604 35.851 -8.6957
1.343268 35.607 -13.5430
1.353002 35.378 -22.6749
1.362806 35.166 -44.5019
1.372681 34.975 -96.5113
1.382628 34.806 -137.3496
1.392647 34.661 -152.8751
1.402739 34.544 -160.0347
1.412904 34.458 -164.1271
1.423142 34.404 -166.8148
1.433455 34.387 -168.7513
1.443843 34.409 -170.2398
1.454305 34.473 -171.4369
1.464844 34.581 -172.4303
1.475459 34.735 -173.2724
1.486150 34.936 -173.9969
1.496920 35.185 -174.6279
1.507767 35.479 -175.1836
1.518693 35.818 -175.6789
1.529698 36.200 -176.1255
1.540783 36.621 -176.5331
1.551948 37.081 -176.9094
1.563194 37.575 -177.2608
1.574521 38.101 -177.5923
1.585931 38.655 -177.9082
1.597423 39.235 -178.2118
1.608999 39.838 -178.5062
1.620658 40.459 -178.7937
1.632402 41.095 -179.0762
1.644232 41.744 -179.3557
1.656146 42.401 -179.6334
1.668147 43.063 -179.9107
1.680235 43.725 179.8112
1.692411 44.385 179.5315
1.704675 45.038 179.2491
1.717028 45.681 178.9636
1.729470 46.310 178.6740
1.742003 46.921 178.3799
1.754626 47.510 178.0807
1.767341 48.075 177.7762
1.780147 48.612 177.4662
1.793047 49.119 177.1508
1.806040 49.596 176.8302
1.819128 50.043 176.5053
1.832310 50.461 176.1772
1.845587 50.853 175.8474
1.858961 51.221 175.5171
1.872432 51.570 175.1873
1.886001 51.900 174.8587
1.899667 52.213 174.5316
1.913433 52.511 174.2061
1.927299 52.794 173.8820
1.941265 53.064 173.5592
1.955332 53.322 173.2374
1.969501 53.568 172.9163
1.983773 53.803 172.5957
1.998148 54.029 172.2751
2.012627 54.247 171.9543
2.027212 54.457 171.6331
2.041902 54.661 171.3109
2.056698 54.860 170.9875
2.071602 55.056 170.6627
2.086614 55.250 170.3359
2.101734 55.443 170.0070
2.116964 55.636 169.6757
2.132304 55.831 169.3415
2.147756 56.028 169.0043
2.163320 56.228 168.6638
2.178996 56.431 168.3200
2.194786 56.636 167.9728
2.210690 56.841 167.6223
2.226710 57.046 167.2689
2.242845 57.250 166.9128
2.259098 57.450 166.5544
2.275468 57.648 166.1940
2.291957 57.842 165.8321
2.308566 58.032 165.4689
2.325295 58.219 165.1046
2.342145 58.403 164.7396
2.359117 58.584 164.3738
2.376212 58.762 164.0078
2.393431 58.937 163.6413
2.410775 59.110 163.2747
2.428244 59.282 162.9078
2.445840 59.451 162.5409
2.463564 59.620 162.1739
2.481416 59.787 161.8067
2.499397 59.953 161.4391
2.517509 60.118 161.0711
2.535752 60.283 160.7022
2.554127 60.446 160.3321
2.572635 60.609 159.9603
2.591277 60.770 159.5864
2.610055 60.929 159.2102
2.628968 61.085 158.8317
2.648019 61.240 158.4511
2.667208 61.392 158.0687
2.686535 61.542 157.6850
2.706003 61.691 157.3003
2.725612 61.837 156.9151
2.745363 61.981 156.5299
2.765257 62.123 156.1451
2.785295 62.264 155.7611
2.805478 62.404 155.3783
2.825808 62.542 154.9968
2.846285 62.679 154.6170
2.866910 62.815 154.2388
2.887685 62.950 153.8622
2.908611 63.084 153.4869
2.929688 63.217 153.1124
2.950917 63.349 152.7381
2.972301 63.479 152.3634
2.993839 63.607 151.9880
3.015534 63.734 151.6119
3.037386 63.859 151.2351
3.059396 63.982 150.8581
3.081565 64.104 150.4811
3.103896 64.224 150.1049
3.126388 64.343 149.7296
3.149043 64.461 149.3560
3.171862 64.577 148.9843
3.194847 64.692 148.6151
3.217998 64.807 148.2484
3.241317 64.920 147.8846
3.264805 65.032 147.5235
3.288463 65.144 147.1649
3.312293 65.254 146.8081
3.336295 65.364 146.4528
3.360471 65.472 146.0985
3.384822 65.578 145.7451
3.409350 65.683 145.3925
3.434056 65.787 145.0410
3.458940 65.890 144.6908
3.484005 65.991 144.3424
3.509252 66.092 143.9962
3.534681 66.191 143.6525
3.560295 66.290 143.3116
3.586094 66.387 142.9739
3.612081 66.484 142.6396
3.638255 66.581 142.3084
3.664620 66.676 141.9803
3.691175 66.771 141.6549
3.717923 66.864 141.3318
3.744864 66.957 141.0109
3.772001 67.048 140.6920
3.799335 67.139 140.3751
3.826866 67.228 140.0604
3.854597 67.317 139.7480
3.882529 67.404 139.4384
3.910664 67.492 139.1317
3.939002 67.578 138.8280
3.967546 67.664 138.5275
3.996296 67.749 138.2303
4.025255 67.833 137.9362
4.054423 67.917 137.6451
4.083804 68.000 137.3566
4.113396 68.082 137.0708
4.143204 68.164 136.7875
4.173227 68.244 136.5067
4.203468 68.324 136.2286
4.233928 68.403 135.9534
4.264609 68.482 135.6813
4.295512 68.560 135.4123
4.326639 68.638 135.1466
4.357992 68.715 134.8843
4.389572 68.791 134.6252
4.421380 68.867 134.3693
4.453419 68.942 134.1164
4.485691 69.017 133.8665
4.518196 69.091 133.6195
4.550936 69.164 133.3757
4.583914 69.237 133.1351
4.617131 69.309 132.8981
4.650589 69.381 132.6648
4.684289 69.452 132.4354
4.718233 69.523 132.2100
4.752424 69.594 131.9886
4.786862 69.664 131.7713
4.821549 69.734 131.5579
4.856488 69.803 131.3483
4.891680 69.872 131.1427
4.927127 69.941 130.9411
4.962831 70.009 130.7437
4.998794 70.077 130.5508
5.035017 70.144 130.3627
5.071503 70.212 130.1793
5.108253 70.279 130.0010
5.145270 70.347 129.8278
5.182555 70.414 129.6595
5.220110 70.481 129.4962
5.257937 70.549 129.3377
5.296038 70.616 129.1840
5.334415 70.683 129.0351
5.373071 70.751 128.8908
5.412006 70.819 128.7513
5.451224 70.887 128.6165
5.490725 70.956 128.4865
5.530514 71.025 128.3614
5.570590 71.095 128.2410
5.610957 71.165 128.1251
5.651616 71.236 128.0131
5.692570 71.308 127.9047
5.733821 71.380 127.7992
5.775370 71.453 127.6963
5.817221 71.527 127.5955
5.859375 71.603 127.4968
5.901834 71.679 127.3999
5.944602 71.756 127.3047
5.987679 71.835 127.2106
6.031068 71.914 127.1169
6.074771 71.995 127.0227
6.118792 72.077 126.9270
6.163131 72.160 126.8291
6.207792 72.245 126.7282
6.252776 72.330 126.6243
6.298086 72.417 126.5169
6.343725 72.505 126.4058
6.389694 72.594 126.2902
6.435996 72.685 126.1694
6.482634 72.776 126.0424
6.529610 72.869 125.9083
6.576926 72.962 125.7667
6.624585 73.056 125.6172
6.672590 73.151 125.4597
6.720942 73.247 125.2940
6.769645 73.344 125.1198
6.818700 73.441 124.9368
6.868111 73.539 124.7446
6.917881 73.637 124.5428
6.968010 73.736 124.3312
7.018504 73.834 124.1098
7.069362 73.933 123.8788
7.120590 74.032 123.6384
7.172189 74.131 123.3887
7.224161 74.230 123.1299
7.276511 74.329 122.8621
7.329239 74.428 122.5855
7.382350 74.526 122.3003
7.435845 74.624 122.0067
7.489729 74.722 121.7051
7.544002 74.819 121.3959
7.598669 74.916 121.0795
7.653732 75.013 120.7564
7.709194 75.109 120.4267
7.765058 75.205 120.0907
7.821327 75.300 119.7486
7.878004 75.395 119.4006
7.935091 75.490 119.0470
7.992592 75.584 118.6880
8.050510 75.678 118.3238
8.108847 75.771 117.9545
8.167607 75.865 117.5801
8.226793 75.958 117.2006
8.286408 76.050 116.8157
8.346454 76.143 116.4255
8.406936 76.235 116.0297
8.467856 76.327 115.6284
8.529218 76.419 115.2212
8.591024 76.510 114.8080
8.653278 76.601 114.3886
8.715983 76.692 113.9626
8.779143 76.783 113.5299
8.842760 76.873 113.0901
8.906839 76.962 112.6434
8.971381 77.051 112.1896
9.036392 77.139 111.7288
9.101873 77.226 111.2609
9.167829 77.312 110.7861
9.234263 77.397 110.3046
9.301178 77.481 109.8167
9.368578 77.563 109.3230
9.436467 77.644 108.8242
9.504847 77.724 108.3210
9.573723 77.801 107.8141
9.643099 77.877 107.3043
9.712976 77.952 106.7926
9.783361 78.024 106.2804
9.854255 78.094 105.7689
9.925663 78.163 105.2594
9.997588 78.229 104.7530
10.070035 78.294 104.2509
10.143007 78.357 103.7546
10.216507 78.418 103.2655
10.290540 78.478 102.7848
10.365109 78.536 102.3136
10.440219 78.592 101.8528
10.515873 78.648 101.4033
10.592076 78.703 100.9658
10.668830 78.757 100.5408
10.746141 78.811 100.1288
10.824012 78.864 99.7293
10.902447 78.918 99.3423
10.981451 78.973 98.9672
11.061027 79.027 98.6033
11.141180 79.083 98.2495
11.221913 79.140 97.9045
11.303232 79.198 97.5668
11.385140 79.258 97.2346
11.467641 79.319 96.9064
11.550741 79.381 96.5803
11.634442 79.444 96.2543
11.718750 79.509 95.9267
11.803669 79.576 95.5956
11.889203 79.643 95.2597
11.975357 79.710 94.9177
12.062136 79.779 94.5682
12.149543 79.848 94.2106
12.237583 79.916 93.8442
12.326262 79.985 93.4691
12.415583 80.052 93.0853
12.505552 80.119 92.6930
12.596172 80.185 92.2931
12.687449 80.250 91.8865
12.779387 80.313 91.4743
12.871992 80.375 91.0578
12.965268 80.435 90.6382
13.059220 80.493 90.2171
13.153852 80.549 89.7958
13.249170 80.604 89.3757
13.345179 80.658 88.9579
13.441884 80.710 88.5435
13.539289 80.760 88.1331
13.637401 80.810 87.7277
13.736223 80.858 87.3274
13.835761 80.906 86.9324
13.936021 80.953 86.5427
14.037007 81.000 86.1580
14.138725 81.046 85.7780
14.241180 81.092 85.4020
14.344377 81.138 85.0296
14.448323 81.183 84.6602
14.553021 81.229 84.2931
14.658478 81.275 83.9279
14.764700 81.320 83.5640
14.871691 81.366 83.2011
14.979457 81.411 82.8389
15.088005 81.457 82.4771
15.197339 81.502 82.1156
15.307465 81.548 81.7540
15.418389 81.594 81.3920
15.530117 81.639 81.0292
15.642655 81.686 80.6651
15.756008 81.732 80.2989
15.870182 81.779 79.9297
15.985184 81.826 79.5565
16.101019 81.874 79.1782
16.217694 81.921 78.7936
16.335214 81.969 78.4016
16.453586 82.017 78.0013
16.572815 82.065 77.5921
16.692909 82.112 77.1738
16.813872 82.158 76.7466
16.935713 82.202 76.3114
17.058436 82.245 75.8696
17.182048 82.287 75.4232
17.306556 82.326 74.9746
17.431967 82.363 74.5268
17.558286 82.398 74.0829
17.685521 82.431 73.6460
17.813677 82.462 73.2190
17.942762 82.493 72.8044
18.072783 82.522 72.4042
18.203746 82.551 72.0194
18.335658 82.581 71.6501
18.468526 82.612 71.2954
18.602356 82.644 70.9534
18.737156 82.679 70.6213
18.872934 82.716 70.2958
19.009695 82.755 69.9732
19.147447 82.796 69.6497
19.286197 82.840 69.3219
19.425953 82.885 68.9868
19.566721 82.932 68.6426
19.708510 82.979 68.2881
19.851326 83.027 67.9232
19.995177 83.074 67.5490
20.140070 83.121 67.1669
20.286013 83.167 66.7791
20.433014 83.211 66.3881
20.581080 83.255 65.9961
20.730219 83.297 65.6051
20.880439 83.339 65.2166
21.031747 83.381 64.8313
21.184152 83.422 64.4494
21.337661 83.463 64.0705
21.492282 83.504 63.6934
21.648024 83.546 63.3170
21.804895 83.588 62.9399
21.962902 83.629 62.5608
22.122054 83.671 62.1786
22.282360 83.712 61.7927
22.443827 83.753 61.4029
22.606464 83.793 61.0090
22.770280 83.832 60.6116
22.935283 83.870 60.2113
23.101481 83.907 59.8087
23.268884 83.942 59.4048
23.437500 83.977 59.0004
23.607338 84.010 58.5965
23.778406 84.041 58.1942
23.950714 84.072 57.7943
24.124271 84.101 57.3977
24.299086 84.129 57.0052
24.475167 84.157 56.6173
24.652524 84.184 56.2342
24.831166 84.210 55.8557
25.011103 84.236 55.4812
25.192344 84.262 55.1100
25.374898 84.288 54.7412
25.558775 84.314 54.3739
25.743984 84.340 54.0076
25.930536 84.366 53.6420
26.118439 84.391 53.2774
26.307704 84.417 52.9144
26.498341 84.443 52.5535
26.690359 84.469 52.1949
26.883768 84.495 51.8381
27.078579 84.523 51.4816
27.274801 84.552 51.1227
27.472446 84.582 50.7581
27.671522 84.613 50.3842
27.872042 84.645 49.9976
28.074014 84.677 49.5961
28.277450 84.708 49.1795
28.482360 84.738 48.7496
28.688755 84.765 48.3105
28.896645 84.789 47.8676
29.106042 84.811 47.4272
29.316957 84.831 46.9947
29.529400 84.849 46.5743
29.743382 84.866 46.1678
29.958915 84.884 45.7743
30.176009 84.903 45.3904
30.394677 84.924 45.0116
30.614929 84.946 44.6325
30.836778 84.969 44.2492
31.060234 84.992 43.8591
31.285309 85.016 43.4621
31.512015 85.038 43.0597
31.740364 85.060 42.6551
31.970368 85.080 42.2513
32.202039 85.100 41.8512
32.435388 85.120 41.4557
32.670428 85.139 41.0644
32.907171 85.160 40.6752
33.145630 85.181 40.2856
33.385817 85.202 39.8927
33.627745 85.224 39.4946
33.871425 85.245 39.0908
34.116871 85.266 38.6819
34.364096 85.285 38.2696
34.613113 85.304 37.8564
34.863934 85.321 37.4448
35.116572 85.338 37.0367
35.371041 85.353 36.6335
35.627354 85.369 36.2358
35.885525 85.384 35.8434
36.145566 85.400 35.4558
36.407492 85.416 35.0723
36.671316 85.432 34.6920
36.937051 85.449 34.3140
37.204712 85.466 33.9371
37.474313 85.483 33.5603
37.745867 85.501 33.1820
38.019389 85.519 32.8008
38.294893 85.537 32.4157
38.572394 85.555 32.0263
38.851905 85.572 31.6332
39.133442 85.587 31.2382
39.417019 85.602 30.8435
39.702651 85.616 30.4518
39.990353 85.628 30.0644
40.280140 85.641 29.6817
40.572026 85.653 29.3022
40.866028 85.666 28.9234
41.162160 85.678 28.5427
41.460438 85.690 28.1583
41.760877 85.702 27.7701
42.063494 85.713 27.3793
42.368303 85.723 26.9875
42.675322 85.733 26.5959
42.984565 85.743 26.2039
43.296048 85.752 25.8091
43.609789 85.762 25.4084
43.925804 85.771 24.9999
44.244108 85.779 24.5840
44.564719 85.785 24.1642
44.887654 85.790 23.7466
45.212928 85.792 23.3372
45.540560 85.795 22.9400
45.870565 85.797 22.5553
46.202962 85.801 22.1796
46.537768 85.807 21.8070
46.875000 85.814 21.4315
47.214676 85.823 21.0491
47.556813 85.831 20.6589
47.901429 85.839 20.2625
48.248542 85.846 19.8626
48.598171 85.852 19.4624
48.950334 85.857 19.0641
49.305048 85.860 18.6694
49.662333 85.863 18.2788
50.022206 85.866 17.8921
50.384688 85.868 17.5079
50.749796 85.870 17.1244
51.117550 85.872 16.7393
51.487969 85.873 16.3510
51.861072 85.873 15.9595
52.236879 85.872 15.5657
52.615409 85.871 15.1710
52.996681 85.868 14.7758
53.380717 85.865 14.3795
53.767536 85.862 13.9807
54.157158 85.858 13.5784
54.549603 85.853 13.1731
54.944892 85.848 12.7670
55.343045 85.841 12.3629
55.744084 85.835 11.9634
56.148028 85.828 11.5685
56.554900 85.821 11.1774
56.964720 85.815 10.7883
57.377510 85.809 10.4006
57.793291 85.802 10.0149
58.212085 85.795 9.6323
58.633914 85.787 9.2535
59.058799 85.779 8.8781
59.486764 85.770 8.5044
59.917829 85.761 8.1309
60.352019 85.750 7.7559
60.789354 85.739 7.3787
61.229859 85.726 6.9997
61.673556 85.711 6.6195
62.120468 85.696 6.2385
62.570618 85.679 5.8560
63.024031 85.663 5.4691
63.480729 85.647 5.0745
63.940736 85.630 4.6697
64.404077 85.613 4.2550
64.870776 85.596 3.8326
65.340856 85.577 3.4054
65.814343 85.557 2.9781
66.291261 85.535 2.5592
66.771635 85.511 2.1613
67.255489 85.487 1.7954
67.742850 85.466 1.4639
68.233743 85.449 1.1553
68.728193 85.437 0.8507
69.226226 85.427 0.5358
69.727867 85.417 0.2080
70.233144 85.406 -0.1261
70.742083 85.393 -0.4615
71.254709 85.378 -0.8002
71.771050 85.361 -1.1475
72.291132 85.342 -1.5054
72.814984 85.318 -1.8694
73.342631 85.291 -2.2322
73.874102 85.262 -2.5901
74.409424 85.230 -2.9439
74.948626 85.199 -3.2963
75.491734 85.166 -3.6479
76.038779 85.134 -3.9978
76.589787 85.101 -4.3439
77.144788 85.069 -4.6848
77.703811 85.037 -5.0204
78.266885 85.006 -5.3513
78.834039 84.975 -5.6782
79.405303 84.944 -6.0015
79.980706 84.913 -6.3206
80.560280 84.882 -6.6343
81.144053 84.850 -6.9426
81.732056 84.817 -7.2466
82.324320 84.783 -7.5497
82.920876 84.749 -7.8550
83.521755 84.714 -8.1639
84.126988 84.677 -8.4750
84.736607 84.638 -8.7847
85.350643 84.598 -9.0892
85.969129 84.557 -9.3878
86.592097 84.516 -9.6824
87.219579 84.475 -9.9762
87.851608 84.433 -10.2708
88.488217 84.390 -10.5645
89.129439 84.345 -10.8544
89.775308 84.299 -11.1385
90.425856 84.252 -11.4168
91.081119 84.204 -11.6903
91.741131 84.153 -11.9598
92.405925 84.101 -12.2251
93.075536 84.046 -12.4836
93.750000 83.989 -12.7322
94.429351 83.928 -12.9670
95.113625 83.864 -13.1840
95.802858 83.797 -13.3774
96.497085 83.726 -13.5408
97.196342 83.653 -13.6666
97.900667 83.578 -13.7483
98.610096 83.502 -13.7801
99.324665 83.428 -13.7588
100.044413 83.359 -13.6862
100.769376 83.296 -13.5706
101.499592 83.243 -13.4269
102.235100 83.199 -13.2739
102.975938 83.165 -13.1309
103.722144 83.139 -13.0143
104.473757 83.119 -12.9358
105.230817 83.104 -12.9017
105.993363 83.090 -12.9147
106.761435 83.077 -12.9734
107.535072 83.061 -13.0728
108.314315 83.041 -13.2043
109.099206 83.019 -13.3583
109.889783 82.993 -13.5253
110.686090 82.964 -13.6969
111.488167 82.934 -13.8663
112.296056 82.903 -14.0292
113.109800 82.872 -14.1838
113.929440 82.840 -14.3311
114.755020 82.808 -14.4729
115.586582 82.774 -14.6100
116.424170 82.738 -14.7415
117.267827 82.699 -14.8663
118.117598 82.658 -14.9839
118.973527 82.615 -15.0933
119.835658 82.572 -15.1937
120.704037 82.529 -15.2858
121.578708 82.487 -15.3719
122.459718 82.445 -15.4526
123.347111 82.404 -15.5259
124.240935 82.364 -15.5914
125.141236 82.322 -15.6523
126.048061 82.280 -15.7144
126.961458 82.236 -15.7825
127.881473 82.191 -15.8598
128.808154 82.144 -15.9478
129.741551 82.097 -16.0466
130.681712 82.050 -16.1544
131.628686 82.004 -16.2667
132.582521 81.957 -16.3750
133.543269 81.908 -16.4651
134.510979 81.858 -16.5177
135.485701 81.806 -16.5179
136.467486 81.755 -16.4705
137.456386 81.707 -16.3982
138.452451 81.659 -16.3239
139.455735 81.612 -16.2604
140.466288 81.566 -16.2114
141.484165 81.520 -16.1750
142.509418 81.474 -16.1462
143.542100 81.429 -16.1193
144.582265 81.384 -16.0876
145.629968 81.339 -16.0474
146.685262 81.294 -15.9976
147.748204 81.248 -15.9407
148.818849 81.200 -15.8794
149.897251 81.151 -15.8171
150.983469 81.103 -15.7562
152.077557 81.055 -15.6974
153.179574 81.008 -15.6387
154.289576 80.963 -15.5773
155.407622 80.921 -15.5106
156.533770 80.879 -15.4381
157.668078 80.838 -15.3601
158.810606 80.797 -15.2773
159.961413 80.754 -15.1899
161.120559 80.708 -15.0981
162.288105 80.661 -15.0025
163.464112 80.612 -14.9031
164.648640 80.562 -14.7994
165.841752 80.513 -14.6904
167.043510 80.465 -14.5742
168.253976 80.420 -14.4492
169.473213 80.376 -14.3140
170.701286 80.334 -14.1680
171.938258 80.291 -14.0126
173.184194 80.249 -13.8521
174.439158 80.205 -13.6913
175.703216 80.160 -13.5345
176.976434 80.115 -13.3825
178.258878 80.071 -13.2327
179.550615 80.030 -13.0814
180.851713 79.992 -12.9261
182.162239 79.957 -12.7662
183.482262 79.924 -12.6010
184.811850 79.890 -12.4301
186.151073 79.855 -12.2553
187.500000 79.819 -12.0786
188.858702 79.782 -11.9010
190.227250 79.744 -11.7218
191.605715 79.706 -11.5391
192.994169 79.669 -11.3505
194.392685 79.630 -11.1539
195.801334 79.592 -10.9467
197.220191 79.553 -10.7261
198.649330 79.515 -10.4920
200.088825 79.478 -10.2483
201.538751 79.443 -10.0038
202.999184 79.409 -9.7696
204.470200 79.377 -9.5543
205.951875 79.344 -9.3582
207.444287 79.312 -9.1736
208.947514 79.280 -8.9904
210.461634 79.248 -8.8006
211.986726 79.217 -8.6013
213.522869 79.186 -8.3939
215.070144 79.156 -8.1821
216.628631 79.127 -7.9686
218.198411 79.097 -7.7528
219.779567 79.068 -7.5321
221.372180 79.039 -7.3030
222.976334 79.010 -7.0630
224.592112 78.980 -6.8129
226.219600 78.951 -6.5564
227.858880 78.923 -6.2975
229.510039 78.896 -6.0386
231.173164 78.870 -5.7812
232.848340 78.844 -5.5269
234.535655 78.819 -5.2764
236.235197 78.793 -5.0291
237.947054 78.769 -4.7806
239.671317 78.745 -4.5239
241.408074 78.722 -4.2534
243.157416 78.700 -3.9691
244.919435 78.678 -3.6760
246.694223 78.655 -3.3796
248.481871 78.633 -3.0839
250.282473 78.610 -2.7906
252.096123 78.587 -2.5004
253.922915 78.565 -2.2118
255.762945 78.543 -1.9231
257.616309 78.523 -1.6321
259.483103 78.504 -1.3380
261.363424 78.487 -1.0417
263.257372 78.472 -0.7452
265.165043 78.458 -0.4495
267.086538 78.445 -0.1547
269.021957 78.431 0.1393
270.971401 78.414 0.4307
272.934972 78.396 0.7167
274.912771 78.376 0.9972
276.904902 78.355 1.2751
278.911469 78.335 1.5544
280.932577 78.318 1.8388
282.968330 78.303 2.1307
285.018835 78.291 2.4318
287.084199 78.281 2.7419
289.164530 78.273 3.0583
291.259935 78.266 3.3782
293.370525 78.259 3.7018
295.496408 78.251 4.0327
297.637697 78.243 4.3739
299.794503 78.234 4.7257
301.966937 78.224 5.0842
304.155114 78.213 5.4438
306.359147 78.203 5.7987
308.579152 78.194 6.1448
310.815244 78.187 6.4802
313.067539 78.182 6.8047
315.336156 78.179 7.1204
317.621211 78.177 7.4305
319.922826 78.175 7.7398
322.241118 78.174 8.0535
324.576210 78.173 8.3767
326.928223 78.174 8.7124
329.297280 78.176 9.0614
331.683504 78.180 9.4218
334.087019 78.185 9.7877
336.507952 78.190 10.1489
338.946427 78.194 10.4935
341.402572 78.196 10.8169
343.876516 78.196 11.1257
346.368387 78.196 11.4291
348.878315 78.195 11.7336
351.406431 78.196 12.0435
353.952867 78.196 12.3633
356.517756 78.197 12.6972
359.101230 78.199 13.0441
361.703426 78.201 13.3977
364.324478 78.205 13.7500
366.964523 78.211 14.0963
369.623699 78.219 14.4359
372.302145 78.229 14.7693
375.000000 78.240 15.0961
377.717405 78.253 15.4153
380.454501 78.267 15.7255
383.211431 78.282 16.0270
385.988339 78.298 16.3229
388.785369 78.312 16.6179
391.602668 78.326 16.9152
394.440383 78.339 17.2153
397.298660 78.350 17.5165
400.177650 78.362 17.8149
403.077502 78.373 18.1069
405.998368 78.384 18.3920
408.940400 78.396 18.6742
411.903750 78.409 18.9612
414.888575 78.424 19.2632
417.895028 78.441 19.5887
420.923268 78.463 19.9392
423.973452 78.488 20.3067
427.045738 78.516 20.6777
430.140287 78.547 21.0388
433.257261 78.579 21.3804
436.396822 78.611 21.7004
439.559133 78.642 22.0035
442.744360 78.672 22.2954
445.952668 78.701 22.5789
449.184225 78.730 22.8547
452.439199 78.759 23.1228
455.717760 78.790 23.3820
459.020079 78.822 23.6324
462.346327 78.854 23.8751
465.696680 78.888 24.1111
469.071310 78.923 24.3422
472.470394 78.958 24.5715
475.894109 78.992 24.8019
479.342634 79.024 25.0365
482.816148 79.053 25.2750
486.314833 79.079 25.5115
489.838871 79.104 25.7382
493.388445 79.127 25.9523
496.963741 79.151 26.1560
500.564945 79.175 26.3534
504.192245 79.199 26.5482
507.845830 79.225 26.7433
511.525890 79.251 26.9412
515.232618 79.279 27.1437
518.966206 79.306 27.3518
522.726849 79.334 27.5643
526.514743 79.363 27.7786
530.330086 79.392 27.9926
534.173076 79.421 28.2036
538.043915 79.451 28.4075
541.942803 79.481 28.6004
545.869944 79.510 28.7817
549.825542 79.537 28.9551
553.809805 79.562 29.1255
557.822939 79.587 29.2953
561.865154 79.612 29.4642
565.936660 79.638 29.6321
570.037671 79.666 29.8009
574.168399 79.694 29.9730
578.329060 79.722 30.1500
582.519870 79.751 30.3326
586.741049 79.779 30.5209
590.992817 79.807 30.7132
595.275394 79.835 30.9065
599.589005 79.861 31.0980
603.933874 79.886 31.2851
608.310228 79.910 31.4656
612.718295 79.933 31.6374
617.158304 79.958 31.7992
621.630488 79.984 31.9512
626.135079 80.012 32.0960
630.672311 80.040 32.2379
635.242423 80.070 32.3797
639.845651 80.099 32.5200
644.482237 80.128 32.6561
649.152421 80.156 32.7877
653.856447 80.183 32.9188
658.594560 80.207 33.0559
663.367008 80.231 33.2042
668.174039 80.254 33.3642
673.015903 80.278 33.5320
677.892854 80.303 33.7025
682.805145 80.330 33.8714
687.753032 80.357 34.0374
692.736774 80.385 34.1997
697.756631 80.411 34.3570
702.812863 80.436 34.5086
707.905735 80.460 34.6562
713.035511 80.481 34.8023
718.202461 80.502 34.9494
723.406852 80.522 35.0993
728.648956 80.544 35.2544
733.929047 80.569 35.4166
739.247399 80.595 35.5862
744.604290 80.624 35.7612
750.000000 80.654 35.9391
755.434809 80.684 36.1170
760.909001 80.714 36.2928
766.422861 80.742 36.4652
771.976677 80.770 36.6343
777.570739 80.796 36.7995
783.205337 80.821 36.9583
788.880766 80.845 37.1069
794.597321 80.869 37.2410
800.355301 80.892 37.3599
806.155005 80.916 37.4680
811.996736 80.940 37.5741
817.880799 80.965 37.6866
823.807501 80.991 37.8116
829.777150 81.018 37.9523
835.790057 81.046 38.1099
841.846536 81.076 38.2830
847.946903 81.108 38.4686
854.091476 81.141 38.6630
860.280575 81.174 38.8619
866.514523 81.207 39.0611
872.793644 81.239 39.2551
879.118267 81.270 39.4388
885.488720 81.300 39.6100
891.905336 81.328 39.7710
898.368450 81.357 39.9283
904.878398 81.386 40.0894
911.435520 81.418 40.2575
918.040157 81.453 40.4307
924.692655 81.490 40.6064
931.393359 81.528 40.7824
938.142619 81.568 40.9550
944.940787 81.607 41.1185
951.788218 81.647 41.2661
958.685268 81.686 41.3932
965.632296 81.726 41.4993
972.629666 81.766 41.5870
979.677741 81.807 41.6602
986.776890 81.847 41.7216
993.927482 81.887 41.7736
1001.129891 81.926 41.8182
1008.384491 81.964 41.8596
1015.691660 82.001 41.9050
1023.051781 82.039 41.9619
1030.465236 82.077 42.0348
1037.932411 82.118 42.1217
1045.453698 82.160 42.2163
1053.029486 82.204 42.3115
1060.660172 82.249 42.4009
1068.346153 82.293 42.4783
1076.087829 82.337 42.5385
1083.885605 82.378 42.5806
1091.739887 82.418 42.6089
1099.651084 82.456 42.6302
1107.619609 82.493 42.6495
1115.645878 82.530 42.6699
1123.730308 82.569 42.6941
1131.873321 82.610 42.7249
1140.075341 82.653 42.7615
1148.336797 82.697 42.7990
1156.658119 82.741 42.8297
1165.039741 82.784 42.8442
1173.482099 82.824 42.8331
1181.985634 82.861 42.7895
1190.550789 82.895 42.7130
1199.178011 82.925 42.6105
1207.867749 82.953 42.4935
1216.620457 82.980 42.3734
1225.436590 83.005 42.2589
1234.316609 83.030 42.1551
1243.260976 83.054 42.0630
1252.270157 83.077 41.9798
1261.344623 83.098 41.9002
1270.484846 83.115 41.8170
1279.691303 83.129 41.7226
1288.964474 83.140 41.6115
1298.304842 83.149 41.4830
1307.712894 83.154 41.3431
1317.189120 83.157 41.2027
1326.734016 83.158 41.0719
1336.348077 83.158 40.9577
1346.031806 83.156 40.8637
1355.785708 83.152 40.7899
1365.610290 83.146 40.7342
1375.506065 83.138 40.6926
1385.473549 83.125 40.6605
1395.513261 83.109 40.6325
1405.625726 83.089 40.6033
1415.811469 83.066 40.5700
1426.071023 83.039 40.5334
1436.404921 83.009 40.4983
1446.813703 82.977 40.4707
1457.297912 82.943 40.4563
1467.858093 82.909 40.4594
1478.494798 82.873 40.4846
1489.208581 82.836 40.5379
1500.000000 82.798 40.6275
1510.869618 82.759 40.7616
1521.818002 82.720 40.9477
1532.845723 82.681 41.1918
1543.953355 82.642 41.4966
1555.141477 82.602 41.8578
1566.410674 82.561 42.2639
1577.761531 82.520 42.6997
1589.194642 82.477 43.1551
1600.710601 82.433 43.6317
1612.310010 82.388 44.1431
1623.993473 82.344 44.7096
1635.761599 82.302 45.3502
1647.615002 82.265 46.0787
1659.554299 82.235 46.9026
1671.580114 82.215 47.8231
1683.693072 82.208 48.8344
1695.893807 82.213 49.9233
1708.182952 82.235 51.0683
1720.561150 82.273 52.2429
1733.029045 82.329 53.4182
1745.587288 82.405 54.5668
1758.236533 82.501 55.6662
1770.977440 82.618 56.6996
1783.810673 82.753 57.6540
1796.736900 82.905 58.5192
1809.756796 83.069 59.2878
1822.871040 83.240 59.9547
1836.080315 83.416 60.5180
1849.385310 83.591 60.9808
1862.786718 83.764 61.3488
1876.285239 83.932 61.6285
1889.881575 84.096 61.8264
1903.576436 84.255 61.9497
1917.370535 84.411 62.0081
1931.264593 84.566 62.0136
1945.259332 84.722 61.9768
1959.355483 84.879 61.9027
1973.553781 85.036 61.7905
1987.854965 85.194 61.6360
2002.259781 85.348 61.4331
2016.768981 85.496 61.1752
2031.383320 85.636 60.8568
2046.103561 85.764 60.4742
2060.930471 85.882 60.0278
2075.864823 85.988 59.5247
2090.907395 86.084 58.9800
2106.058972 86.173 58.4148
2121.320344 86.257 57.8517
2136.692305 86.336 57.3105
2152.175658 86.412 56.8026
2167.771210 86.485 56.3303
2183.479774 86.555 55.8868
2199.302169 86.622 55.4580
2215.239219 86.682 55.0242
2231.291755 86.735 54.5664
2247.460615 86.783 54.0734
2263.746641 86.825 53.5445
2280.150683 86.863 52.9861
2296.673595 86.898 52.4074
2313.316238 86.930 51.8179
2330.079481 86.957 51.2278
2346.964198 86.981 50.6470
2363.971268 87.001 50.0856
2381.101578 87.018 49.5542
2398.356022 87.033 49.0645
2415.735498 87.049 48.6274
2433.240913 87.066 48.2493
2450.873180 87.086 47.9283
2468.633217 87.107 47.6537
2486.521951 87.129 47.4076
2504.540314 87.151 47.1662
2522.689246 87.172 46.9072
2540.969692 87.190 46.6157
2559.382606 87.206 46.2873
2577.928947 87.219 45.9272
2596.609683 87.229 45.5506
2615.425787 87.238 45.1798
2634.378241 87.246 44.8373
2653.468031 87.253 44.5378
2672.696154 87.261 44.2859
2692.063613 87.269 44.0767
2711.571415 87.276 43.8963
2731.220579 87.283 43.7237
2751.012130 87.288 43.5352
2770.947098 87.293 43.3098
2791.026522 87.299 43.0341
2811.251451 87.306 42.7059
2831.622938 87.313 42.3332
2852.142045 87.321 41.9267
2872.809842 87.329 41.4964
2893.627406 87.336 41.0505
2914.595823 87.341 40.5960
2935.716186 87.344 40.1414
2956.989596 87.346 39.6995
2978.417161 87.347 39.2864
3000.000000 87.347 38.9156
3021.739237 87.347 38.5944
3043.636005 87.346 38.3201
3065.691446 87.343 38.0795
3087.906710 87.338 37.8516
3110.282955 87.330 37.6148
3132.821347 87.317 37.3547
3155.523062 87.299 37.0663
3178.389283 87.276 36.7543
3201.421202 87.248 36.4332
3224.620020 87.217 36.1251
3247.986946 87.186 35.8546
3271.523198 87.155 35.6420
3295.230004 87.127 35.4967
3319.108599 87.101 35.4128
3343.160228 87.079 35.3709
3367.386145 87.058 35.3434
3391.787613 87.039 35.3010
3416.365904 87.020 35.2205
3441.122300 86.999 35.0894
3466.058091 86.978 34.9096
3491.174576 86.955 34.6957
3516.473066 86.932 34.4727
3541.954880 86.909 34.2690
3567.621345 86.887 34.1085
3593.473800 86.866 34.0020
3619.513592 86.845 33.9446
3645.742080 86.826 33.9178
3672.160630 86.806 33.8958
3698.770620 86.783 33.8539
3725.573436 86.758 33.7743
3752.570477 86.728 33.6505
3779.763150 86.696 33.4886
3807.152872 86.660 33.3071
3834.741071 86.624 33.1325
3862.529185 86.587 32.9913
3890.518664 86.550 32.9021
3918.710966 86.513 32.8688
3947.107561 86.474 32.8782
3975.709929 86.433 32.9057
4004.519563 86.388 32.9229
4033.537962 86.338 32.9047
4062.766641 86.284 32.8347
4092.207123 86.227 32.7054
4121.860942 86.168 32.5199
4151.729646 86.109 32.2903
4181.814790 86.051 32.0347
4212.117944 85.993 31.7714
4242.640687 85.935 31.5159
4273.384610 85.877 31.2822
4304.351317 85.821 31.0855
4335.542421 85.765 30.9436
4366.959549 85.711 30.8764
4398.604338 85.659 30.9018
4430.478438 85.609 31.0296
4462.583511 85.562 31.2568
4494.921231 85.517 31.5655
4527.493283 85.474 31.9253
4560.301365 85.433 32.3006
4593.347189 85.393 32.6587
4626.632476 85.354 32.9784
4660.158962 85.317 33.2552
4693.928395 85.283 33.5044
4727.942535 85.253 33.7573
4762.203156 85.229 34.0524
4796.712043 85.212 34.4243
4831.470996 85.204 34.8924
4866.481826 85.205 35.4533
4901.746360 85.217 36.0811
4937.266434 85.239 36.7326
4973.043902 85.271 37.3574
5009.080628 85.313 37.9087
5045.378492 85.365 38.3524
5081.939384 85.429 38.6722
5118.765212 85.504 38.8678
5155.857894 85.590 38.9479
5193.219366 85.689 38.9225
5230.851574 85.799 38.7981
5268.756481 85.920 38.5784
5306.936062 86.050 38.2679
5345.392309 86.187 37.8758
5384.127225 86.330 37.4157
5423.142830 86.476 36.9027
5462.441159 86.625 36.3485
5502.024259 86.772 35.7543
5541.894195 86.916 35.1050
5582.053045 87.052 34.3696
5622.502902 87.175 33.5079
5663.245876 87.283 32.4816
5704.284090 87.370 31.2654
5745.619684 87.433 29.8568
5787.254813 87.471 28.2813
5829.191647 87.483 26.5893
5871.432373 87.468 24.8475
5913.979192 87.426 23.1267
5956.834323 87.357 21.4877
6000.000000 87.263 19.9703
6043.478473 87.144 18.5883
6087.272010 87.000 17.3322
6131.382892 86.831 16.1783
6175.813420 86.639 15.1016
6220.565910 86.425 14.0862
6265.642695 86.193 13.1373
6311.046124 85.948 12.2814
6356.778566 85.699 11.5576
6402.842404 85.455 10.9976
6449.240040 85.221 10.6075
6495.973891 84.998 10.3702
6543.046396 84.778 10.2710
6590.460007 84.555 10.3171
6638.217197 84.321 10.5258
6686.320456 84.077 10.9022
6734.772290 83.825 11.4336
6783.575226 83.571 12.1006
6832.731809 83.319 12.8956
6882.244600 83.078 13.8362
6932.116181 82.853 14.9658
6982.349153 82.652 16.3425
7032.946133 82.486 18.0167
7083.909760 82.363 20.0027
7135.242690 82.293 22.2559
7186.947600 82.279 24.6735
7239.027185 82.320 27.1306
7291.484160 82.413 29.5273
7344.321260 82.556 31.8003
7397.541239 82.753 33.9037
7451.146872 83.010 35.7960
7505.140954 83.331 37.4380
7559.526299 83.719 38.7928
7614.305743 84.167 39.8206
7669.482141 84.668 40.4704
7725.058371 85.208 40.6745
7781.037328 85.768 40.3507
7837.421932 86.326 39.4152
7894.215122 86.861 37.8017
7951.419859 87.347 35.4782
8009.039125 87.764 32.4598
8067.075924 88.094 28.8174
8125.533282 88.321 24.6777
8184.414245 88.439 20.2123
8243.721885 88.446 15.6136
8303.459292 88.347 11.0689
8363.629581 88.153 6.7428
8424.235888 87.881 2.7671
8485.281374 87.549 -0.7629
8546.769221 87.178 -3.7853
8608.702634 86.789 -6.2657
8671.084842 86.399 -8.1924
8733.919097 86.025 -9.5777
8797.208675 85.679 -10.4678
8860.956876 85.369 -10.9482
8925.167022 85.097 -11.1388
8989.842461 84.866 -11.1757
9054.986566 84.671 -11.1927
9120.602731 84.510 -11.3043
9186.694378 84.378 -11.5875
9253.264952 84.273 -12.0719
9320.317925 84.192 -12.7406
9387.856790 84.133 -13.5476
9455.885071 84.092 -14.4392
9524.406312 84.068 -15.3768
9593.424086 84.055 -16.3539
9662.941992 84.048 -17.4041
9732.963653 84.040 -18.5931
9803.492719 84.026 -20.0022
9874.532869 83.998 -21.7080
9946.087805 83.947 -23.7643
10018.161257 83.867 -26.1838
10090.756983 83.749 -28.9273
10163.878768 83.590 -31.9083
10237.530423 83.384 -35.0091
10311.715789 83.128 -38.1010
10386.438732 82.822 -41.0656
10461.703149 82.464 -43.8177
10537.512962 82.055 -46.3181
10613.872125 81.597 -48.5698
10690.784618 81.092 -50.6053
10768.254450 80.544 -52.4712
10846.285661 79.957 -54.2094
10924.882318 79.336 -55.8381
11004.048518 78.685 -57.3368
11083.788390 78.011 -58.6456
11164.106090 77.320 -59.6802
11245.005805 76.618 -60.3490
11326.491752 75.911 -60.5781
11408.568180 75.206 -60.3334
11491.239368 74.505 -59.6337
11574.509626 73.812 -58.5456
11658.383294 73.130 -57.1666
11742.864745 72.459 -55.6052
11827.958384 71.801 -53.9583
11913.668646 71.156 -52.2894
12000.000000 70.526 -50.6190
12086.956947 69.912 -48.9318
12174.544019 69.315 -47.1943
12262.765784 68.736 -45.3664
12351.626840 68.175 -43.4056
12441.131819 67.632 -41.2672
12531.285389 67.107 -38.9003
12622.092249 66.602 -36.2426
12713.557132 66.116 -33.2161
12805.684808 65.653 -29.7328
12898.480079 65.217 -25.7143
12991.947783 64.812 -21.1169
13086.092792 64.446 -15.9456
13180.920015 64.128 -10.2477
13276.434395 63.873 -4.0942
13372.640911 63.699 2.4412
13469.544580 63.633 9.3021
13567.150452 63.708 16.4557
13665.463617 63.956 23.8667
13764.489200 64.407 31.4425
13864.232362 65.072 38.9868
13964.698305 65.941 46.1838
14065.892266 66.984 52.6340
14167.819519 68.155 57.9354
14270.485380 69.403 61.7719
14373.895200 70.681 63.9557
14478.054370 71.944 64.4206
14582.968320 73.154 63.2003
14688.642520 74.277 60.4136
14795.082478 75.284 56.2523
14902.293745 76.152 50.9635
15010.281908 76.862 44.8297
15119.052599 77.407 38.1517
15228.611486 77.791 31.2324
15338.964283 78.030 24.3525
15450.116741 78.151 17.7443
15562.074656 78.188 11.5732
15674.843864 78.178 5.9323
15788.430244 78.153 0.8432
15902.839718 78.142 -3.7471
16018.078250 78.159 -7.9750
16134.151848 78.207 -12.0521
16251.066563 78.277 -16.2311
16368.828491 78.348 -20.7583
16487.443769 78.390 -25.8319
16606.918584 78.370 -31.5646
16727.259161 78.257 -37.9493
16848.471777 78.023 -44.8423
16970.562748 77.649 -51.9791
17093.538442 77.126 -59.0262
17217.405268 76.457 -65.6412
17342.169684 75.656 -71.5299
17467.838194 74.743 -76.4890
17594.417350 73.743 -80.4324
17721.913751 72.682 -83.3893
17850.334044 71.587 -85.4839
17979.684923 70.483 -86.9075
18109.973131 69.392 -87.8804
18241.205462 68.334 -88.6010
18373.388756 67.321 -89.1995
18506.529905 66.363 -89.7247
18640.635849 65.462 -90.1586
18775.713581 64.619 -90.4490
18911.770141 63.827 -90.5505
19048.812624 63.076 -90.4655
19186.848172 62.355 -90.2603
19325.883983 61.656 -90.0478
19465.927305 60.977 -89.9521
19606.985439 60.331 -90.0640
19749.065738 59.753 -90.3900
19892.175609 59.302 -90.8124
20036.322514 59.052 -91.1158
