* Measurement data measured by REW V5.30.4
* Source: Headset (2- CX31993 HIFI AUDIO), MICROPHONE (Master Volume), L, volume: 0.500
* Format: 256k Log Swept Sine, 1 sweep at -12.0 dBFS with no timing reference
* Dated: 06 18, 24 6:26:49 AM
* REW Settings:
*  C-weighting compensation: Off
*  Target level: 75.0 dB
* Note: ; 
* Measurement: Sony IER-M7 L
* Smoothing: 1/12 octave
* Frequency Step: 96 ppo
* Start Frequency: 20.141602 Hz
*
* Freq(Hz) SPL(dB) Phase(degrees)
20.141602 94.720 -163.4388
20.287556 94.722 -163.5272
20.434568 94.726 -163.6532
20.582645 94.730 -163.8048
20.731796 94.735 -163.9710
20.882027 94.741 -164.1438
21.033346 94.749 -164.3172
21.185762 94.757 -164.4875
21.339283 94.768 -164.6526
21.493916 94.781 -164.8116
21.649670 94.796 -164.9647
21.806553 94.814 -165.1134
21.964573 94.834 -165.2598
22.123737 94.856 -165.4067
22.284056 94.879 -165.5572
22.445536 94.902 -165.7142
22.608185 94.924 -165.8796
22.772013 94.944 -166.0546
22.937029 94.961 -166.2390
23.103241 94.973 -166.4310
23.270657 94.981 -166.6281
23.439285 94.983 -166.8267
23.609137 94.981 -167.0229
23.780218 94.974 -167.2134
23.952539 94.964 -167.3956
24.126110 94.951 -167.5683
24.300938 94.938 -167.7321
24.477032 94.925 -167.8889
24.654402 94.914 -168.0419
24.833057 94.907 -168.1950
25.013008 94.902 -168.3519
25.194263 94.901 -168.5157
25.376831 94.903 -168.6880
25.560722 94.907 -168.8691
25.745945 94.914 -169.0573
25.932510 94.921 -169.2498
26.120428 94.930 -169.4433
26.309708 94.938 -169.6340
26.500359 94.946 -169.8192
26.692390 94.953 -169.9969
26.885815 94.960 -170.1667
27.080641 94.966 -170.3294
27.276878 94.971 -170.4867
27.474539 94.975 -170.6410
27.673630 94.979 -170.7950
27.874165 94.982 -170.9509
28.076153 94.984 -171.1103
28.279604 94.986 -171.2743
28.484529 94.987 -171.4430
28.690941 94.989 -171.6161
28.898848 94.991 -171.7930
29.108261 94.994 -171.9725
29.319191 94.997 -172.1537
29.531651 95.001 -172.3354
29.745649 95.006 -172.5165
29.961199 95.011 -172.6959
30.178310 95.016 -172.8727
30.396996 95.022 -173.0461
30.617264 95.027 -173.2159
30.839128 95.032 -173.3822
31.062601 95.036 -173.5453
31.287693 95.040 -173.7061
31.514416 95.043 -173.8657
31.742783 95.046 -174.0250
31.972803 95.048 -174.1847
32.204491 95.049 -174.3453
32.437859 95.050 -174.5068
32.672916 95.051 -174.6694
32.909679 95.051 -174.8330
33.148155 95.051 -174.9978
33.388359 95.050 -175.1640
33.630306 95.050 -175.3321
33.874004 95.049 -175.5023
34.119469 95.048 -175.6748
34.366711 95.047 -175.8492
34.615746 95.046 -176.0250
34.866585 95.045 -176.2012
35.119244 95.044 -176.3767
35.373734 95.044 -176.5504
35.630066 95.044 -176.7213
35.888256 95.045 -176.8887
36.148315 95.046 -177.0521
36.410259 95.048 -177.2115
36.674103 95.050 -177.3676
36.939857 95.053 -177.5216
37.207539 95.056 -177.6754
37.477161 95.059 -177.8312
37.748737 95.062 -177.9911
38.022282 95.063 -178.1565
38.297806 95.064 -178.3276
38.575329 95.063 -178.5033
38.854862 95.060 -178.6813
39.136421 95.057 -178.8593
39.420021 95.053 -179.0351
39.705673 95.048 -179.2075
39.993397 95.044 -179.3762
40.283207 95.041 -179.5416
40.575115 95.037 -179.7039
40.869141 95.033 -179.8628
41.165295 95.029 179.9824
41.463596 95.026 179.8322
41.764057 95.022 179.6864
42.066696 95.018 179.5431
42.371529 95.016 179.3995
42.678570 95.014 179.2521
42.987835 95.013 179.0985
43.299343 95.012 178.9379
43.613110 95.011 178.7713
43.929150 95.010 178.6010
44.247478 95.009 178.4294
44.568115 95.007 178.2577
44.891075 95.005 178.0865
45.216373 95.002 177.9164
45.544029 94.999 177.7482
45.874062 94.995 177.5835
46.206486 94.991 177.4239
46.541317 94.986 177.2693
46.878574 94.983 177.1175
47.218277 94.982 176.9637
47.560440 94.982 176.8027
47.905083 94.982 176.6317
48.252224 94.982 176.4518
48.601879 94.980 176.2676
48.954067 94.977 176.0851
49.308807 94.971 175.9089
49.666119 94.965 175.7399
50.026020 94.958 175.5758
50.388531 94.951 175.4124
50.753666 94.944 175.2473
51.121449 94.937 175.0809
51.491894 94.930 174.9161
51.865025 94.923 174.7565
52.240860 94.917 174.6037
52.619419 94.912 174.4567
53.000721 94.907 174.3129
53.384785 94.902 174.1694
53.771633 94.896 174.0253
54.161285 94.889 173.8809
54.553761 94.880 173.7368
54.949081 94.871 173.5921
55.347263 94.862 173.4442
55.748333 94.852 173.2894
56.152309 94.842 173.1258
56.559212 94.831 172.9540
56.969063 94.818 172.7781
57.381886 94.803 172.6029
57.797699 94.787 172.4313
58.216526 94.772 172.2619
58.638386 94.760 172.0888
59.063305 94.750 171.9050
59.491302 94.744 171.7068
59.922401 94.739 171.4971
60.356625 94.734 171.2851
60.793995 94.728 171.0828
61.234531 94.723 170.9000
61.678261 94.717 170.7407
62.125206 94.713 170.6030
62.575390 94.709 170.4810
63.028835 94.707 170.3667
63.485569 94.704 170.2528
63.945610 94.699 170.1348
64.408989 94.689 170.0128
64.875725 94.675 169.8915
65.345840 94.659 169.7757
65.819366 94.644 169.6678
66.296318 94.633 169.5685
66.776726 94.630 169.4819
67.260620 94.634 169.4187
67.748016 94.645 169.3881
68.238945 94.658 169.3848
68.733429 94.667 169.3859
69.231499 94.665 169.3647
69.733177 94.646 169.3082
70.238495 94.609 169.2187
70.747475 94.563 169.0972
71.260139 94.519 168.9286
71.776520 94.485 168.6911
72.296638 94.464 168.3816
72.820526 94.453 168.0283
73.348213 94.447 167.6754
73.879723 94.442 167.3542
74.415085 94.437 167.0718
74.954330 94.429 166.8191
75.497482 94.418 166.5867
76.044571 94.403 166.3702
76.595619 94.385 166.1683
77.150665 94.367 165.9809
77.709732 94.346 165.8097
78.272850 94.325 165.6561
78.840050 94.304 165.5185
79.411354 94.284 165.3922
79.986801 94.266 165.2730
80.566422 94.251 165.1586
81.150238 94.238 165.0470
81.738289 94.226 164.9339
82.330597 94.214 164.8145
82.927200 94.202 164.6866
83.528122 94.190 164.5508
84.133400 94.178 164.4081
84.743065 94.165 164.2582
85.357147 94.151 164.1019
85.975677 94.135 163.9418
86.598694 94.116 163.7813
87.226227 94.096 163.6212
87.858307 94.075 163.4593
88.494965 94.053 163.2924
89.136238 94.032 163.1195
89.782158 94.011 162.9437
90.432755 93.992 162.7702
91.088066 93.973 162.6047
91.748131 93.957 162.4510
92.412979 93.942 162.3115
93.082642 93.928 162.1856
93.757156 93.913 162.0692
94.436562 93.899 161.9565
95.120888 93.883 161.8448
95.810173 93.865 161.7365
96.504456 93.847 161.6363
97.203766 93.827 161.5466
97.908142 93.806 161.4644
98.617622 93.785 161.3826
99.332245 93.761 161.2955
100.052048 93.735 161.2039
100.777069 93.708 161.1145
101.507339 93.680 161.0331
102.242905 93.653 160.9580
102.983795 93.626 160.8809
103.730057 93.600 160.7910
104.481728 93.575 160.6797
105.238846 93.549 160.5436
106.001450 93.525 160.3856
106.769577 93.503 160.2142
107.543274 93.482 160.0415
108.322578 93.461 159.8817
109.107529 93.439 159.7473
109.898170 93.417 159.6456
110.694534 93.395 159.5754
111.496674 93.373 159.5270
112.304626 93.349 159.4823
113.118431 93.320 159.4204
113.938133 93.288 159.3339
114.763779 93.253 159.2399
115.595406 93.216 159.1652
116.433060 93.179 159.1151
117.276779 93.142 159.0663
118.126617 93.102 158.9930
118.982613 93.064 158.8983
119.844810 93.036 158.8135
120.713257 93.021 158.7663
121.587997 93.020 158.7569
122.469070 93.023 158.7656
123.356529 93.024 158.7737
124.250420 93.024 158.7717
125.150787 93.024 158.7534
126.057678 93.032 158.7105
126.971146 93.049 158.6378
127.891228 93.073 158.5329
128.817978 93.095 158.3920
129.751450 93.109 158.2141
130.691681 93.112 158.0145
131.638733 93.107 157.8270
132.592636 93.100 157.6868
133.553452 93.094 157.6072
134.521240 93.091 157.5735
135.496033 93.091 157.5606
136.477890 93.091 157.5477
137.466858 93.087 157.5158
138.462997 93.075 157.4440
139.466354 93.055 157.3218
140.476990 93.027 157.1588
141.494949 92.995 156.9743
142.520279 92.960 156.7839
143.553040 92.925 156.5967
144.593277 92.892 156.4211
145.641052 92.860 156.2664
146.696426 92.831 156.1349
147.759445 92.802 156.0178
148.830170 92.773 155.9044
149.908661 92.745 155.7916
150.994965 92.718 155.6812
152.089142 92.692 155.5730
153.191238 92.665 155.4670
154.301331 92.639 155.3668
155.419464 92.613 155.2770
156.545700 92.588 155.1998
157.680099 92.563 155.1351
158.822708 92.538 155.0833
159.973602 92.512 155.0462
161.132843 92.487 155.0260
162.300476 92.461 155.0238
163.476578 92.436 155.0388
164.661194 92.413 155.0671
165.854401 92.394 155.1014
167.056244 92.380 155.1328
168.266800 92.371 155.1537
169.486130 92.368 155.1588
170.714294 92.370 155.1433
171.951355 92.378 155.1028
173.197388 92.388 155.0311
174.452454 92.398 154.9224
175.716614 92.408 154.7729
176.989929 92.415 154.5826
178.272476 92.417 154.3558
179.564316 92.415 154.1013
180.865509 92.407 153.8305
182.176132 92.394 153.5551
183.496262 92.376 153.2847
184.825958 92.352 153.0259
186.165283 92.325 152.7820
187.514313 92.294 152.5547
188.873123 92.260 152.3454
190.241776 92.225 152.1552
191.620346 92.189 151.9846
193.008911 92.152 151.8334
194.407532 92.115 151.7014
195.816284 92.079 151.5886
197.235245 92.044 151.4948
198.664490 92.010 151.4187
200.104095 91.978 151.3572
201.554138 91.947 151.3063
203.014679 91.919 151.2619
204.485809 91.894 151.2208
205.967590 91.870 151.1805
207.460114 91.849 151.1386
208.963455 91.829 151.0919
210.477692 91.811 151.0346
212.002899 91.793 150.9610
213.539154 91.776 150.8693
215.086548 91.758 150.7617
216.645157 91.740 150.6412
218.215057 91.720 150.5095
219.796341 91.698 150.3691
221.389069 91.673 150.2255
222.993347 91.647 150.0844
224.609253 91.619 149.9496
226.236862 91.590 149.8231
227.876266 91.560 149.7055
229.527557 91.530 149.5973
231.190811 91.500 149.4979
232.866119 91.470 149.4061
234.553558 91.440 149.3204
236.253235 91.411 149.2395
237.965225 91.383 149.1626
239.689621 91.354 149.0897
241.426514 91.325 149.0211
243.175995 91.297 148.9565
244.938141 91.268 148.8950
246.713058 91.239 148.8353
248.500839 91.211 148.7769
250.301575 91.183 148.7195
252.115356 91.156 148.6626
253.942291 91.129 148.6061
255.782455 91.102 148.5498
257.635956 91.075 148.4937
259.502899 91.048 148.4376
261.383362 91.022 148.3817
263.277466 90.995 148.3266
265.185272 90.970 148.2726
267.106903 90.944 148.2202
269.042480 90.918 148.1689
270.992065 90.893 148.1188
272.955780 90.868 148.0696
274.933716 90.843 148.0212
276.925995 90.818 147.9736
278.932709 90.793 147.9264
280.953979 90.768 147.8792
282.989899 90.743 147.8318
285.040558 90.719 147.7849
287.106079 90.695 147.7389
289.186554 90.671 147.6940
291.282104 90.647 147.6499
293.392853 90.623 147.6061
295.518890 90.600 147.5627
297.660339 90.576 147.5200
299.817322 90.553 147.4783
301.989929 90.529 147.4371
304.178284 90.506 147.3958
306.382477 90.483 147.3539
308.602661 90.460 147.3115
310.838928 90.437 147.2690
313.091400 90.415 147.2258
315.360199 90.392 147.1817
317.645416 90.370 147.1371
319.947205 90.348 147.0927
322.265686 90.325 147.0496
324.600952 90.303 147.0079
326.953156 90.281 146.9673
329.322388 90.259 146.9274
331.708801 90.237 146.8877
334.112488 90.216 146.8478
336.533600 90.194 146.8076
338.972260 90.173 146.7670
341.428589 90.151 146.7260
343.902710 90.130 146.6848
346.394775 90.108 146.6437
348.904907 90.087 146.6026
351.433228 90.065 146.5617
353.979858 90.044 146.5209
356.544952 90.023 146.4805
359.128632 90.003 146.4401
361.731018 89.982 146.3999
364.352264 89.962 146.3597
366.992523 89.941 146.3197
369.651917 89.921 146.2798
372.330566 89.901 146.2399
375.028625 89.881 146.1995
377.746246 89.861 146.1584
380.483551 89.841 146.1167
383.240692 89.821 146.0745
386.017822 89.801 146.0321
388.815063 89.781 145.9899
391.632568 89.762 145.9481
394.470490 89.742 145.9070
397.328979 89.723 145.8667
400.208191 89.704 145.8269
403.108276 89.685 145.7871
406.029358 89.666 145.7469
408.971619 89.647 145.7059
411.935181 89.628 145.6641
414.920227 89.609 145.6215
417.926910 89.590 145.5782
420.955383 89.571 145.5347
424.005798 89.552 145.4915
427.078308 89.534 145.4485
430.173096 89.515 145.4060
433.290314 89.497 145.3638
436.430115 89.478 145.3218
439.592682 89.460 145.2801
442.778137 89.442 145.2386
445.986694 89.424 145.1974
449.218506 89.405 145.1562
452.473724 89.387 145.1149
455.752533 89.369 145.0734
459.055115 89.351 145.0317
462.381622 89.333 144.9897
465.732239 89.316 144.9472
469.107117 89.298 144.9041
472.506470 89.281 144.8605
475.930450 89.264 144.8170
479.379242 89.247 144.7739
482.853027 89.230 144.7315
486.351990 89.213 144.6892
489.876282 89.196 144.6464
493.426117 89.179 144.6025
497.001678 89.163 144.5577
500.603149 89.146 144.5125
504.230713 89.129 144.4673
507.884583 89.113 144.4227
511.564911 89.097 144.3788
515.271912 89.080 144.3353
519.005798 89.064 144.2920
522.766724 89.049 144.2486
526.554932 89.033 144.2050
530.370544 89.017 144.1613
534.213806 89.002 144.1176
538.084961 88.987 144.0738
541.984131 88.972 144.0298
545.911560 88.957 143.9856
549.867432 88.942 143.9410
553.851990 88.927 143.8963
557.865417 88.912 143.8518
561.907959 88.898 143.8080
565.979797 88.883 143.7654
570.081116 88.869 143.7239
574.212158 88.854 143.6828
578.373108 88.840 143.6418
582.564209 88.826 143.6007
586.785706 88.812 143.5591
591.037781 88.799 143.5173
595.320679 88.785 143.4753
599.634644 88.772 143.4333
603.979858 88.759 143.3916
608.356567 88.746 143.3503
612.764954 88.733 143.3094
617.205322 88.720 143.2692
621.677856 88.708 143.2299
626.182800 88.696 143.1918
630.720398 88.683 143.1548
635.290833 88.671 143.1191
639.894409 88.660 143.0844
644.531372 88.648 143.0506
649.201904 88.637 143.0172
653.906311 88.625 142.9839
658.644775 88.614 142.9508
663.417603 88.604 142.9178
668.224976 88.593 142.8854
673.067200 88.583 142.8535
677.944519 88.574 142.8225
682.857178 88.564 142.7927
687.805420 88.555 142.7642
692.789551 88.546 142.7369
697.809814 88.537 142.7108
702.866455 88.528 142.6861
707.959717 88.520 142.6627
713.089905 88.513 142.6406
718.257263 88.506 142.6196
723.462036 88.500 142.5999
728.704529 88.494 142.5813
733.985046 88.488 142.5634
739.303833 88.483 142.5457
744.661133 88.479 142.5277
750.057251 88.474 142.5085
755.492493 88.471 142.4885
760.967102 88.468 142.4683
766.481384 88.466 142.4488
772.035645 88.465 142.4304
777.630127 88.464 142.4134
783.265137 88.464 142.3976
788.940979 88.464 142.3826
794.657959 88.465 142.3682
800.416382 88.467 142.3544
806.216553 88.469 142.3411
812.058716 88.473 142.3285
817.943237 88.477 142.3162
823.870361 88.481 142.3040
829.840454 88.487 142.2914
835.853821 88.493 142.2784
841.910767 88.500 142.2647
848.011597 88.509 142.2504
854.156616 88.518 142.2353
860.346191 88.528 142.2197
866.580627 88.539 142.2033
872.860229 88.552 142.1860
879.185364 88.566 142.1672
885.556274 88.581 142.1465
891.973389 88.597 142.1234
898.437012 88.614 142.0976
904.947449 88.633 142.0689
911.505066 88.652 142.0371
918.110229 88.673 142.0020
924.763245 88.695 141.9629
931.464478 88.718 141.9191
938.214233 88.743 141.8704
945.012939 88.768 141.8162
951.860901 88.795 141.7562
958.758484 88.823 141.6898
965.706055 88.853 141.6164
972.703979 88.883 141.5357
979.752563 88.915 141.4475
986.852234 88.948 141.3516
994.003357 88.981 141.2480
1001.206299 89.016 141.1363
1008.461426 89.052 141.0161
1015.769165 89.089 140.8868
1023.129822 89.126 140.7479
1030.543823 89.164 140.5992
1038.011597 89.204 140.4403
1045.533447 89.243 140.2711
1053.109863 89.284 140.0914
1060.741089 89.325 139.9009
1068.427612 89.366 139.6994
1076.169922 89.408 139.4867
1083.968262 89.451 139.2628
1091.823120 89.493 139.0275
1099.734863 89.536 138.7811
1107.703979 89.579 138.5236
1115.730835 89.623 138.2554
1123.815918 89.666 137.9764
1131.959595 89.709 137.6870
1140.162231 89.752 137.3872
1148.424316 89.795 137.0773
1156.746216 89.838 136.7572
1165.128418 89.880 136.4271
1173.571411 89.922 136.0872
1182.075562 89.964 135.7376
1190.641357 90.006 135.3787
1199.269287 90.047 135.0109
1207.959717 90.088 134.6346
1216.713135 90.129 134.2502
1225.529907 90.169 133.8583
1234.410645 90.208 133.4592
1243.355713 90.247 133.0530
1252.365601 90.285 132.6401
1261.440796 90.323 132.2205
1270.581665 90.360 131.7943
1279.788818 90.397 131.3619
1289.062744 90.433 130.9235
1298.403809 90.469 130.4797
1307.812622 90.505 130.0307
1317.289551 90.540 129.5767
1326.835205 90.575 129.1181
1336.449951 90.609 128.6549
1346.134399 90.643 128.1874
1355.889038 90.677 127.7158
1365.714355 90.710 127.2402
1375.610840 90.743 126.7607
1385.579102 90.775 126.2769
1395.619629 90.808 125.7889
1405.732910 90.840 125.2968
1415.919434 90.872 124.8006
1426.179810 90.904 124.3007
1436.514526 90.936 123.7972
1446.924072 90.968 123.2902
1457.409058 90.999 122.7795
1467.970093 91.031 122.2653
1478.607666 91.063 121.7472
1489.322266 91.094 121.2253
1500.114502 91.126 120.6994
1510.984985 91.158 120.1692
1521.934204 91.190 119.6347
1532.962769 91.222 119.0959
1544.071289 91.254 118.5529
1555.260254 91.287 118.0056
1566.530273 91.319 117.4536
1577.881958 91.352 116.8965
1589.315918 91.385 116.3343
1600.832764 91.418 115.7664
1612.433105 91.451 115.1930
1624.117432 91.485 114.6139
1635.886475 91.519 114.0292
1647.740723 91.553 113.4388
1659.680908 91.587 112.8425
1671.707642 91.621 112.2401
1683.821533 91.655 111.6313
1696.023193 91.690 111.0162
1708.313232 91.724 110.3946
1720.692383 91.758 109.7663
1733.161255 91.793 109.1314
1745.720459 91.827 108.4899
1758.370728 91.862 107.8418
1771.112549 91.896 107.1875
1783.946777 91.930 106.5272
1796.874023 91.964 105.8614
1809.894897 91.997 105.1906
1823.010132 92.030 104.5153
1836.220459 92.063 103.8367
1849.526489 92.095 103.1562
1862.928955 92.127 102.4756
1876.428467 92.158 101.7970
1890.025879 92.189 101.1234
1903.721802 92.219 100.4582
1917.516968 92.251 99.8049
1931.412109 92.283 99.1669
1945.407959 92.317 98.5470
1959.505127 92.354 97.9470
1973.704468 92.396 97.3663
1988.006714 92.444 96.8012
2002.412598 92.501 96.2434
2016.922852 92.567 95.6796
2031.538330 92.644 95.0913
2046.259644 92.731 94.4571
2061.087646 92.826 93.7556
2076.023193 92.928 92.9688
2091.066895 93.033 92.0860
2106.219727 93.137 91.1050
2121.482178 93.237 90.0326
2136.855225 93.331 88.8815
2152.339844 93.416 87.6679
2167.936523 93.493 86.4085
2183.646240 93.560 85.1183
2199.469727 93.619 83.8093
2215.407959 93.671 82.4905
2231.461670 93.716 81.1676
2247.631836 93.756 79.8437
2263.919189 93.790 78.5201
2280.324463 93.821 77.1969
2296.848633 93.848 75.8737
2313.492432 93.871 74.5497
2330.256836 93.892 73.2239
2347.142822 93.909 71.8959
2364.151123 93.924 70.5651
2381.282715 93.936 69.2311
2398.538574 93.944 67.8940
2415.919434 93.950 66.5540
2433.426270 93.952 65.2115
2451.059814 93.952 63.8671
2468.821289 93.948 62.5218
2486.711426 93.941 61.1765
2504.731201 93.931 59.8328
2522.881592 93.917 58.4920
2541.163330 93.900 57.1558
2559.577637 93.880 55.8261
2578.125488 93.856 54.5048
2596.807617 93.829 53.1939
2615.625244 93.799 51.8954
2634.579102 93.767 50.6114
2653.670410 93.731 49.3438
2672.899902 93.693 48.0946
2692.268799 93.653 46.8657
2711.778076 93.611 45.6587
2731.428711 93.568 44.4753
2751.221680 93.524 43.3175
2771.158203 93.479 42.1868
2791.239258 93.433 41.0851
2811.465820 93.389 40.0139
2831.838867 93.345 38.9740
2852.359619 93.304 37.9659
2873.029053 93.265 36.9891
2893.848145 93.230 36.0423
2914.818115 93.200 35.1232
2935.940186 93.175 34.2282
2957.215332 93.157 33.3528
2978.644531 93.145 32.4914
3000.229004 93.141 31.6373
3021.969971 93.146 30.7833
3043.868408 93.159 29.9219
3065.925537 93.181 29.0459
3088.142578 93.211 28.1487
3110.520508 93.250 27.2240
3133.060547 93.299 26.2653
3155.763916 93.356 25.2644
3178.631836 93.423 24.2118
3201.665527 93.499 23.0948
3224.866211 93.583 21.8995
3248.234863 93.675 20.6104
3271.772949 93.772 19.2125
3295.481445 93.872 17.6936
3319.361816 93.971 16.0450
3343.415283 94.067 14.2637
3367.643066 94.156 12.3515
3392.046387 94.235 10.3151
3416.626465 94.301 8.1646
3441.384766 94.351 5.9132
3466.322510 94.384 3.5757
3491.440918 94.397 1.1689
3516.741455 94.389 -1.2898
3542.225098 94.360 -3.7815
3567.893555 94.309 -6.2866
3593.748047 94.235 -8.7850
3619.789795 94.140 -11.2566
3646.020264 94.024 -13.6817
3672.440918 93.888 -16.0413
3699.052979 93.734 -18.3176
3725.857910 93.565 -20.4950
3752.856934 93.383 -22.5592
3780.051758 93.191 -24.4991
3807.443604 92.992 -26.3063
3835.033936 92.790 -27.9760
3862.824219 92.588 -29.5068
3890.815918 92.389 -30.9017
3919.010254 92.196 -32.1665
3947.408936 92.014 -33.3108
3976.013428 91.843 -34.3472
4004.825195 91.688 -35.2914
4033.845703 91.549 -36.1613
4063.076660 91.429 -36.9766
4092.519287 91.328 -37.7579
4122.175293 91.247 -38.5263
4152.046387 91.185 -39.3019
4182.133789 91.141 -40.1037
4212.439453 91.115 -40.9486
4242.964355 91.104 -41.8512
4273.710449 91.107 -42.8229
4304.679688 91.122 -43.8723
4335.873047 91.146 -45.0054
4367.292480 91.178 -46.2258
4398.939453 91.215 -47.5355
4430.815918 91.257 -48.9351
4462.923340 91.302 -50.4249
4495.263672 91.348 -52.0048
4527.838379 91.394 -53.6746
4560.648926 91.438 -55.4333
4593.697266 91.479 -57.2789
4626.984863 91.515 -59.2082
4660.513672 91.546 -61.2162
4694.285645 91.568 -63.2962
4728.302246 91.582 -65.4402
4762.565430 91.585 -67.6389
4797.077148 91.578 -69.8821
4831.838867 91.559 -72.1589
4866.852539 91.528 -74.4589
4902.119629 91.486 -76.7714
4937.642578 91.431 -79.0865
4973.422852 91.366 -81.3950
5009.462402 91.289 -83.6878
5045.763184 91.202 -85.9564
5082.326660 91.105 -88.1929
5119.155273 91.000 -90.3899
5156.250977 90.887 -92.5415
5193.615234 90.767 -94.6428
5231.250488 90.643 -96.6905
5269.158203 90.514 -98.6829
5307.340820 90.383 -100.6197
5345.799805 90.250 -102.5022
5384.537598 90.117 -104.3331
5423.556152 89.984 -106.1163
5462.857422 89.853 -107.8563
5502.443359 89.724 -109.5577
5542.316406 89.597 -111.2249
5582.478516 89.472 -112.8615
5622.931641 89.348 -114.4701
5663.677734 89.227 -116.0519
5704.719238 89.107 -117.6071
5746.058105 88.989 -119.1345
5787.696289 88.872 -120.6322
5829.636230 88.757 -122.0978
5871.880371 88.644 -123.5288
5914.430664 88.532 -124.9232
5957.289062 88.424 -126.2792
6000.458008 88.318 -127.5956
6043.939941 88.215 -128.8721
6087.736816 88.117 -130.1087
6131.851074 88.025 -131.3067
6176.285156 87.939 -132.4678
6221.041016 87.860 -133.5931
6266.121094 87.789 -134.6840
6311.527832 87.727 -135.7412
6357.263672 87.675 -136.7661
6403.331055 87.633 -137.7605
6449.732422 87.603 -138.7273
6496.469727 87.585 -139.6707
6543.545898 87.581 -140.5969
6590.962891 87.591 -141.5134
6638.723633 87.616 -142.4291
6686.830566 87.656 -143.3540
6735.286133 87.712 -144.3000
6784.092773 87.784 -145.2803
6833.252930 87.873 -146.3076
6882.769531 87.978 -147.3931
6932.645020 88.101 -148.5454
6982.881836 88.241 -149.7720
7033.482910 88.398 -151.0787
7084.450195 88.570 -152.4714
7135.787109 88.759 -153.9571
7187.496094 88.966 -155.5466
7239.579590 89.190 -157.2562
7292.040527 89.434 -159.1093
7344.881836 89.698 -161.1354
7398.105957 89.981 -163.3704
7451.715820 90.282 -165.8549
7505.713867 90.597 -168.6303
7560.103516 90.920 -171.7370
7614.887207 91.243 -175.2088
7670.067871 91.557 -179.0700
7725.648438 91.851 176.6682
7781.631836 92.114 172.0112
7838.020508 92.334 166.9824
7894.817871 92.499 161.6238
7952.026855 92.600 155.9961
8009.650391 92.627 150.1761
8067.691406 92.577 144.2526
8126.153320 92.446 138.3223
8185.038574 92.236 132.4832
8244.350586 91.951 126.8286
8304.092773 91.599 121.4414
8364.267578 91.188 116.3901
8424.878906 90.730 111.7268
8485.928711 90.237 107.4856
8547.420898 89.722 103.6852
8609.359375 89.195 100.3301
8671.746094 88.669 97.4131
8734.584961 88.153 94.9149
8797.878906 87.659 92.8055
8861.631836 87.193 91.0453
8925.846680 86.764 89.5859
8990.527344 86.377 88.3727
9055.676758 86.036 87.3484
9121.297852 85.744 86.4573
9187.394531 85.500 85.6484
9253.969727 85.303 84.8790
9321.027344 85.149 84.1163
9388.571289 85.036 83.3373
9456.604492 84.961 82.5278
9525.130859 84.921 81.6799
9594.154297 84.916 80.7892
9663.677734 84.944 79.8522
9733.705078 85.006 78.8628
9804.239258 85.102 77.8110
9875.285156 85.232 76.6821
9946.845703 85.398 75.4592
10018.924805 85.597 74.1246
10091.526367 85.830 72.6619
10164.653320 86.096 71.0563
10238.310547 86.395 69.2939
10312.501953 86.727 67.3599
10387.230469 87.091 65.2357
10462.500977 87.486 62.8982
10538.316406 87.913 60.3184
10614.681641 88.368 57.4625
10691.599609 88.849 54.2943
10769.075195 89.349 50.7769
10847.112305 89.862 46.8757
10925.714844 90.381 42.5612
11004.886719 90.896 37.8118
11084.632812 91.396 32.6176
11164.957031 91.872 26.9831
11245.863281 92.314 20.9288
11327.355469 92.712 14.4905
11409.438477 93.058 7.7181
11492.116211 93.347 0.6714
11575.392578 93.577 -6.5845
11659.272461 93.746 -13.9857
11743.760742 93.858 -21.4744
11828.861328 93.917 -29.0034
11914.578125 93.927 -36.5375
12000.916016 93.893 -44.0535
12087.879883 93.820 -51.5386
12175.473633 93.714 -58.9874
12263.702148 93.577 -66.4015
12352.570312 93.413 -73.7891
12442.082031 93.224 -81.1636
12532.242188 93.011 -88.5413
12623.055664 92.774 -95.9361
12714.527344 92.510 -103.3552
12806.662109 92.216 -110.7962
12899.464844 91.888 -118.2455
12992.939453 91.525 -125.6802
13087.091797 91.124 -133.0688
13181.925781 90.685 -140.3744
13277.447266 90.209 -147.5559
13373.661133 89.699 -154.5708
13470.572266 89.160 -161.3792
13568.185547 88.598 -167.9446
13666.505859 88.021 -174.2383
13765.539062 87.437 179.7606
13865.290039 86.855 174.0631
13965.763672 86.286 168.6707
14066.965820 85.740 163.5746
14168.900391 85.226 158.7571
14271.574219 84.754 154.1910
14374.992188 84.332 149.8408
14479.159180 83.966 145.6638
14584.081055 83.659 141.6106
14689.763672 83.415 137.6284
14796.211914 83.234 133.6616
14903.431641 83.113 129.6545
15011.427734 83.049 125.5530
15120.207031 83.037 121.3054
15229.774414 83.069 116.8671
15340.135742 83.138 112.1995
15451.296875 83.234 107.2727
15563.263672 83.350 102.0664
15676.041016 83.474 96.5690
15789.635742 83.600 90.7764
15904.053711 83.718 84.6907
16019.300781 83.822 78.3188
16135.382812 83.906 71.6692
16252.306641 83.965 64.7522
16370.077148 83.995 57.5771
16488.701172 83.993 50.1533
16608.185547 83.957 42.4886
16728.535156 83.886 34.5902
16849.757812 83.780 26.4639
16971.857422 83.640 18.1129
17094.841797 83.468 9.5380
17218.718750 83.268 0.7350
17343.492188 83.046 -8.3043
17469.169922 82.806 -17.5952
17595.757812 82.557 -27.1591
17723.263672 82.303 -37.0232
17851.693359 82.052 -47.2169
17981.054688 81.804 -57.7675
18111.353516 81.561 -68.6935
18242.595703 81.315 -79.9954
18374.789062 81.058 -91.6498
18507.939453 80.775 -103.6017
18642.054688 80.448 -115.7629
18777.142578 80.060 -128.0146
18913.208984 79.595 -140.2156
19050.261719 79.041 -152.2145
19188.308594 78.389 -163.8636
19327.355469 77.643 -175.0309
19467.410156 76.817 174.3882
19608.478516 75.947 164.4646
19750.570312 75.105 155.2303
19893.691406 74.408 146.6758
20037.849609 0.000 138.7528
