* Measurement data measured by REW V5.31.3
* Source: Headset (CX31993 HIFI AUDIO), MICROPHONE (Master Volume), R, volume: 0.250
* Format: 256k Log Swept Sine, 1 sweep at -12.0 dBFS with no timing reference
* Dated: 12 31, 24 1:04:24 PM
* REW Settings:
*  C-weighting compensation: Off
*  Target level: 75.0 dB
* Note: ; 
* Measurement: Sony LB 6.3K MAX L
* Smoothing: 1/12 octave
* Frequency Step: 96 ppo
* Start Frequency: 0.36621094 Hz
*
* Freq(Hz) SPL(dB) Phase(degrees)
0.366211 34.907 -117.1492
0.368865 34.931 -117.1843
0.371538 34.966 -117.2361
0.374230 35.009 -117.2997
0.376942 35.058 -117.3710
0.379673 35.110 -117.4470
0.382424 35.164 -117.5257
0.385196 35.220 -117.6059
0.387987 35.276 -117.6869
0.390798 35.333 -117.7682
0.393630 35.391 -117.8498
0.396483 35.449 -117.9315
0.399356 35.508 -118.0132
0.402250 35.567 -118.0950
0.405165 35.627 -118.1768
0.408101 35.687 -118.2587
0.411058 35.747 -118.3406
0.414037 35.808 -118.4226
0.417037 35.869 -118.5047
0.420059 35.931 -118.5869
0.423103 35.994 -118.6693
0.426169 36.056 -118.7518
0.429257 36.119 -118.8345
0.432368 36.183 -118.9174
0.435501 36.247 -119.0005
0.438656 36.312 -119.0838
0.441835 36.377 -119.1674
0.445037 36.442 -119.2513
0.448262 36.508 -119.3355
0.451510 36.574 -119.4201
0.454782 36.641 -119.5050
0.458077 36.709 -119.5903
0.461397 36.777 -119.6760
0.464740 36.845 -119.7623
0.468108 36.914 -119.8490
0.471500 36.983 -119.9362
0.474917 37.053 -120.0239
0.478358 37.123 -120.1123
0.481825 37.194 -120.2013
0.485316 37.266 -120.2910
0.488833 37.338 -120.3813
0.492375 37.410 -120.4724
0.495943 37.483 -120.5642
0.499537 37.557 -120.6569
0.503157 37.631 -120.7503
0.506803 37.705 -120.8447
0.510475 37.780 -120.9400
0.514175 37.856 -121.0363
0.517900 37.932 -121.1336
0.521653 38.009 -121.2319
0.525434 38.086 -121.3314
0.529241 38.164 -121.4320
0.533076 38.243 -121.5338
0.536939 38.322 -121.6368
0.540830 38.401 -121.7411
0.544749 38.481 -121.8467
0.548696 38.562 -121.9537
0.552673 38.643 -122.0621
0.556677 38.725 -122.1720
0.560711 38.808 -122.2834
0.564774 38.891 -122.3965
0.568867 38.975 -122.5111
0.572989 39.059 -122.6274
0.577141 39.144 -122.7455
0.581324 39.229 -122.8654
0.585536 39.316 -122.9871
0.589779 39.402 -123.1107
0.594053 39.490 -123.2363
0.598358 39.578 -123.3639
0.602694 39.667 -123.4936
0.607061 39.756 -123.6254
0.611460 39.846 -123.7594
0.615891 39.936 -123.8957
0.620354 40.028 -124.0343
0.624849 40.120 -124.1752
0.629377 40.212 -124.3187
0.633938 40.306 -124.4646
0.638532 40.400 -124.6132
0.643159 40.494 -124.7643
0.647819 40.590 -124.9182
0.652514 40.686 -125.0749
0.657242 40.782 -125.2345
0.662005 40.880 -125.3969
0.666802 40.978 -125.5624
0.671634 41.077 -125.7309
0.676501 41.176 -125.9026
0.681403 41.277 -126.0775
0.686341 41.378 -126.2557
0.691314 41.479 -126.4372
0.696324 41.582 -126.6222
0.701370 41.684 -126.8106
0.706452 41.788 -127.0025
0.711571 41.891 -127.1979
0.716728 41.995 -127.3967
0.721921 42.098 -127.5985
0.727153 42.199 -127.8032
0.732422 42.300 -128.0102
0.737729 42.398 -128.2188
0.743075 42.494 -128.4284
0.748460 42.590 -128.6385
0.753883 42.684 -128.8488
0.759346 42.778 -129.0590
0.764849 42.871 -129.2689
0.770391 42.964 -129.4786
0.775974 43.057 -129.6880
0.781597 43.150 -129.8971
0.787261 43.243 -130.1060
0.792966 43.336 -130.3147
0.798712 43.430 -130.5232
0.804500 43.523 -130.7318
0.810329 43.616 -130.9402
0.816201 43.709 -131.1488
0.822116 43.802 -131.3575
0.828073 43.896 -131.5664
0.834074 43.989 -131.7755
0.840118 44.083 -131.9850
0.846206 44.176 -132.1949
0.852338 44.270 -132.4053
0.858514 44.363 -132.6163
0.864735 44.457 -132.8279
0.871001 44.551 -133.0403
0.877313 44.645 -133.2535
0.883670 44.739 -133.4676
0.890074 44.833 -133.6827
0.896524 44.928 -133.8989
0.903020 45.022 -134.1164
0.909564 45.117 -134.3351
0.916155 45.211 -134.5552
0.922794 45.306 -134.7767
0.929481 45.402 -134.9999
0.936216 45.497 -135.2248
0.943000 45.592 -135.4514
0.949834 45.688 -135.6799
0.956717 45.784 -135.9105
0.963649 45.880 -136.1432
0.970632 45.977 -136.3781
0.977666 46.074 -136.6153
0.984750 46.171 -136.8550
0.991886 46.268 -137.0973
0.999074 46.366 -137.3423
1.006314 46.464 -137.5901
1.013606 46.563 -137.8409
1.020951 46.662 -138.0947
1.028349 46.761 -138.3517
1.035801 46.861 -138.6120
1.043307 46.961 -138.8758
1.050867 47.062 -139.1431
1.058482 47.163 -139.4141
1.066152 47.265 -139.6888
1.073878 47.368 -139.9673
1.081660 47.471 -140.2494
1.089498 47.574 -140.5351
1.097393 47.678 -140.8239
1.105345 47.782 -141.1157
1.113355 47.887 -141.4099
1.121423 47.991 -141.7061
1.129549 48.096 -142.0041
1.137734 48.202 -142.3036
1.145979 48.307 -142.6045
1.154283 48.412 -142.9067
1.162647 48.518 -143.2101
1.171072 48.624 -143.5147
1.179558 48.730 -143.8204
1.188106 48.835 -144.1273
1.196715 48.942 -144.4353
1.205387 49.048 -144.7443
1.214122 49.154 -145.0544
1.222920 49.261 -145.3656
1.231782 49.367 -145.6778
1.240708 49.474 -145.9911
1.249699 49.581 -146.3055
1.258754 49.688 -146.6208
1.267876 49.795 -146.9373
1.277063 49.903 -147.2548
1.286318 50.010 -147.5733
1.295639 50.118 -147.8930
1.305027 50.226 -148.2138
1.314484 50.334 -148.5356
1.324009 50.443 -148.8586
1.333604 50.551 -149.1828
1.343268 50.660 -149.5082
1.353002 50.769 -149.8347
1.362806 50.878 -150.1625
1.372681 50.988 -150.4916
1.382628 51.097 -150.8220
1.392647 51.207 -151.1537
1.402739 51.318 -151.4868
1.412904 51.428 -151.8213
1.423142 51.539 -152.1572
1.433455 51.650 -152.4944
1.443843 51.761 -152.8329
1.454305 51.873 -153.1726
1.464844 51.984 -153.5132
1.475459 52.096 -153.8545
1.486150 52.208 -154.1963
1.496920 52.320 -154.5383
1.507767 52.432 -154.8806
1.518693 52.545 -155.2229
1.529698 52.657 -155.5655
1.540783 52.769 -155.9082
1.551948 52.881 -156.2512
1.563194 52.993 -156.5945
1.574521 53.105 -156.9383
1.585931 53.218 -157.2827
1.597423 53.330 -157.6277
1.608999 53.442 -157.9735
1.620658 53.554 -158.3202
1.632402 53.667 -158.6680
1.644232 53.779 -159.0168
1.656146 53.891 -159.3670
1.668147 54.004 -159.7186
1.680235 54.116 -160.0717
1.692411 54.229 -160.4265
1.704675 54.341 -160.7831
1.717028 54.454 -161.1416
1.729470 54.567 -161.5023
1.742003 54.680 -161.8652
1.754626 54.793 -162.2305
1.767341 54.906 -162.5983
1.780147 55.020 -162.9687
1.793047 55.133 -163.3418
1.806040 55.247 -163.7177
1.819128 55.360 -164.0964
1.832310 55.474 -164.4779
1.845587 55.587 -164.8619
1.858961 55.701 -165.2483
1.872432 55.814 -165.6370
1.886001 55.928 -166.0276
1.899667 56.041 -166.4200
1.913433 56.154 -166.8141
1.927299 56.267 -167.2097
1.941265 56.379 -167.6065
1.955332 56.492 -168.0046
1.969501 56.604 -168.4037
1.983773 56.717 -168.8037
1.998148 56.829 -169.2046
2.012627 56.941 -169.6061
2.027212 57.053 -170.0083
2.041902 57.165 -170.4110
2.056698 57.277 -170.8142
2.071602 57.389 -171.2178
2.086614 57.501 -171.6218
2.101734 57.613 -172.0260
2.116964 57.725 -172.4306
2.132304 57.837 -172.8354
2.147756 57.950 -173.2405
2.163320 58.062 -173.6460
2.178996 58.174 -174.0518
2.194786 58.286 -174.4583
2.210690 58.398 -174.8654
2.226710 58.510 -175.2732
2.242845 58.622 -175.6820
2.259098 58.733 -176.0915
2.275468 58.844 -176.5018
2.291957 58.955 -176.9129
2.308566 59.066 -177.3245
2.325295 59.177 -177.7367
2.342145 59.287 -178.1492
2.359117 59.397 -178.5620
2.376212 59.508 -178.9749
2.393431 59.618 -179.3879
2.410775 59.727 -179.8008
2.428244 59.837 179.7865
2.445840 59.947 179.3740
2.463564 60.057 178.9618
2.481416 60.167 178.5500
2.499397 60.277 178.1387
2.517509 60.387 177.7278
2.535752 60.497 177.3175
2.554127 60.607 176.9075
2.572635 60.718 176.4980
2.591277 60.828 176.0887
2.610055 60.937 175.6797
2.628968 61.047 175.2709
2.648019 61.157 174.8621
2.667208 61.266 174.4534
2.686535 61.375 174.0447
2.706003 61.484 173.6361
2.725612 61.593 173.2275
2.745363 61.702 172.8189
2.765257 61.811 172.4102
2.785295 61.920 172.0016
2.805478 62.029 171.5929
2.825808 62.138 171.1842
2.846285 62.247 170.7755
2.866910 62.357 170.3668
2.887685 62.466 169.9581
2.908611 62.576 169.5496
2.929688 62.685 169.1411
2.950917 62.795 168.7330
2.972301 62.905 168.3252
2.993839 63.015 167.9176
3.015534 63.125 167.5103
3.037386 63.235 167.1031
3.059396 63.345 166.6959
3.081565 63.454 166.2884
3.103896 63.564 165.8806
3.126388 63.674 165.4721
3.149043 63.784 165.0629
3.171862 63.894 164.6527
3.194847 64.005 164.2414
3.217998 64.115 163.8289
3.241317 64.226 163.4152
3.264805 64.337 163.0002
3.288463 64.448 162.5841
3.312293 64.559 162.1671
3.336295 64.670 161.7493
3.360471 64.782 161.3309
3.384822 64.894 160.9119
3.409350 65.005 160.4921
3.434056 65.117 160.0712
3.458940 65.229 159.6490
3.484005 65.341 159.2252
3.509252 65.453 158.7993
3.534681 65.565 158.3711
3.560295 65.677 157.9402
3.586094 65.789 157.5063
3.612081 65.901 157.0692
3.638255 66.013 156.6288
3.664620 66.125 156.1852
3.691175 66.237 155.7386
3.717923 66.350 155.2891
3.744864 66.462 154.8368
3.772001 66.574 154.3819
3.799335 66.686 153.9243
3.826866 66.798 153.4641
3.854597 66.910 153.0009
3.882529 67.022 152.5347
3.910664 67.133 152.0652
3.939002 67.245 151.5922
3.967546 67.356 151.1154
3.996296 67.466 150.6347
4.025255 67.577 150.1498
4.054423 67.687 149.6608
4.083804 67.796 149.1677
4.113396 67.905 148.6705
4.143204 68.014 148.1696
4.173227 68.123 147.6653
4.203468 68.231 147.1577
4.233928 68.338 146.6472
4.264609 68.445 146.1339
4.295512 68.551 145.6179
4.326639 68.657 145.0992
4.357992 68.761 144.5777
4.389572 68.865 144.0529
4.421380 68.969 143.5248
4.453419 69.071 142.9931
4.485691 69.173 142.4579
4.518196 69.273 141.9196
4.550936 69.373 141.3787
4.583914 69.472 140.8360
4.617131 69.570 140.2922
4.650589 69.668 139.7479
4.684289 69.764 139.2034
4.718233 69.859 138.6590
4.752424 69.953 138.1146
4.786862 70.046 137.5697
4.821549 70.138 137.0242
4.856488 70.229 136.4779
4.891680 70.319 135.9313
4.927127 70.407 135.3851
4.962831 70.495 134.8400
4.998794 70.582 134.2971
5.035017 70.667 133.7571
5.071503 70.752 133.2206
5.108253 70.836 132.6879
5.145270 70.918 132.1589
5.182555 71.000 131.6334
5.220110 71.081 131.1110
5.257937 71.160 130.5920
5.296038 71.239 130.0768
5.334415 71.317 129.5659
5.373071 71.394 129.0602
5.412006 71.471 128.5604
5.451224 71.547 128.0670
5.490725 71.622 127.5801
5.530514 71.697 127.0999
5.570590 71.772 126.6260
5.610957 71.846 126.1584
5.651616 71.919 125.6968
5.692570 71.992 125.2412
5.733821 72.066 124.7917
5.775370 72.139 124.3484
5.817221 72.212 123.9114
5.859375 72.286 123.4809
5.901834 72.360 123.0569
5.944602 72.434 122.6391
5.987679 72.508 122.2270
6.031068 72.583 121.8200
6.074771 72.658 121.4174
6.118792 72.733 121.0185
6.163131 72.810 120.6226
6.207792 72.887 120.2295
6.252776 72.964 119.8389
6.298086 73.043 119.4506
6.343725 73.122 119.0641
6.389694 73.202 118.6787
6.435996 73.282 118.2933
6.482634 73.364 117.9070
6.529610 73.445 117.5187
6.576926 73.528 117.1279
6.624585 73.611 116.7340
6.672590 73.695 116.3369
6.720942 73.779 115.9364
6.769645 73.864 115.5318
6.818700 73.949 115.1227
6.868111 74.034 114.7083
6.917881 74.119 114.2881
6.968010 74.203 113.8618
7.018504 74.288 113.4291
7.069362 74.373 112.9902
7.120590 74.457 112.5452
7.172189 74.541 112.0945
7.224161 74.624 111.6383
7.276511 74.706 111.1767
7.329239 74.787 110.7098
7.382350 74.867 110.2378
7.435845 74.946 109.7610
7.489729 75.024 109.2804
7.544002 75.101 108.7967
7.598669 75.176 108.3110
7.653732 75.250 107.8241
7.709194 75.322 107.3365
7.765058 75.393 106.8489
7.821327 75.463 106.3618
7.878004 75.531 105.8762
7.935091 75.597 105.3933
7.992592 75.662 104.9142
8.050510 75.726 104.4399
8.108847 75.788 103.9710
8.167607 75.849 103.5079
8.226793 75.909 103.0513
8.286408 75.968 102.6017
8.346454 76.027 102.1599
8.406936 76.084 101.7265
8.467856 76.141 101.3018
8.529218 76.197 100.8860
8.591024 76.253 100.4789
8.653278 76.309 100.0803
8.715983 76.365 99.6901
8.779143 76.422 99.3080
8.842760 76.478 98.9338
8.906839 76.535 98.5670
8.971381 76.593 98.2066
9.036392 76.651 97.8519
9.101873 76.710 97.5018
9.167829 76.770 97.1556
9.234263 76.830 96.8123
9.301178 76.892 96.4712
9.368578 76.954 96.1312
9.436467 77.017 95.7912
9.504847 77.081 95.4503
9.573723 77.145 95.1075
9.643099 77.210 94.7624
9.712976 77.276 94.4142
9.783361 77.342 94.0626
9.854255 77.408 93.7069
9.925663 77.474 93.3469
9.997588 77.540 92.9823
10.070035 77.607 92.6133
10.143007 77.672 92.2401
10.216507 77.738 91.8627
10.290540 77.803 91.4816
10.365109 77.868 91.0969
10.440219 77.931 90.7092
10.515873 77.995 90.3191
10.592076 78.057 89.9270
10.668830 78.119 89.5334
10.746141 78.181 89.1389
10.824012 78.241 88.7437
10.902447 78.301 88.3484
10.981451 78.361 87.9531
11.061027 78.420 87.5581
11.141180 78.478 87.1635
11.221913 78.537 86.7693
11.303232 78.595 86.3752
11.385140 78.652 85.9813
11.467641 78.709 85.5871
11.550741 78.767 85.1924
11.634442 78.823 84.7967
11.718750 78.880 84.3997
11.803669 78.936 84.0008
11.889203 78.992 83.5998
11.975357 79.048 83.1964
12.062136 79.103 82.7903
12.149543 79.158 82.3813
12.237583 79.212 81.9697
12.326262 79.265 81.5554
12.415583 79.318 81.1388
12.505552 79.369 80.7203
12.596172 79.419 80.3005
12.687449 79.469 79.8801
12.779387 79.517 79.4600
12.871992 79.564 79.0411
12.965268 79.610 78.6242
13.059220 79.654 78.2102
13.153852 79.698 77.8001
13.249170 79.741 77.3948
13.345179 79.783 76.9948
13.441884 79.824 76.6006
13.539289 79.865 76.2127
13.637401 79.906 75.8310
13.736223 79.947 75.4555
13.835761 79.988 75.0857
13.936021 80.029 74.7209
14.037007 80.070 74.3605
14.138725 80.112 74.0034
14.241180 80.155 73.6482
14.344377 80.198 73.2939
14.448323 80.242 72.9393
14.553021 80.287 72.5830
14.658478 80.332 72.2241
14.764700 80.377 71.8617
14.871691 80.423 71.4951
14.979457 80.468 71.1240
15.088005 80.513 70.7481
15.197339 80.558 70.3679
15.307465 80.602 69.9838
15.418389 80.646 69.5965
15.530117 80.689 69.2070
15.642655 80.731 68.8163
15.756008 80.772 68.4255
15.870182 80.812 68.0359
15.985184 80.851 67.6483
16.101019 80.890 67.2637
16.217694 80.929 66.8826
16.335214 80.967 66.5053
16.453586 81.005 66.1319
16.572815 81.043 65.7621
16.692909 81.081 65.3955
16.813872 81.119 65.0312
16.935713 81.158 64.6683
17.058436 81.197 64.3060
17.182048 81.236 63.9431
17.306556 81.276 63.5789
17.431967 81.316 63.2126
17.558286 81.356 62.8437
17.685521 81.396 62.4716
17.813677 81.436 62.0963
17.942762 81.475 61.7177
18.072783 81.514 61.3359
18.203746 81.553 60.9511
18.335658 81.591 60.5635
18.468526 81.628 60.1733
18.602356 81.664 59.7809
18.737156 81.699 59.3865
18.872934 81.733 58.9906
19.009695 81.766 58.5938
19.147447 81.797 58.1971
19.286197 81.827 57.8018
19.425953 81.855 57.4097
19.566721 81.880 57.0232
19.708510 81.904 56.6450
19.851326 81.926 56.2781
19.995177 81.946 55.9258
20.140070 81.965 55.5912
20.286013 81.983 55.2768
20.433014 82.001 54.9843
20.581080 82.020 54.7143
20.730219 82.040 54.4658
20.880439 82.063 54.2360
21.031747 82.088 54.0208
21.184152 82.118 53.8143
21.337661 82.152 53.6098
21.492282 82.189 53.4001
21.648024 82.230 53.1782
21.804895 82.274 52.9381
21.962902 82.320 52.6754
22.122054 82.366 52.3878
22.282360 82.412 52.0748
22.443827 82.457 51.7385
22.606464 82.499 51.3825
22.770280 82.538 51.0121
22.935283 82.574 50.6329
23.101481 82.606 50.2506
23.268884 82.636 49.8703
23.437500 82.663 49.4958
23.607338 82.688 49.1295
23.778406 82.713 48.7721
23.950714 82.736 48.4230
24.124271 82.760 48.0807
24.299086 82.784 47.7427
24.475167 82.808 47.4071
24.652524 82.832 47.0720
24.831166 82.856 46.7364
25.011103 82.879 46.3998
25.192344 82.903 46.0627
25.374898 82.926 45.7255
25.558775 82.948 45.3889
25.743984 82.971 45.0533
25.930536 82.994 44.7185
26.118439 83.017 44.3838
26.307704 83.040 44.0481
26.498341 83.064 43.7102
26.690359 83.087 43.3690
26.883768 83.111 43.0240
27.078579 83.135 42.6750
27.274801 83.158 42.3224
27.472446 83.181 41.9670
27.671522 83.204 41.6099
27.872042 83.226 41.2516
28.074014 83.248 40.8926
28.277450 83.269 40.5330
28.482360 83.290 40.1727
28.688755 83.310 39.8118
28.896645 83.330 39.4507
29.106042 83.349 39.0904
29.316957 83.367 38.7329
29.529400 83.383 38.3803
29.743382 83.399 38.0351
29.958915 83.414 37.6991
30.176009 83.429 37.3734
30.394677 83.444 37.0578
30.614929 83.460 36.7508
30.836778 83.477 36.4500
31.060234 83.495 36.1526
31.285309 83.513 35.8559
31.512015 83.532 35.5577
31.740364 83.551 35.2573
31.970368 83.569 34.9545
32.202039 83.587 34.6501
32.435388 83.605 34.3451
32.670428 83.621 34.0406
32.907171 83.638 33.7369
33.145630 83.653 33.4345
33.385817 83.668 33.1331
33.627745 83.682 32.8326
33.871425 83.696 32.5331
34.116871 83.710 32.2350
34.364096 83.722 31.9383
34.613113 83.735 31.6430
34.863934 83.747 31.3486
35.116572 83.760 31.0537
35.371041 83.772 30.7569
35.627354 83.785 30.4564
35.885525 83.797 30.1516
36.145566 83.809 29.8427
36.407492 83.819 29.5311
36.671316 83.829 29.2189
36.937051 83.838 28.9082
37.204712 83.847 28.6003
37.474313 83.856 28.2953
37.745867 83.865 27.9921
38.019389 83.874 27.6886
38.294893 83.884 27.3832
38.572394 83.894 27.0751
38.851905 83.903 26.7653
39.133442 83.912 26.4559
39.417019 83.920 26.1497
39.702651 83.928 25.8487
39.990353 83.936 25.5535
40.280140 83.944 25.2626
40.572026 83.954 24.9734
40.866028 83.964 24.6825
41.162160 83.975 24.3877
41.460438 83.985 24.0881
41.760877 83.995 23.7848
42.063494 84.003 23.4799
42.368303 84.011 23.1759
42.675322 84.018 22.8741
42.984565 84.025 22.5751
43.296048 84.031 22.2776
43.609789 84.037 21.9805
43.925804 84.042 21.6827
44.244108 84.046 21.3849
44.564719 84.050 21.0883
44.887654 84.052 20.7955
45.212928 84.052 20.5092
45.540560 84.053 20.2311
45.870565 84.053 19.9618
46.202962 84.053 19.7007
46.537768 84.054 19.4457
46.875000 84.056 19.1941
47.214676 84.059 18.9433
47.556813 84.062 18.6911
47.901429 84.065 18.4361
48.248542 84.068 18.1779
48.598171 84.071 17.9166
48.950334 84.074 17.6531
49.305048 84.076 17.3880
49.662333 84.077 17.1217
50.022206 84.078 16.8542
50.384688 84.078 16.5851
50.749796 84.078 16.3138
51.117550 84.077 16.0406
51.487969 84.076 15.7664
51.861072 84.073 15.4924
52.236879 84.070 15.2207
52.615409 84.066 14.9525
52.996681 84.063 14.6882
53.380717 84.060 14.4264
53.767536 84.057 14.1653
54.157158 84.055 13.9031
54.549603 84.054 13.6391
54.944892 84.052 13.3734
55.343045 84.050 13.1067
55.744084 84.048 12.8400
56.148028 84.046 12.5742
56.554900 84.043 12.3105
56.964720 84.039 12.0500
57.377510 84.035 11.7939
57.793291 84.029 11.5425
58.212085 84.024 11.2949
58.633914 84.017 11.0500
59.058799 84.010 10.8065
59.486764 84.003 10.5638
59.917829 83.995 10.3218
60.352019 83.987 10.0795
60.789354 83.978 9.8355
61.229859 83.971 9.5873
61.673556 83.963 9.3323
62.120468 83.956 9.0688
62.570618 83.950 8.7965
63.024031 83.943 8.5170
63.480729 83.937 8.2324
63.940736 83.931 7.9462
64.404077 83.925 7.6617
64.870776 83.920 7.3832
65.340856 83.915 7.1135
65.814343 83.913 6.8521
66.291261 83.912 6.5931
66.771635 83.912 6.3271
67.255489 83.911 6.0481
67.742850 83.906 5.7606
68.233743 83.896 5.4803
68.728193 83.880 5.2261
69.226226 83.862 5.0073
69.727867 83.842 4.8192
70.233144 83.824 4.6472
70.742083 83.806 4.4778
71.254709 83.788 4.3050
71.771050 83.769 4.1289
72.291132 83.750 3.9500
72.814984 83.731 3.7656
73.342631 83.713 3.5721
73.874102 83.695 3.3674
74.409424 83.678 3.1527
74.948626 83.660 2.9313
75.491734 83.643 2.7065
76.038779 83.625 2.4811
76.589787 83.608 2.2578
77.144788 83.590 2.0390
77.703811 83.573 1.8267
78.266885 83.556 1.6204
78.834039 83.539 1.4181
79.405303 83.523 1.2170
79.980706 83.506 1.0156
80.560280 83.489 0.8134
81.144053 83.471 0.6105
81.732056 83.452 0.4081
82.324320 83.432 0.2079
82.920876 83.412 0.0114
83.521755 83.391 -0.1814
84.126988 83.371 -0.3716
84.736607 83.352 -0.5612
85.350643 83.332 -0.7517
85.969129 83.312 -0.9438
86.592097 83.291 -1.1361
87.219579 83.268 -1.3260
87.851608 83.245 -1.5120
88.488217 83.222 -1.6951
89.129439 83.198 -1.8784
89.775308 83.174 -2.0638
90.425856 83.149 -2.2513
91.081119 83.124 -2.4393
91.741131 83.099 -2.6266
92.405925 83.073 -2.8129
93.075536 83.048 -2.9985
93.750000 83.024 -3.1840
94.429351 82.999 -3.3682
95.113625 82.973 -3.5495
95.802858 82.947 -3.7256
96.497085 82.921 -3.8953
97.196342 82.894 -4.0590
97.900667 82.866 -4.2178
98.610096 82.838 -4.3730
99.324665 82.808 -4.5258
100.044413 82.778 -4.6769
100.769376 82.746 -4.8273
101.499592 82.715 -4.9781
102.235100 82.682 -5.1317
102.975938 82.649 -5.2896
103.722144 82.614 -5.4514
104.473757 82.578 -5.6142
105.230817 82.540 -5.7726
105.993363 82.500 -5.9216
106.761435 82.458 -6.0581
107.535072 82.416 -6.1812
108.314315 82.373 -6.2922
109.099206 82.329 -6.3945
109.889783 82.283 -6.4919
110.686090 82.237 -6.5862
111.488167 82.188 -6.6754
112.296056 82.137 -6.7552
113.109800 82.084 -6.8207
113.929440 82.031 -6.8672
114.755020 81.977 -6.8894
115.586582 81.925 -6.8810
116.424170 81.875 -6.8373
117.267827 81.830 -6.7567
118.117598 81.789 -6.6427
118.973527 81.755 -6.5040
119.835658 81.726 -6.3531
120.704037 81.703 -6.2014
121.578708 81.682 -6.0574
122.459718 81.664 -5.9268
123.347111 81.646 -5.8114
124.240935 81.628 -5.7091
125.141236 81.610 -5.6163
126.048061 81.592 -5.5315
126.961458 81.575 -5.4573
127.881473 81.558 -5.3997
128.808154 81.543 -5.3646
129.741551 81.527 -5.3533
130.681712 81.511 -5.3615
131.628686 81.494 -5.3809
132.582521 81.476 -5.4020
133.543269 81.459 -5.4178
134.510979 81.445 -5.4312
135.485701 81.432 -5.4575
136.467486 81.419 -5.5096
137.456386 81.402 -5.5786
138.452451 81.380 -5.6407
139.455735 81.353 -5.6811
140.466288 81.325 -5.7004
141.484165 81.296 -5.7081
142.509418 81.267 -5.7137
143.542100 81.238 -5.7233
144.582265 81.209 -5.7375
145.629968 81.180 -5.7548
146.685262 81.152 -5.7730
147.748204 81.124 -5.7899
148.818849 81.096 -5.8022
149.897251 81.068 -5.8076
150.983469 81.039 -5.8038
152.077557 81.009 -5.7892
153.179574 80.979 -5.7638
154.289576 80.947 -5.7288
155.407622 80.914 -5.6868
156.533770 80.881 -5.6412
157.668078 80.848 -5.5935
158.810606 80.816 -5.5435
159.961413 80.785 -5.4891
161.120559 80.756 -5.4296
162.288105 80.728 -5.3647
163.464112 80.701 -5.2950
164.648640 80.674 -5.2222
165.841752 80.645 -5.1492
167.043510 80.616 -5.0792
168.253976 80.586 -5.0125
169.473213 80.555 -4.9454
170.701286 80.525 -4.8718
171.938258 80.495 -4.7856
173.184194 80.468 -4.6844
174.439158 80.442 -4.5688
175.703216 80.418 -4.4421
176.976434 80.394 -4.3098
178.258878 80.371 -4.1774
179.550615 80.346 -4.0477
180.851713 80.321 -3.9207
182.162239 80.295 -3.7947
183.482262 80.269 -3.6693
184.811850 80.242 -3.5453
186.151073 80.216 -3.4244
187.500000 80.189 -3.3074
188.858702 80.160 -3.1926
190.227250 80.131 -3.0780
191.605715 80.101 -2.9609
192.994169 80.072 -2.8405
194.392685 80.044 -2.7173
195.801334 80.018 -2.5924
197.220191 79.994 -2.4650
198.649330 79.971 -2.3319
200.088825 79.948 -2.1897
201.538751 79.925 -2.0365
202.999184 79.901 -1.8740
204.470200 79.878 -1.7078
205.951875 79.854 -1.5441
207.444287 79.831 -1.3857
208.947514 79.808 -1.2297
210.461634 79.785 -1.0691
211.986726 79.762 -0.8984
213.522869 79.741 -0.7158
215.070144 79.720 -0.5231
216.628631 79.699 -0.3250
218.198411 79.680 -0.1251
219.779567 79.660 0.0741
221.372180 79.641 0.2716
222.976334 79.623 0.4670
224.592112 79.604 0.6615
226.219600 79.587 0.8577
227.858880 79.570 1.0598
229.510039 79.554 1.2714
231.173164 79.538 1.4928
232.848340 79.523 1.7189
234.535655 79.508 1.9405
236.235197 79.493 2.1487
237.947054 79.479 2.3398
239.671317 79.465 2.5156
241.408074 79.452 2.6813
243.157416 79.439 2.8451
244.919435 79.427 3.0152
246.694223 79.414 3.1962
248.481871 79.401 3.3883
250.282473 79.387 3.5889
252.096123 79.373 3.7938
253.922915 79.359 3.9988
255.762945 79.345 4.1994
257.616309 79.333 4.3935
259.483103 79.323 4.5822
261.363424 79.313 4.7694
263.257372 79.305 4.9586
265.165043 79.297 5.1511
267.086538 79.289 5.3454
269.021957 79.282 5.5407
270.971401 79.275 5.7406
272.934972 79.267 5.9537
274.912771 79.259 6.1885
276.904902 79.251 6.4455
278.911469 79.245 6.7161
280.932577 79.240 6.9889
282.968330 79.236 7.2555
285.018835 79.233 7.5120
287.084199 79.231 7.7583
289.164530 79.227 7.9963
291.259935 79.223 8.2278
293.370525 79.218 8.4550
295.496408 79.212 8.6816
297.637697 79.206 8.9105
299.794503 79.202 9.1413
301.966937 79.199 9.3711
304.155114 79.198 9.5969
306.359147 79.198 9.8182
308.579152 79.199 10.0371
310.815244 79.201 10.2573
313.067539 79.202 10.4812
315.336156 79.203 10.7086
317.621211 79.204 10.9373
319.922826 79.204 11.1658
322.241118 79.204 11.3939
324.576210 79.203 11.6216
326.928223 79.200 11.8467
329.297280 79.197 12.0679
331.683504 79.193 12.2855
334.087019 79.189 12.5027
336.507952 79.188 12.7238
338.946427 79.190 12.9545
341.402572 79.196 13.1987
343.876516 79.206 13.4536
346.368387 79.217 13.7091
348.878315 79.229 13.9526
351.406431 79.241 14.1750
353.952867 79.252 14.3771
356.517756 79.262 14.5671
359.101230 79.271 14.7542
361.703426 79.279 14.9438
364.324478 79.286 15.1376
366.964523 79.294 15.3347
369.623699 79.301 15.5338
372.302145 79.308 15.7347
375.000000 79.315 15.9370
377.717405 79.321 16.1385
380.454501 79.327 16.3369
383.211431 79.333 16.5312
385.988339 79.340 16.7238
388.785369 79.347 16.9188
391.602668 79.355 17.1223
394.440383 79.362 17.3386
397.298660 79.368 17.5662
400.177650 79.374 17.7991
403.077502 79.377 18.0316
405.998368 79.379 18.2631
408.940400 79.379 18.4973
411.903750 79.380 18.7416
414.888575 79.381 19.0020
417.895028 79.386 19.2773
420.923268 79.394 19.5601
423.973452 79.406 19.8403
427.045738 79.422 20.1102
430.140287 79.440 20.3629
433.257261 79.460 20.5938
436.396822 79.480 20.8013
439.559133 79.499 20.9859
442.744360 79.517 21.1477
445.952668 79.535 21.2883
449.184225 79.551 21.4148
452.439199 79.566 21.5387
455.717760 79.580 21.6708
459.020079 79.593 21.8172
462.346327 79.604 21.9781
465.696680 79.615 22.1487
469.071310 79.627 22.3223
472.470394 79.641 22.4945
475.894109 79.657 22.6648
479.342634 79.675 22.8353
482.816148 79.695 23.0079
486.314833 79.716 23.1835
489.838871 79.735 23.3619
493.388445 79.753 23.5427
496.963741 79.769 23.7249
500.564945 79.781 23.9064
504.192245 79.792 24.0869
507.845830 79.801 24.2675
511.525890 79.810 24.4488
515.232618 79.819 24.6315
518.966206 79.831 24.8147
522.726849 79.844 24.9968
526.514743 79.858 25.1766
530.330086 79.872 25.3542
534.173076 79.886 25.5288
538.043915 79.899 25.6996
541.942803 79.910 25.8677
545.869944 79.921 26.0347
549.825542 79.931 26.1998
553.809805 79.941 26.3622
557.822939 79.952 26.5242
561.865154 79.964 26.6912
565.936660 79.978 26.8654
570.037671 79.991 27.0433
574.168399 80.006 27.2190
578.329060 80.020 27.3890
582.519870 80.034 27.5540
586.741049 80.047 27.7162
590.992817 80.060 27.8769
595.275394 80.073 28.0361
599.589005 80.086 28.1950
603.933874 80.099 28.3566
608.310228 80.114 28.5238
612.718295 80.129 28.6975
617.158304 80.144 28.8772
621.630488 80.157 29.0610
626.135079 80.168 29.2456
630.672311 80.177 29.4283
635.242423 80.183 29.6085
639.845651 80.187 29.7857
644.482237 80.191 29.9594
649.152421 80.193 30.1305
653.856447 80.196 30.3015
658.594560 80.200 30.4757
663.367008 80.205 30.6583
668.174039 80.212 30.8550
673.015903 80.222 31.0681
677.892854 80.233 31.2920
682.805145 80.246 31.5148
687.753032 80.260 31.7257
692.736774 80.273 31.9221
697.756631 80.285 32.1090
702.812863 80.295 32.2944
707.905735 80.303 32.4830
713.035511 80.310 32.6758
718.202461 80.316 32.8727
723.406852 80.323 33.0737
728.648956 80.332 33.2789
733.929047 80.341 33.4880
739.247399 80.353 33.7019
744.604290 80.366 33.9240
750.000000 80.380 34.1599
755.434809 80.396 34.4126
760.909001 80.413 34.6795
766.422861 80.429 34.9526
771.976677 80.444 35.2225
777.570739 80.459 35.4830
783.205337 80.473 35.7329
788.880766 80.487 35.9742
794.597321 80.500 36.2101
800.355301 80.512 36.4454
806.155005 80.525 36.6852
811.996736 80.538 36.9337
817.880799 80.553 37.1944
823.807501 80.569 37.4700
829.777150 80.586 37.7601
835.790057 80.606 38.0605
841.846536 80.626 38.3647
847.946903 80.647 38.6659
854.091476 80.669 38.9585
860.280575 80.691 39.2393
866.514523 80.714 39.5073
872.793644 80.737 39.7631
879.118267 80.760 40.0093
885.488720 80.782 40.2497
891.905336 80.804 40.4891
898.368450 80.827 40.7314
904.878398 80.851 40.9795
911.435520 80.877 41.2341
918.040157 80.905 41.4952
924.692655 80.936 41.7614
931.393359 80.969 42.0311
938.142619 81.006 42.3033
944.940787 81.045 42.5779
951.788218 81.085 42.8535
958.685268 81.124 43.1255
965.632296 81.162 43.3876
972.629666 81.199 43.6367
979.677741 81.235 43.8757
986.776890 81.272 44.1113
993.927482 81.308 44.3496
1001.129891 81.346 44.5946
1008.384491 81.385 44.8475
1015.691660 81.425 45.1054
1023.051781 81.467 45.3625
1030.465236 81.511 45.6112
1037.932411 81.556 45.8439
1045.453698 81.603 46.0542
1053.029486 81.649 46.2386
1060.660172 81.694 46.3983
1068.346153 81.737 46.5413
1076.087829 81.778 46.6778
1083.885605 81.819 46.8167
1091.739887 81.860 46.9638
1099.651084 81.902 47.1215
1107.619609 81.947 47.2888
1115.645878 81.993 47.4608
1123.730308 82.040 47.6315
1131.873321 82.086 47.7949
1140.075341 82.131 47.9462
1148.336797 82.174 48.0818
1156.658119 82.216 48.1990
1165.039741 82.256 48.2953
1173.482099 82.296 48.3698
1181.985634 82.336 48.4255
1190.550789 82.377 48.4694
1199.178011 82.420 48.5096
1207.867749 82.463 48.5522
1216.620457 82.505 48.5983
1225.436590 82.545 48.6438
1234.316609 82.583 48.6825
1243.260976 82.617 48.7077
1252.270157 82.647 48.7149
1261.344623 82.674 48.7026
1270.484846 82.698 48.6714
1279.691303 82.721 48.6210
1288.964474 82.742 48.5515
1298.304842 82.761 48.4649
1307.712894 82.779 48.3660
1317.189120 82.795 48.2615
1326.734016 82.808 48.1594
1336.348077 82.819 48.0684
1346.031806 82.828 47.9979
1355.785708 82.834 47.9562
1365.610290 82.839 47.9479
1375.506065 82.843 47.9724
1385.473549 82.844 48.0257
1395.513261 82.843 48.1005
1405.625726 82.839 48.1874
1415.811469 82.831 48.2769
1426.071023 82.818 48.3621
1436.404921 82.800 48.4425
1446.813703 82.780 48.5240
1457.297912 82.757 48.6169
1467.858093 82.734 48.7321
1478.494798 82.711 48.8757
1489.208581 82.689 49.0469
1500.000000 82.667 49.2408
1510.869618 82.645 49.4524
1521.818002 82.621 49.6787
1532.845723 82.593 49.9178
1543.953355 82.560 50.1671
1555.141477 82.522 50.4235
1566.410674 82.479 50.6877
1577.761531 82.434 50.9680
1589.194642 82.388 51.2805
1600.710601 82.343 51.6454
1612.310010 82.301 52.0822
1623.993473 82.263 52.6026
1635.761599 82.229 53.2071
1647.615002 82.199 53.8882
1659.554299 82.174 54.6382
1671.580114 82.154 55.4503
1683.693072 82.140 56.3184
1695.893807 82.134 57.2380
1708.182952 82.139 58.2075
1720.561150 82.157 59.2276
1733.029045 82.193 60.2990
1745.587288 82.249 61.4173
1758.236533 82.330 62.5674
1770.977440 82.435 63.7208
1783.810673 82.565 64.8366
1796.736900 82.716 65.8694
1809.756796 82.885 66.7786
1822.871040 83.066 67.5351
1836.080315 83.251 68.1250
1849.385310 83.437 68.5508
1862.786718 83.619 68.8299
1876.285239 83.795 68.9923
1889.881575 83.967 69.0739
1903.576436 84.135 69.1081
1917.370535 84.302 69.1176
1931.264593 84.468 69.1103
1945.259332 84.633 69.0787
1959.355483 84.798 69.0049
1973.553781 84.960 68.8683
1987.854965 85.118 68.6544
2002.259781 85.270 68.3564
2016.768981 85.416 67.9731
2031.383320 85.554 67.5070
2046.103561 85.685 66.9630
2060.930471 85.807 66.3492
2075.864823 85.920 65.6792
2090.907395 86.023 64.9687
2106.058972 86.116 64.2338
2121.320344 86.201 63.4920
2136.692305 86.279 62.7639
2152.175658 86.350 62.0688
2167.771210 86.418 61.4205
2183.479774 86.482 60.8220
2199.302169 86.543 60.2662
2215.239219 86.601 59.7400
2231.291755 86.656 59.2262
2247.460615 86.707 58.7068
2263.746641 86.753 58.1674
2280.150683 86.794 57.6020
2296.673595 86.829 57.0140
2313.316238 86.859 56.4149
2330.079481 86.883 55.8206
2346.964198 86.905 55.2473
2363.971268 86.925 54.7087
2381.101578 86.944 54.2138
2398.356022 86.963 53.7642
2415.735498 86.982 53.3540
2433.240913 87.000 52.9691
2450.873180 87.015 52.5894
2468.633217 87.028 52.1951
2486.521951 87.037 51.7725
2504.540314 87.044 51.3147
2522.689246 87.049 50.8218
2540.969692 87.053 50.2999
2559.382606 87.057 49.7580
2577.928947 87.060 49.2060
2596.609683 87.063 48.6537
2615.425787 87.064 48.1106
2634.378241 87.064 47.5871
2653.468031 87.063 47.0948
2672.696154 87.062 46.6451
2692.063613 87.060 46.2463
2711.571415 87.059 45.8997
2731.220579 87.058 45.5989
2751.012130 87.056 45.3296
2770.947098 87.054 45.0703
2791.026522 87.051 44.7964
2811.251451 87.050 44.4859
2831.622938 87.049 44.1276
2852.142045 87.050 43.7253
2872.809842 87.052 43.2970
2893.627406 87.053 42.8676
2914.595823 87.054 42.4597
2935.716186 87.055 42.0868
2956.989596 87.056 41.7498
2978.417161 87.055 41.4378
3000.000000 87.053 41.1311
3021.739237 87.048 40.8076
3043.636005 87.039 40.4500
3065.691446 87.024 40.0475
3087.906710 87.003 39.5966
3110.282955 86.978 39.1013
3132.821347 86.949 38.5721
3155.523062 86.917 38.0227
3178.389283 86.883 37.4679
3201.421202 86.848 36.9213
3224.620020 86.811 36.3952
3247.986946 86.774 35.9012
3271.523198 86.736 35.4514
3295.230004 86.699 35.0581
3319.108599 86.663 34.7319
3343.160228 86.629 34.4770
3367.386145 86.597 34.2881
3391.787613 86.567 34.1491
3416.365904 86.538 34.0345
3441.122300 86.508 33.9139
3466.058091 86.478 33.7608
3491.174576 86.447 33.5583
3516.473066 86.412 33.3030
3541.954880 86.376 33.0061
3567.621345 86.338 32.6913
3593.473800 86.299 32.3882
3619.513592 86.260 32.1233
3645.742080 86.222 31.9125
3672.160630 86.183 31.7572
3698.770620 86.144 31.6447
3725.573436 86.104 31.5514
3752.570477 86.062 31.4493
3779.763150 86.018 31.3138
3807.152872 85.971 31.1309
3834.741071 85.920 30.9021
3862.529185 85.868 30.6448
3890.518664 85.814 30.3867
3918.710966 85.761 30.1573
3947.107561 85.708 29.9798
3975.709929 85.656 29.8678
4004.519563 85.606 29.8220
4033.537962 85.556 29.8296
4062.766641 85.505 29.8654
4092.207123 85.453 29.8979
4121.860942 85.399 29.8977
4151.729646 85.342 29.8476
4181.814790 85.281 29.7481
4212.117944 85.218 29.6185
4242.640687 85.153 29.4935
4273.384610 85.089 29.4123
4304.351317 85.026 29.4067
4335.542421 84.966 29.4928
4366.959549 84.910 29.6671
4398.604338 84.857 29.9085
4430.478438 84.806 30.1832
4462.583511 84.757 30.4539
4494.921231 84.709 30.6891
4527.493283 84.662 30.8698
4560.301365 84.617 30.9925
4593.347189 84.574 31.0676
4626.632476 84.535 31.1127
4660.158962 84.500 31.1460
4693.928395 84.469 31.1830
4727.942535 84.444 31.2378
4762.203156 84.425 31.3256
4796.712043 84.412 31.4638
4831.470996 84.408 31.6719
4866.481826 84.412 31.9680
4901.746360 84.426 32.3612
4937.266434 84.451 32.8442
4973.043902 84.487 33.3916
5009.080628 84.534 33.9632
5045.378492 84.592 34.5102
5081.939384 84.660 34.9845
5118.765212 84.739 35.3497
5155.857894 84.828 35.5876
5193.219366 84.929 35.6997
5230.851574 85.040 35.7050
5268.756481 85.162 35.6316
5306.936062 85.296 35.5064
5345.392309 85.439 35.3436
5384.127225 85.591 35.1366
5423.142830 85.748 34.8557
5462.441159 85.906 34.4536
5502.024259 86.062 33.8770
5541.894195 86.210 33.0804
5582.053045 86.348 32.0367
5622.502902 86.471 30.7411
5663.245876 86.578 29.2113
5704.284090 86.665 27.4818
5745.619684 86.730 25.5946
5787.254813 86.772 23.5919
5829.191647 86.787 21.5139
5871.432373 86.776 19.4006
5913.979192 86.735 17.2946
5956.834323 86.665 15.2421
6000.000000 86.566 13.2934
6043.478473 86.440 11.4974
6087.272010 86.288 9.8915
6131.382892 86.112 8.4920
6175.813420 85.916 7.2938
6220.565910 85.702 6.2751
6265.642695 85.472 5.4070
6311.046124 85.231 4.6608
6356.778566 84.983 4.0126
6402.842404 84.737 3.4435
6449.240040 84.496 2.9353
6495.973891 84.263 2.4747
6543.046396 84.032 2.0750
6590.460007 83.796 1.7926
6638.217197 83.549 1.7073
6686.320456 83.292 1.8799
6734.772290 83.027 2.3296
6783.575226 82.762 3.0357
6832.731809 82.499 3.9564
6882.244600 82.245 5.0488
6932.116181 82.005 6.2877
6982.349153 81.785 7.6748
7032.946133 81.595 9.2363
7083.909760 81.444 11.0040
7135.242690 81.342 12.9891
7186.947600 81.297 15.1646
7239.027185 81.308 17.4748
7291.484160 81.374 19.8619
7344.321260 81.493 22.2703
7397.541239 81.669 24.6259
7451.146872 81.904 26.8267
7505.140954 82.204 28.7564
7559.526299 82.568 30.3077
7614.305743 82.992 31.3988
7669.482141 83.468 31.9777
7725.058371 83.983 32.0176
7781.037328 84.521 31.5074
7837.421932 85.061 30.4422
7894.215122 85.580 28.8175
7951.419859 86.054 26.6332
8009.039125 86.462 23.9030
8067.075924 86.784 20.6683
8125.533282 87.006 17.0066
8184.414245 87.118 13.0334
8243.721885 87.118 8.9012
8303.459292 87.012 4.7880
8363.629581 86.811 0.8801
8424.235888 86.532 -2.6509
8485.281374 86.196 -5.6686
8546.769221 85.823 -8.0889
8608.702634 85.435 -9.8932
8671.084842 85.050 -11.1312
8733.919097 84.683 -11.9100
8797.208675 84.344 -12.3726
8860.956876 84.038 -12.6718
8925.167022 83.768 -12.9431
8989.842461 83.534 -13.2839
9054.986566 83.335 -13.7477
9120.602731 83.169 -14.3533
9186.694378 83.034 -15.1005
9253.264952 82.927 -15.9814
9320.317925 82.844 -16.9868
9387.856790 82.782 -18.1082
9455.885071 82.738 -19.3354
9524.406312 82.707 -20.6526
9593.424086 82.686 -22.0374
9662.941992 82.671 -23.4681
9732.963653 82.655 -24.9363
9803.492719 82.634 -26.4604
9874.532869 82.600 -28.0881
9946.087805 82.544 -29.8840
10018.161257 82.459 -31.9135
10090.756983 82.337 -34.2246
10163.878768 82.171 -36.8305
10237.530423 81.956 -39.6956
10311.715789 81.691 -42.7347
10386.438732 81.372 -45.8279
10461.703149 81.001 -48.8409
10537.512962 80.578 -51.6464
10613.872125 80.107 -54.1447
10690.784618 79.590 -56.2820
10768.254450 79.032 -58.0559
10846.285661 78.436 -59.5056
10924.882318 77.808 -60.6960
11004.048518 77.152 -61.6984
11083.788390 76.474 -62.5695
11164.106090 75.778 -63.3359
11245.005805 75.070 -63.9924
11326.491752 74.357 -64.5139
11408.568180 73.642 -64.8684
11491.239368 72.931 -65.0242
11574.509626 72.226 -64.9516
11658.383294 71.530 -64.6204
11742.864745 70.845 -63.9971
11827.958384 70.172 -63.0413
11913.668646 69.514 -61.7062
12000.000000 68.871 -59.9468
12086.956947 68.246 -57.7400
12174.544019 67.639 -55.1041
12262.765784 67.052 -52.1025
12351.626840 66.483 -48.8313
12441.131819 65.933 -45.3984
12531.285389 65.401 -41.8950
12622.092249 64.886 -38.3661
12713.557132 64.391 -34.7920
12805.684808 63.917 -31.0911
12898.480079 63.468 -27.1366
12991.947783 63.050 -22.7787
13086.092792 62.669 -17.8715
13180.920015 62.338 -12.3057
13276.434395 62.070 -6.0350
13372.640911 61.885 0.9141
13469.544580 61.810 8.4423
13567.150452 61.874 16.3809
13665.463617 62.112 24.5056
13764.489200 62.551 32.5578
13864.232362 63.202 40.2641
13964.698305 64.057 47.3519
14065.892266 65.086 53.5683
14167.819519 66.245 58.6966
14270.485380 67.485 62.5632
14373.895200 68.757 65.0396
14478.054370 70.016 66.0477
14582.968320 71.221 65.5667
14688.642520 72.339 63.6357
14795.082478 73.340 60.3579
14902.293745 74.199 55.9100
15010.281908 74.899 50.5524
15119.052599 75.434 44.6186
15228.611486 75.808 38.4788
15338.964283 76.039 32.4879
15450.116741 76.154 26.9321
15562.074656 76.191 21.9810
15674.843864 76.185 17.6571
15788.430244 76.171 13.8394
15902.839718 76.174 10.2980
16018.078250 76.207 6.7440
16134.151848 76.271 2.8834
16251.066563 76.354 -1.5233
16368.828491 76.434 -6.6146
16487.443769 76.484 -12.4166
16606.918584 76.472 -18.8656
16727.259161 76.369 -25.8336
16848.471777 76.147 -33.1417
16970.562748 75.787 -40.5676
17093.538442 75.280 -47.8609
17217.405268 74.629 -54.7674
17342.169684 73.847 -61.0520
17467.838194 72.954 -66.5104
17594.417350 71.976 -70.9819
17721.913751 70.938 -74.3736
17850.334044 69.870 -76.6869
17979.684923 68.796 -78.0259
18109.973131 67.739 -78.5806
18241.205462 66.717 -78.6015
18373.388756 65.743 -78.3602
18506.529905 64.826 -78.0917
18640.635849 63.966 -77.9447
18775.713581 63.162 -77.9707
18911.770141 62.406 -78.1450
19048.812624 61.691 -78.3971
19186.848172 61.005 -78.6433
19325.883983 60.343 -78.8239
19465.927305 59.703 -78.9264
19606.985439 59.099 -78.9769
19749.065738 58.562 -79.0097
19892.175609 58.147 -79.0419
20036.322514 57.918 -79.0668
