* Measurement data measured by REW V5.31.3
* Source: Headset (CX31993 HIFI AUDIO), MICROPHONE (Master Volume), R, volume: 0.250
* Format: 256k Log Swept Sine, 1 sweep at -12.0 dBFS with no timing reference
* Dated: 12 31, 24 1:02:01 PM
* REW Settings:
*  C-weighting compensation: Off
*  Target level: 75.0 dB
* Note: ; 
* Measurement: Sony LB 1K MIN L
* Smoothing: 1/12 octave
* Frequency Step: 96 ppo
* Start Frequency: 0.36621094 Hz
*
* Freq(Hz) SPL(dB) Phase(degrees)
0.366211 15.520 -144.8028
0.368865 15.589 -140.2879
0.371538 15.692 -133.8277
0.374230 15.818 -126.3713
0.376942 15.959 -118.8019
0.379673 16.109 -111.7241
0.382424 16.265 -105.4249
0.385196 16.425 -99.9618
0.387987 16.588 -95.2729
0.390798 16.752 -91.2528
0.393630 16.918 -87.7923
0.396483 17.086 -84.7942
0.399356 17.254 -82.1774
0.402250 17.424 -79.8761
0.405165 17.595 -77.8375
0.408101 17.767 -76.0193
0.411058 17.941 -74.3876
0.414037 18.116 -72.9149
0.417037 18.292 -71.5790
0.420059 18.470 -70.3616
0.423103 18.648 -69.2478
0.426169 18.828 -68.2250
0.429257 19.010 -67.2828
0.432368 19.192 -66.4125
0.435501 19.376 -65.6066
0.438656 19.561 -64.8587
0.441835 19.748 -64.1635
0.445037 19.936 -63.5163
0.448262 20.125 -62.9130
0.451510 20.316 -62.3501
0.454782 20.508 -61.8245
0.458077 20.702 -61.3335
0.461397 20.897 -60.8748
0.464740 21.093 -60.4462
0.468108 21.291 -60.0459
0.471500 21.490 -59.6722
0.474917 21.691 -59.3236
0.478358 21.893 -58.9988
0.481825 22.097 -58.6965
0.485316 22.302 -58.4158
0.488833 22.508 -58.1557
0.492375 22.716 -57.9152
0.495943 22.926 -57.6936
0.499537 23.137 -57.4902
0.503157 23.350 -57.3043
0.506803 23.564 -57.1354
0.510475 23.779 -56.9828
0.514175 23.997 -56.8462
0.517900 24.216 -56.7251
0.521653 24.436 -56.6190
0.525434 24.658 -56.5277
0.529241 24.882 -56.4507
0.533076 25.107 -56.3879
0.536939 25.334 -56.3388
0.540830 25.563 -56.3034
0.544749 25.793 -56.2813
0.548696 26.025 -56.2723
0.552673 26.259 -56.2764
0.556677 26.494 -56.2933
0.560711 26.731 -56.3229
0.564774 26.970 -56.3651
0.568867 27.210 -56.4197
0.572989 27.453 -56.4868
0.577141 27.697 -56.5662
0.581324 27.942 -56.6578
0.585536 28.190 -56.7617
0.589779 28.439 -56.8777
0.594053 28.690 -57.0059
0.598358 28.943 -57.1463
0.602694 29.198 -57.2988
0.607061 29.455 -57.4634
0.611460 29.714 -57.6403
0.615891 29.974 -57.8293
0.620354 30.236 -58.0306
0.624849 30.501 -58.2442
0.629377 30.767 -58.4702
0.633938 31.035 -58.7085
0.638532 31.305 -58.9593
0.643159 31.577 -59.2227
0.647819 31.851 -59.4987
0.652514 32.127 -59.7874
0.657242 32.405 -60.0889
0.662005 32.685 -60.4033
0.666802 32.967 -60.7307
0.671634 33.251 -61.0712
0.676501 33.537 -61.4249
0.681403 33.825 -61.7919
0.686341 34.115 -62.1723
0.691314 34.407 -62.5661
0.696324 34.700 -62.9734
0.701370 34.994 -63.3941
0.706452 35.287 -63.8280
0.711571 35.580 -64.2746
0.716728 35.869 -64.7331
0.721921 36.151 -65.2021
0.727153 36.425 -65.6795
0.732422 36.686 -66.1625
0.737729 36.934 -66.6477
0.743075 37.170 -67.1318
0.748460 37.397 -67.6123
0.753883 37.616 -68.0872
0.759346 37.829 -68.5555
0.764849 38.039 -69.0166
0.770391 38.245 -69.4704
0.775974 38.448 -69.9171
0.781597 38.648 -70.3568
0.787261 38.845 -70.7899
0.792966 39.040 -71.2167
0.798712 39.232 -71.6377
0.804500 39.422 -72.0533
0.810329 39.609 -72.4640
0.816201 39.794 -72.8702
0.822116 39.976 -73.2723
0.828073 40.156 -73.6708
0.834074 40.334 -74.0661
0.840118 40.509 -74.4588
0.846206 40.682 -74.8492
0.852338 40.853 -75.2378
0.858514 41.022 -75.6251
0.864735 41.189 -76.0115
0.871001 41.353 -76.3975
0.877313 41.516 -76.7835
0.883670 41.677 -77.1699
0.890074 41.836 -77.5572
0.896524 41.993 -77.9458
0.903020 42.149 -78.3361
0.909564 42.303 -78.7287
0.916155 42.455 -79.1238
0.922794 42.607 -79.5220
0.929481 42.757 -79.9237
0.936216 42.906 -80.3292
0.943000 43.054 -80.7391
0.949834 43.201 -81.1537
0.956717 43.347 -81.5735
0.963649 43.493 -81.9988
0.970632 43.638 -82.4302
0.977666 43.783 -82.8680
0.984750 43.928 -83.3126
0.991886 44.073 -83.7646
0.999074 44.218 -84.2243
1.006314 44.363 -84.6922
1.013606 44.509 -85.1686
1.020951 44.656 -85.6541
1.028349 44.804 -86.1491
1.035801 44.953 -86.6540
1.043307 45.103 -87.1692
1.050867 45.255 -87.6950
1.058482 45.409 -88.2320
1.066152 45.564 -88.7801
1.073878 45.722 -89.3396
1.081660 45.881 -89.9102
1.089498 46.042 -90.4914
1.097393 46.204 -91.0822
1.105345 46.367 -91.6811
1.113355 46.531 -92.2867
1.121423 46.694 -92.8974
1.129549 46.856 -93.5119
1.137734 47.017 -94.1293
1.145979 47.177 -94.7487
1.154283 47.337 -95.3696
1.162647 47.495 -95.9914
1.171072 47.652 -96.6137
1.179558 47.808 -97.2363
1.188106 47.962 -97.8588
1.196715 48.116 -98.4810
1.205387 48.269 -99.1029
1.214122 48.421 -99.7242
1.222920 48.571 -100.3448
1.231782 48.721 -100.9648
1.240708 48.870 -101.5841
1.249699 49.019 -102.2026
1.258754 49.166 -102.8205
1.267876 49.313 -103.4379
1.277063 49.459 -104.0548
1.286318 49.605 -104.6713
1.295639 49.750 -105.2877
1.305027 49.894 -105.9041
1.314484 50.039 -106.5207
1.324009 50.182 -107.1378
1.333604 50.326 -107.7557
1.343268 50.470 -108.3745
1.353002 50.613 -108.9947
1.362806 50.756 -109.6166
1.372681 50.900 -110.2404
1.382628 51.044 -110.8666
1.392647 51.188 -111.4956
1.402739 51.332 -112.1277
1.412904 51.477 -112.7633
1.423142 51.622 -113.4027
1.433455 51.768 -114.0464
1.443843 51.915 -114.6943
1.454305 52.062 -115.3466
1.464844 52.209 -116.0032
1.475459 52.356 -116.6634
1.486150 52.503 -117.3269
1.496920 52.649 -117.9931
1.507767 52.795 -118.6614
1.518693 52.941 -119.3314
1.529698 53.086 -120.0027
1.540783 53.230 -120.6751
1.551948 53.373 -121.3484
1.563194 53.516 -122.0225
1.574521 53.659 -122.6972
1.585931 53.800 -123.3726
1.597423 53.941 -124.0486
1.608999 54.082 -124.7253
1.620658 54.222 -125.4028
1.632402 54.362 -126.0811
1.644232 54.501 -126.7605
1.656146 54.639 -127.4411
1.668147 54.778 -128.1231
1.680235 54.915 -128.8068
1.692411 55.053 -129.4924
1.704675 55.190 -130.1804
1.717028 55.328 -130.8709
1.729470 55.465 -131.5645
1.742003 55.601 -132.2614
1.754626 55.738 -132.9623
1.767341 55.875 -133.6674
1.780147 56.011 -134.3774
1.793047 56.148 -135.0928
1.806040 56.285 -135.8140
1.819128 56.421 -136.5417
1.832310 56.557 -137.2762
1.845587 56.693 -138.0176
1.858961 56.829 -138.7661
1.872432 56.964 -139.5211
1.886001 57.098 -140.2822
1.899667 57.232 -141.0486
1.913433 57.365 -141.8197
1.927299 57.497 -142.5945
1.941265 57.629 -143.3725
1.955332 57.760 -144.1529
1.969501 57.890 -144.9351
1.983773 58.020 -145.7185
1.998148 58.150 -146.5026
2.012627 58.278 -147.2870
2.027212 58.407 -148.0714
2.041902 58.534 -148.8553
2.056698 58.661 -149.6387
2.071602 58.788 -150.4213
2.086614 58.914 -151.2030
2.101734 59.040 -151.9840
2.116964 59.166 -152.7644
2.132304 59.291 -153.5444
2.147756 59.416 -154.3244
2.163320 59.540 -155.1052
2.178996 59.664 -155.8877
2.194786 59.788 -156.6730
2.210690 59.911 -157.4622
2.226710 60.034 -158.2562
2.242845 60.155 -159.0557
2.259098 60.276 -159.8605
2.275468 60.396 -160.6703
2.291957 60.516 -161.4844
2.308566 60.634 -162.3020
2.325295 60.752 -163.1222
2.342145 60.869 -163.9441
2.359117 60.985 -164.7668
2.376212 61.100 -165.5895
2.393431 61.215 -166.4115
2.410775 61.329 -167.2320
2.428244 61.442 -168.0505
2.445840 61.554 -168.8663
2.463564 61.666 -169.6792
2.481416 61.778 -170.4889
2.499397 61.888 -171.2955
2.517509 61.998 -172.0994
2.535752 62.108 -172.9012
2.554127 62.217 -173.7023
2.572635 62.325 -174.5042
2.591277 62.432 -175.3084
2.610055 62.538 -176.1161
2.628968 62.643 -176.9278
2.648019 62.747 -177.7435
2.667208 62.850 -178.5624
2.686535 62.953 -179.3839
2.706003 63.054 179.7932
2.725612 63.154 178.9700
2.745363 63.253 178.1476
2.765257 63.351 177.3274
2.785295 63.449 176.5103
2.805478 63.545 175.6974
2.825808 63.641 174.8895
2.846285 63.736 174.0874
2.866910 63.830 173.2914
2.887685 63.924 172.5012
2.908611 64.016 171.7162
2.929688 64.108 170.9351
2.950917 64.198 170.1562
2.972301 64.288 169.3780
2.993839 64.376 168.5994
3.015534 64.463 167.8199
3.037386 64.549 167.0400
3.059396 64.634 166.2603
3.081565 64.718 165.4819
3.103896 64.800 164.7059
3.126388 64.882 163.9339
3.149043 64.963 163.1671
3.171862 65.043 162.4068
3.194847 65.122 161.6544
3.217998 65.200 160.9105
3.241317 65.277 160.1760
3.264805 65.354 159.4507
3.288463 65.429 158.7341
3.312293 65.504 158.0249
3.336295 65.578 157.3217
3.360471 65.650 156.6234
3.384822 65.722 155.9294
3.409350 65.792 155.2397
3.434056 65.862 154.5547
3.458940 65.930 153.8754
3.484005 65.997 153.2027
3.509252 66.064 152.5378
3.534681 66.130 151.8821
3.560295 66.196 151.2368
3.586094 66.261 150.6028
3.612081 66.326 149.9811
3.638255 66.390 149.3720
3.664620 66.454 148.7753
3.691175 66.518 148.1903
3.717923 66.581 147.6163
3.744864 66.643 147.0526
3.772001 66.704 146.4988
3.799335 66.765 145.9547
3.826866 66.826 145.4205
3.854597 66.886 144.8965
3.882529 66.947 144.3834
3.910664 67.007 143.8815
3.939002 67.068 143.3918
3.967546 67.130 142.9148
3.996296 67.192 142.4511
4.025255 67.255 142.0012
4.054423 67.318 141.5652
4.083804 67.381 141.1429
4.113396 67.445 140.7341
4.143204 67.510 140.3378
4.173227 67.575 139.9535
4.203468 67.641 139.5802
4.233928 67.708 139.2172
4.264609 67.776 138.8636
4.295512 67.845 138.5192
4.326639 67.916 138.1835
4.357992 67.988 137.8565
4.389572 68.063 137.5387
4.421380 68.139 137.2305
4.453419 68.217 136.9319
4.485691 68.296 136.6429
4.518196 68.377 136.3623
4.550936 68.460 136.0887
4.583914 68.545 135.8203
4.617131 68.632 135.5552
4.650589 68.720 135.2916
4.684289 68.811 135.0282
4.718233 68.903 134.7639
4.752424 68.997 134.4987
4.786862 69.094 134.2327
4.821549 69.193 133.9663
4.856488 69.294 133.6993
4.891680 69.397 133.4309
4.927127 69.502 133.1598
4.962831 69.608 132.8841
4.998794 69.716 132.6020
5.035017 69.826 132.3117
5.071503 69.936 132.0118
5.108253 70.048 131.7016
5.145270 70.161 131.3810
5.182555 70.276 131.0502
5.220110 70.391 130.7098
5.257937 70.507 130.3596
5.296038 70.625 129.9995
5.334415 70.742 129.6288
5.373071 70.860 129.2467
5.412006 70.978 128.8525
5.451224 71.096 128.4454
5.490725 71.214 128.0251
5.530514 71.331 127.5916
5.570590 71.447 127.1454
5.610957 71.563 126.6870
5.651616 71.678 126.2175
5.692570 71.793 125.7376
5.733821 71.906 125.2480
5.775370 72.018 124.7494
5.817221 72.128 124.2417
5.859375 72.237 123.7251
5.901834 72.344 123.1996
5.944602 72.449 122.6655
5.987679 72.552 122.1237
6.031068 72.654 121.5757
6.074771 72.753 121.0234
6.118792 72.850 120.4683
6.163131 72.946 119.9117
6.207792 73.038 119.3545
6.252776 73.129 118.7969
6.298086 73.217 118.2390
6.343725 73.303 117.6815
6.389694 73.386 117.1257
6.435996 73.468 116.5731
6.482634 73.547 116.0258
6.529610 73.624 115.4853
6.576926 73.699 114.9528
6.624585 73.773 114.4290
6.672590 73.844 113.9138
6.720942 73.914 113.4078
6.769645 73.982 112.9113
6.818700 74.048 112.4255
6.868111 74.114 111.9514
6.917881 74.178 111.4898
6.968010 74.242 111.0415
7.018504 74.305 110.6066
7.069362 74.368 110.1848
7.120590 74.430 109.7755
7.172189 74.493 109.3783
7.224161 74.555 108.9925
7.276511 74.618 108.6178
7.329239 74.682 108.2538
7.382350 74.747 107.9000
7.435845 74.812 107.5557
7.489729 74.878 107.2193
7.544002 74.946 106.8892
7.598669 75.014 106.5635
7.653732 75.084 106.2408
7.709194 75.155 105.9196
7.765058 75.228 105.5992
7.821327 75.301 105.2783
7.878004 75.376 104.9555
7.935091 75.452 104.6293
7.992592 75.528 104.2980
8.050510 75.605 103.9604
8.108847 75.683 103.6155
8.167607 75.761 103.2632
8.226793 75.838 102.9031
8.286408 75.916 102.5351
8.346454 75.993 102.1592
8.406936 76.070 101.7752
8.467856 76.145 101.3834
8.529218 76.219 100.9842
8.591024 76.292 100.5787
8.653278 76.364 100.1684
8.715983 76.434 99.7547
8.779143 76.502 99.3388
8.842760 76.569 98.9220
8.906839 76.633 98.5055
8.971381 76.696 98.0907
9.036392 76.757 97.6794
9.101873 76.817 97.2735
9.167829 76.875 96.8744
9.234263 76.932 96.4830
9.301178 76.988 96.1001
9.368578 77.044 95.7262
9.436467 77.098 95.3618
9.504847 77.153 95.0073
9.573723 77.209 94.6625
9.643099 77.264 94.3268
9.712976 77.321 93.9990
9.783361 77.379 93.6775
9.854255 77.438 93.3604
9.925663 77.499 93.0460
9.997588 77.561 92.7324
10.070035 77.625 92.4171
10.143007 77.691 92.0974
10.216507 77.759 91.7706
10.290540 77.828 91.4341
10.365109 77.898 91.0861
10.440219 77.969 90.7249
10.515873 78.041 90.3488
10.592076 78.113 89.9564
10.668830 78.184 89.5469
10.746141 78.255 89.1204
10.824012 78.324 88.6774
10.902447 78.392 88.2192
10.981451 78.457 87.7471
11.061027 78.520 87.2631
11.141180 78.580 86.7696
11.221913 78.636 86.2696
11.303232 78.690 85.7668
11.385140 78.740 85.2644
11.467641 78.787 84.7658
11.550741 78.831 84.2744
11.634442 78.872 83.7936
11.718750 78.910 83.3269
11.803669 78.946 82.8768
11.889203 78.981 82.4451
11.975357 79.015 82.0334
12.062136 79.049 81.6422
12.149543 79.084 81.2717
12.237583 79.119 80.9207
12.326262 79.157 80.5870
12.415583 79.197 80.2679
12.505552 79.240 79.9599
12.596172 79.286 79.6591
12.687449 79.335 79.3607
12.779387 79.388 79.0598
12.871992 79.444 78.7518
12.965268 79.503 78.4323
13.059220 79.565 78.0973
13.153852 79.628 77.7435
13.249170 79.693 77.3684
13.345179 79.758 76.9706
13.441884 79.822 76.5500
13.539289 79.886 76.1072
13.637401 79.947 75.6439
13.736223 80.006 75.1628
13.835761 80.061 74.6678
13.936021 80.113 74.1629
14.037007 80.161 73.6530
14.138725 80.205 73.1429
14.241180 80.246 72.6378
14.344377 80.282 72.1428
14.448323 80.315 71.6622
14.553021 80.346 71.1998
14.658478 80.375 70.7587
14.764700 80.402 70.3410
14.871691 80.429 69.9476
14.979457 80.457 69.5781
15.088005 80.486 69.2313
15.197339 80.517 68.9044
15.307465 80.550 68.5940
15.418389 80.586 68.2954
15.530117 80.626 68.0038
15.642655 80.669 67.7139
15.756008 80.715 67.4203
15.870182 80.764 67.1180
15.985184 80.815 66.8030
16.101019 80.868 66.4716
16.217694 80.922 66.1215
16.335214 80.976 65.7515
16.453586 81.030 65.3615
16.572815 81.082 64.9526
16.692909 81.131 64.5272
16.813872 81.179 64.0885
16.935713 81.223 63.6403
17.058436 81.263 63.1871
17.182048 81.301 62.7335
17.306556 81.335 62.2842
17.431967 81.365 61.8434
17.558286 81.394 61.4147
17.685521 81.420 61.0012
17.813677 81.445 60.6046
17.942762 81.469 60.2256
18.072783 81.493 59.8637
18.203746 81.518 59.5171
18.335658 81.544 59.1832
18.468526 81.572 58.8583
18.602356 81.602 58.5383
18.737156 81.634 58.2190
18.872934 81.667 57.8964
19.009695 81.702 57.5670
19.147447 81.737 57.2282
19.286197 81.773 56.8787
19.425953 81.808 56.5184
19.566721 81.843 56.1482
19.708510 81.876 55.7704
19.851326 81.907 55.3879
19.995177 81.936 55.0043
20.140070 81.964 54.6231
20.286013 81.990 54.2477
20.433014 82.014 53.8806
20.581080 82.038 53.5237
20.730219 82.062 53.1775
20.880439 82.086 52.8415
21.031747 82.112 52.5142
21.184152 82.138 52.1933
21.337661 82.166 51.8760
21.492282 82.195 51.5597
21.648024 82.225 51.2419
21.804895 82.256 50.9209
21.962902 82.288 50.5959
22.122054 82.320 50.2668
22.282360 82.352 49.9345
22.443827 82.384 49.6004
22.606464 82.415 49.2660
22.770280 82.447 48.9326
22.935283 82.478 48.6015
23.101481 82.510 48.2728
23.268884 82.542 47.9462
23.437500 82.574 47.6207
23.607338 82.608 47.2945
23.778406 82.642 46.9660
23.950714 82.677 46.6335
24.124271 82.712 46.2957
24.299086 82.747 45.9520
24.475167 82.781 45.6025
24.652524 82.815 45.2480
24.831166 82.848 44.8894
25.011103 82.880 44.5283
25.192344 82.910 44.1660
25.374898 82.940 43.8036
25.558775 82.969 43.4417
25.743984 82.997 43.0806
25.930536 83.024 42.7204
26.118439 83.050 42.3609
26.307704 83.075 42.0020
26.498341 83.099 41.6438
26.690359 83.123 41.2867
26.883768 83.145 40.9316
27.078579 83.166 40.5794
27.274801 83.186 40.2308
27.472446 83.205 39.8866
27.671522 83.224 39.5469
27.872042 83.243 39.2112
28.074014 83.261 38.8785
28.277450 83.279 38.5475
28.482360 83.297 38.2169
28.688755 83.316 37.8852
28.896645 83.334 37.5517
29.106042 83.352 37.2160
29.316957 83.369 36.8786
29.529400 83.385 36.5400
29.743382 83.402 36.2013
29.958915 83.417 35.8632
30.176009 83.433 35.5260
30.394677 83.448 35.1897
30.614929 83.464 34.8537
30.836778 83.479 34.5172
31.060234 83.495 34.1796
31.285309 83.510 33.8405
31.512015 83.525 33.5002
31.740364 83.540 33.1596
31.970368 83.555 32.8197
32.202039 83.569 32.4817
32.435388 83.584 32.1461
32.670428 83.598 31.8128
32.907171 83.614 31.4804
33.145630 83.629 31.1473
33.385817 83.645 30.8116
33.627745 83.661 30.4723
33.871425 83.676 30.1295
34.116871 83.690 29.7848
34.364096 83.703 29.4413
34.613113 83.715 29.1025
34.863934 83.727 28.7713
35.116572 83.738 28.4490
35.371041 83.749 28.1349
35.627354 83.761 27.8260
35.885525 83.775 27.5180
36.145566 83.789 27.2065
36.407492 83.804 26.8884
36.671316 83.818 26.5631
36.937051 83.830 26.2323
37.204712 83.841 25.8998
37.474313 83.851 25.5698
37.745867 83.859 25.2459
38.019389 83.867 24.9297
38.294893 83.875 24.6202
38.572394 83.884 24.3148
38.851905 83.893 24.0095
39.133442 83.902 23.7012
39.417019 83.911 23.3881
39.702651 83.920 23.0704
39.990353 83.928 22.7502
40.280140 83.935 22.4302
40.572026 83.941 22.1128
40.866028 83.946 21.7993
41.162160 83.952 21.4895
41.460438 83.958 21.1819
41.760877 83.964 20.8741
42.063494 83.970 20.5648
42.368303 83.976 20.2531
42.675322 83.982 19.9396
42.984565 83.987 19.6260
43.296048 83.992 19.3135
43.609789 83.997 19.0029
43.925804 84.002 18.6932
44.244108 84.007 18.3827
44.564719 84.013 18.0690
44.887654 84.019 17.7507
45.212928 84.024 17.4276
45.540560 84.029 17.1015
45.870565 84.032 16.7749
46.202962 84.034 16.4504
46.537768 84.036 16.1299
46.875000 84.037 15.8143
47.214676 84.037 15.5036
47.556813 84.038 15.1981
47.901429 84.038 14.8981
48.248542 84.038 14.6037
48.598171 84.038 14.3146
48.950334 84.038 14.0293
49.305048 84.039 13.7454
49.662333 84.040 13.4608
50.022206 84.041 13.1741
50.384688 84.041 12.8857
50.749796 84.041 12.5974
51.117550 84.040 12.3107
51.487969 84.038 12.0269
51.861072 84.036 11.7454
52.236879 84.034 11.4649
52.615409 84.032 11.1835
52.996681 84.030 10.8990
53.380717 84.029 10.6101
53.767536 84.027 10.3158
54.157158 84.024 10.0165
54.549603 84.021 9.7133
54.944892 84.016 9.4083
55.343045 84.011 9.1040
55.744084 84.006 8.8021
56.148028 84.000 8.5034
56.554900 83.994 8.2078
56.964720 83.988 7.9156
57.377510 83.982 7.6274
57.793291 83.976 7.3438
58.212085 83.970 7.0643
58.633914 83.965 6.7874
59.058799 83.960 6.5102
59.486764 83.955 6.2309
59.917829 83.950 5.9495
60.352019 83.943 5.6675
60.789354 83.935 5.3875
61.229859 83.926 5.1108
61.673556 83.917 4.8381
62.120468 83.907 4.5687
62.570618 83.897 4.3016
63.024031 83.887 4.0348
63.480729 83.877 3.7655
63.940736 83.868 3.4908
64.404077 83.858 3.2089
64.870776 83.848 2.9191
65.340856 83.837 2.6217
65.814343 83.824 2.3187
66.291261 83.810 2.0144
66.771635 83.794 1.7172
67.255489 83.775 1.4377
67.742850 83.757 1.1833
68.233743 83.740 0.9523
68.728193 83.728 0.7338
69.226226 83.718 0.5145
69.727867 83.710 0.2866
70.233144 83.704 0.0486
70.742083 83.697 -0.1982
71.254709 83.691 -0.4543
71.771050 83.684 -0.7220
72.291132 83.675 -1.0005
72.814984 83.664 -1.2849
73.342631 83.651 -1.5684
73.874102 83.636 -1.8466
74.409424 83.620 -2.1187
74.948626 83.603 -2.3866
75.491734 83.586 -2.6526
76.038779 83.569 -2.9189
76.589787 83.552 -3.1875
77.144788 83.534 -3.4589
77.703811 83.516 -3.7321
78.266885 83.497 -4.0050
78.834039 83.478 -4.2755
79.405303 83.458 -4.5420
79.980706 83.438 -4.8033
80.560280 83.418 -5.0580
81.144053 83.398 -5.3052
81.732056 83.378 -5.5446
82.324320 83.359 -5.7773
82.920876 83.339 -6.0048
83.521755 83.320 -6.2285
84.126988 83.300 -6.4496
84.736607 83.280 -6.6699
85.350643 83.260 -6.8921
85.969129 83.240 -7.1187
86.592097 83.218 -7.3509
87.219579 83.194 -7.5870
87.851608 83.169 -7.8234
88.488217 83.143 -8.0564
89.129439 83.116 -8.2839
89.775308 83.090 -8.5056
90.425856 83.063 -8.7228
91.081119 83.037 -8.9374
91.741131 83.012 -9.1516
92.405925 82.987 -9.3672
93.075536 82.962 -9.5844
93.750000 82.936 -9.8027
94.429351 82.910 -10.0215
95.113625 82.882 -10.2401
95.802858 82.853 -10.4575
96.497085 82.823 -10.6725
97.196342 82.793 -10.8843
97.900667 82.762 -11.0934
98.610096 82.731 -11.3006
99.324665 82.699 -11.5071
100.044413 82.668 -11.7141
100.769376 82.636 -11.9226
101.499592 82.603 -12.1327
102.235100 82.568 -12.3428
102.975938 82.532 -12.5508
103.722144 82.494 -12.7549
104.473757 82.455 -12.9546
105.230817 82.415 -13.1503
105.993363 82.374 -13.3434
106.761435 82.331 -13.5354
107.535072 82.288 -13.7265
108.314315 82.243 -13.9160
109.099206 82.197 -14.1025
109.889783 82.149 -14.2846
110.686090 82.100 -14.4591
111.488167 82.048 -14.6208
112.296056 81.993 -14.7629
113.109800 81.938 -14.8781
113.929440 81.881 -14.9583
114.755020 81.824 -14.9956
115.586582 81.770 -14.9852
116.424170 81.721 -14.9299
117.267827 81.678 -14.8411
118.117598 81.643 -14.7358
118.973527 81.615 -14.6324
119.835658 81.591 -14.5433
120.704037 81.569 -14.4704
121.578708 81.549 -14.4098
122.459718 81.530 -14.3593
123.347111 81.511 -14.3201
124.240935 81.492 -14.2955
125.141236 81.473 -14.2899
126.048061 81.454 -14.3063
126.961458 81.434 -14.3463
127.881473 81.415 -14.4115
128.808154 81.396 -14.5048
129.741551 81.381 -14.6276
130.681712 81.368 -14.7773
131.628686 81.357 -14.9453
132.582521 81.348 -15.1168
133.543269 81.339 -15.2748
134.510979 81.329 -15.4059
135.485701 81.317 -15.5067
136.467486 81.301 -15.5841
137.456386 81.277 -15.6486
138.452451 81.246 -15.7076
139.455735 81.208 -15.7664
140.466288 81.164 -15.8302
141.484165 81.118 -15.9028
142.509418 81.072 -15.9824
143.542100 81.028 -16.0618
144.582265 80.988 -16.1332
145.629968 80.952 -16.1926
146.685262 80.919 -16.2418
147.748204 80.888 -16.2866
148.818849 80.858 -16.3336
149.897251 80.826 -16.3883
150.983469 80.793 -16.4542
152.077557 80.760 -16.5325
153.179574 80.726 -16.6194
154.289576 80.692 -16.7065
155.407622 80.659 -16.7838
156.533770 80.627 -16.8436
157.668078 80.597 -16.8821
158.810606 80.566 -16.9003
159.961413 80.536 -16.9022
161.120559 80.504 -16.8946
162.288105 80.470 -16.8840
163.464112 80.435 -16.8757
164.648640 80.399 -16.8727
165.841752 80.363 -16.8765
167.043510 80.326 -16.8876
168.253976 80.291 -16.9034
169.473213 80.258 -16.9181
170.701286 80.225 -16.9263
171.938258 80.193 -16.9265
173.184194 80.162 -16.9207
174.439158 80.131 -16.9116
175.703216 80.100 -16.9013
176.976434 80.068 -16.8907
178.258878 80.036 -16.8795
179.550615 80.004 -16.8662
180.851713 79.971 -16.8502
182.162239 79.938 -16.8315
183.482262 79.905 -16.8102
184.811850 79.872 -16.7851
186.151073 79.840 -16.7534
187.500000 79.809 -16.7121
188.858702 79.780 -16.6602
190.227250 79.752 -16.6001
191.605715 79.724 -16.5365
192.994169 79.697 -16.4740
194.392685 79.669 -16.4159
195.801334 79.641 -16.3635
197.220191 79.612 -16.3158
198.649330 79.582 -16.2713
200.088825 79.552 -16.2291
201.538751 79.521 -16.1886
202.999184 79.489 -16.1492
204.470200 79.457 -16.1118
205.951875 79.425 -16.0778
207.444287 79.393 -16.0432
208.947514 79.361 -16.0001
210.461634 79.329 -15.9434
211.986726 79.298 -15.8736
213.522869 79.268 -15.7971
215.070144 79.239 -15.7224
216.628631 79.212 -15.6548
218.198411 79.184 -15.5942
219.779567 79.158 -15.5365
221.372180 79.131 -15.4767
222.976334 79.106 -15.4118
224.592112 79.081 -15.3411
226.219600 79.057 -15.2648
227.858880 79.034 -15.1836
229.510039 79.011 -15.0986
231.173164 78.988 -15.0114
232.848340 78.965 -14.9232
234.535655 78.943 -14.8346
236.235197 78.920 -14.7454
237.947054 78.897 -14.6553
239.671317 78.874 -14.5652
241.408074 78.851 -14.4772
243.157416 78.829 -14.3939
244.919435 78.807 -14.3171
246.694223 78.786 -14.2459
248.481871 78.765 -14.1774
250.282473 78.745 -14.1075
252.096123 78.724 -14.0328
253.922915 78.703 -13.9513
255.762945 78.681 -13.8622
257.616309 78.657 -13.7659
259.483103 78.632 -13.6641
261.363424 78.606 -13.5608
263.257372 78.579 -13.4597
265.165043 78.552 -13.3622
267.086538 78.525 -13.2676
269.021957 78.500 -13.1745
270.971401 78.477 -13.0823
272.934972 78.456 -12.9908
274.912771 78.438 -12.9007
276.904902 78.422 -12.8128
278.911469 78.407 -12.7269
280.932577 78.392 -12.6412
282.968330 78.375 -12.5547
285.018835 78.358 -12.4683
287.084199 78.339 -12.3835
289.164530 78.321 -12.3014
291.259935 78.302 -12.2213
293.370525 78.283 -12.1415
295.496408 78.265 -12.0605
297.637697 78.248 -11.9789
299.794503 78.231 -11.8986
301.966937 78.214 -11.8220
304.155114 78.199 -11.7499
306.359147 78.184 -11.6805
308.579152 78.169 -11.6115
310.815244 78.154 -11.5407
313.067539 78.139 -11.4680
315.336156 78.124 -11.3945
317.621211 78.107 -11.3226
319.922826 78.091 -11.2539
322.241118 78.075 -11.1898
324.576210 78.059 -11.1307
326.928223 78.043 -11.0760
329.297280 78.026 -11.0244
331.683504 78.008 -10.9750
334.087019 77.990 -10.9274
336.507952 77.972 -10.8794
338.946427 77.956 -10.8284
341.402572 77.943 -10.7734
343.876516 77.930 -10.7153
346.368387 77.919 -10.6554
348.878315 77.908 -10.5941
351.406431 77.896 -10.5314
353.952867 77.883 -10.4674
356.517756 77.868 -10.4017
359.101230 77.851 -10.3348
361.703426 77.834 -10.2686
364.324478 77.816 -10.2058
366.964523 77.797 -10.1472
369.623699 77.779 -10.0905
372.302145 77.760 -10.0331
375.000000 77.743 -9.9755
377.717405 77.726 -9.9216
380.454501 77.711 -9.8764
383.211431 77.696 -9.8414
385.988339 77.681 -9.8141
388.785369 77.665 -9.7903
391.602668 77.647 -9.7667
394.440383 77.627 -9.7420
397.298660 77.604 -9.7148
400.177650 77.579 -9.6832
403.077502 77.554 -9.6454
405.998368 77.529 -9.5995
408.940400 77.505 -9.5435
411.903750 77.482 -9.4746
414.888575 77.461 -9.3911
417.895028 77.441 -9.2934
420.923268 77.422 -9.1858
423.973452 77.404 -9.0766
427.045738 77.387 -8.9745
430.140287 77.372 -8.8855
433.257261 77.359 -8.8127
436.396822 77.347 -8.7565
439.559133 77.337 -8.7162
442.744360 77.326 -8.6918
445.952668 77.312 -8.6814
449.184225 77.295 -8.6797
452.439199 77.275 -8.6797
455.717760 77.252 -8.6769
459.020079 77.225 -8.6711
462.346327 77.196 -8.6652
465.696680 77.166 -8.6622
469.071310 77.136 -8.6635
472.470394 77.106 -8.6675
475.894109 77.077 -8.6721
479.342634 77.051 -8.6772
482.816148 77.025 -8.6852
486.314833 76.999 -8.6979
489.838871 76.972 -8.7136
493.388445 76.943 -8.7279
496.963741 76.913 -8.7383
500.564945 76.881 -8.7462
504.192245 76.847 -8.7546
507.845830 76.813 -8.7673
511.525890 76.778 -8.7861
515.232618 76.744 -8.8104
518.966206 76.710 -8.8372
522.726849 76.676 -8.8624
526.514743 76.640 -8.8826
530.330086 76.603 -8.8955
534.173076 76.564 -8.8994
538.043915 76.525 -8.8932
541.942803 76.484 -8.8775
545.869944 76.442 -8.8558
549.825542 76.399 -8.8326
553.809805 76.356 -8.8101
557.822939 76.313 -8.7883
561.865154 76.269 -8.7676
565.936660 76.224 -8.7477
570.037671 76.177 -8.7271
574.168399 76.128 -8.7040
578.329060 76.076 -8.6772
582.519870 76.023 -8.6462
586.741049 75.967 -8.6105
590.992817 75.911 -8.5673
595.275394 75.855 -8.5114
599.589005 75.797 -8.4368
603.933874 75.739 -8.3417
608.310228 75.681 -8.2306
612.718295 75.623 -8.1122
617.158304 75.564 -7.9945
621.630488 75.503 -7.8839
626.135079 75.440 -7.7852
630.672311 75.376 -7.7002
635.242423 75.310 -7.6271
639.845651 75.242 -7.5616
644.482237 75.172 -7.4973
649.152421 75.098 -7.4259
653.856447 75.021 -7.3383
658.594560 74.942 -7.2251
663.367008 74.861 -7.0807
668.174039 74.782 -6.9071
673.015903 74.704 -6.7126
677.892854 74.627 -6.5059
682.805145 74.551 -6.2894
687.753032 74.473 -6.0610
692.736774 74.392 -5.8184
697.756631 74.309 -5.5618
702.812863 74.223 -5.2938
707.905735 74.135 -5.0155
713.035511 74.046 -4.7250
718.202461 73.955 -4.4202
723.406852 73.865 -4.1012
728.648956 73.774 -3.7684
733.929047 73.684 -3.4187
739.247399 73.593 -3.0446
744.604290 73.502 -2.6399
750.000000 73.412 -2.2058
755.434809 73.322 -1.7476
760.909001 73.232 -1.2711
766.422861 73.142 -0.7793
771.976677 73.050 -0.2728
777.570739 72.957 0.2513
783.205337 72.861 0.7988
788.880766 72.763 1.3773
794.597321 72.664 1.9912
800.355301 72.564 2.6394
806.155005 72.465 3.3177
811.996736 72.369 4.0242
817.880799 72.277 4.7604
823.807501 72.189 5.5294
829.777150 72.106 6.3315
835.790057 72.025 7.1639
841.846536 71.945 8.0221
847.946903 71.864 8.9022
854.091476 71.784 9.8043
860.280575 71.704 10.7321
866.514523 71.627 11.6896
872.793644 71.553 12.6808
879.118267 71.484 13.7103
885.488720 71.421 14.7826
891.905336 71.362 15.8966
898.368450 71.308 17.0437
904.878398 71.257 18.2114
911.435520 71.210 19.3870
918.040157 71.166 20.5607
924.692655 71.127 21.7286
931.393359 71.092 22.8955
938.142619 71.063 24.0715
944.940787 71.039 25.2657
951.788218 71.022 26.4803
958.685268 71.013 27.7106
965.632296 71.011 28.9514
972.629666 71.017 30.2043
979.677741 71.030 31.4755
986.776890 71.052 32.7664
993.927482 71.084 34.0704
1001.129891 71.123 35.3788
1008.384491 71.171 36.6841
1015.691660 71.224 37.9797
1023.051781 71.283 39.2592
1030.465236 71.348 40.5167
1037.932411 71.417 41.7472
1045.453698 71.491 42.9475
1053.029486 71.570 44.1177
1060.660172 71.654 45.2603
1068.346153 71.744 46.3797
1076.087829 71.840 47.4813
1083.885605 71.944 48.5694
1091.739887 72.053 49.6448
1099.651084 72.168 50.7039
1107.619609 72.287 51.7397
1115.645878 72.410 52.7416
1123.730308 72.535 53.6967
1131.873321 72.664 54.5934
1140.075341 72.795 55.4260
1148.336797 72.928 56.1957
1156.658119 73.063 56.9084
1165.039741 73.199 57.5691
1173.482099 73.337 58.1799
1181.985634 73.475 58.7426
1190.550789 73.612 59.2618
1199.178011 73.748 59.7458
1207.867749 73.884 60.2046
1216.620457 74.020 60.6491
1225.436590 74.156 61.0883
1234.316609 74.291 61.5233
1243.260976 74.427 61.9465
1252.270157 74.562 62.3466
1261.344623 74.694 62.7144
1270.484846 74.824 63.0432
1279.691303 74.951 63.3295
1288.964474 75.073 63.5733
1298.304842 75.191 63.7797
1307.712894 75.305 63.9572
1317.189120 75.416 64.1157
1326.734016 75.525 64.2654
1336.348077 75.631 64.4145
1346.031806 75.735 64.5667
1355.785708 75.835 64.7198
1365.610290 75.932 64.8679
1375.506065 76.024 65.0031
1385.473549 76.111 65.1206
1395.513261 76.193 65.2200
1405.625726 76.271 65.3045
1415.811469 76.344 65.3805
1426.071023 76.415 65.4571
1436.404921 76.483 65.5445
1446.813703 76.551 65.6514
1457.297912 76.618 65.7839
1467.858093 76.683 65.9435
1478.494798 76.747 66.1254
1489.208581 76.808 66.3196
1500.000000 76.865 66.5165
1510.869618 76.918 66.7116
1521.818002 76.965 66.9071
1532.845723 77.008 67.1089
1543.953355 77.048 67.3236
1555.141477 77.085 67.5582
1566.410674 77.121 67.8219
1577.761531 77.157 68.1261
1589.194642 77.193 68.4813
1600.710601 77.229 68.8916
1612.310010 77.266 69.3554
1623.993473 77.303 69.8684
1635.761599 77.340 70.4274
1647.615002 77.378 71.0318
1659.554299 77.418 71.6830
1671.580114 77.461 72.3830
1683.693072 77.510 73.1361
1695.893807 77.567 73.9500
1708.182952 77.636 74.8319
1720.561150 77.721 75.7846
1733.029045 77.825 76.8020
1745.587288 77.951 77.8661
1758.236533 78.101 78.9451
1770.977440 78.273 79.9951
1783.810673 78.467 80.9674
1796.736900 78.678 81.8174
1809.756796 78.903 82.5138
1822.871040 79.136 83.0409
1836.080315 79.372 83.3987
1849.385310 79.608 83.5992
1862.786718 79.840 83.6637
1876.285239 80.067 83.6172
1889.881575 80.288 83.4855
1903.576436 80.504 83.2927
1917.370535 80.714 83.0604
1931.264593 80.920 82.8054
1945.259332 81.124 82.5374
1959.355483 81.327 82.2571
1973.553781 81.529 81.9571
1987.854965 81.731 81.6235
2002.259781 81.929 81.2393
2016.768981 82.120 80.7888
2031.383320 82.303 80.2618
2046.103561 82.475 79.6560
2060.930471 82.635 78.9770
2075.864823 82.785 78.2392
2090.907395 82.923 77.4652
2106.058972 83.052 76.6809
2121.320344 83.173 75.9085
2136.692305 83.288 75.1617
2152.175658 83.398 74.4446
2167.771210 83.504 73.7524
2183.479774 83.606 73.0748
2199.302169 83.703 72.3970
2215.239219 83.794 71.7038
2231.291755 83.880 70.9829
2247.460615 83.959 70.2269
2263.746641 84.034 69.4351
2280.150683 84.102 68.6142
2296.673595 84.166 67.7760
2313.316238 84.225 66.9330
2330.079481 84.278 66.0945
2346.964198 84.326 65.2676
2363.971268 84.370 64.4610
2381.101578 84.411 63.6860
2398.356022 84.449 62.9549
2415.735498 84.485 62.2788
2433.240913 84.522 61.6636
2450.873180 84.559 61.1070
2468.633217 84.595 60.5967
2486.521951 84.632 60.1123
2504.540314 84.666 59.6303
2522.689246 84.698 59.1301
2540.969692 84.727 58.5985
2559.382606 84.754 58.0332
2577.928947 84.778 57.4427
2596.609683 84.801 56.8454
2615.425787 84.823 56.2635
2634.378241 84.844 55.7160
2653.468031 84.863 55.2130
2672.696154 84.882 54.7542
2692.063613 84.901 54.3285
2711.571415 84.918 53.9167
2731.220579 84.933 53.4978
2751.012130 84.947 53.0560
2770.947098 84.958 52.5858
2791.026522 84.969 52.0907
2811.251451 84.979 51.5819
2831.622938 84.991 51.0742
2852.142045 85.005 50.5821
2872.809842 85.022 50.1153
2893.627406 85.041 49.6753
2914.595823 85.062 49.2563
2935.716186 85.083 48.8451
2956.989596 85.101 48.4221
2978.417161 85.117 47.9659
3000.000000 85.127 47.4608
3021.739237 85.132 46.9021
3043.636005 85.130 46.2978
3065.691446 85.123 45.6695
3087.906710 85.110 45.0485
3110.282955 85.093 44.4660
3132.821347 85.073 43.9433
3155.523062 85.053 43.4872
3178.389283 85.033 43.0920
3201.421202 85.012 42.7417
3224.620020 84.991 42.4109
3247.986946 84.967 42.0717
3271.523198 84.942 41.7025
3295.230004 84.914 41.2908
3319.108599 84.884 40.8335
3343.160228 84.854 40.3358
3367.386145 84.826 39.8080
3391.787613 84.797 39.2614
3416.365904 84.769 38.7056
3441.122300 84.741 38.1497
3466.058091 84.712 37.6046
3491.174576 84.682 37.0839
3516.473066 84.651 36.6038
3541.954880 84.619 36.1798
3567.621345 84.587 35.8214
3593.473800 84.555 35.5278
3619.513592 84.522 35.2864
3645.742080 84.489 35.0738
3672.160630 84.455 34.8605
3698.770620 84.418 34.6210
3725.573436 84.378 34.3405
3752.570477 84.336 34.0174
3779.763150 84.291 33.6634
3807.152872 84.245 33.3020
3834.741071 84.197 32.9630
3862.529185 84.148 32.6735
3890.518664 84.099 32.4503
3918.710966 84.050 32.2959
3947.107561 83.999 32.1969
3975.709929 83.947 32.1259
4004.519563 83.895 32.0501
4033.537962 83.841 31.9397
4062.766641 83.786 31.7756
4092.207123 83.729 31.5522
4121.860942 83.670 31.2766
4151.729646 83.611 30.9641
4181.814790 83.551 30.6321
4212.117944 83.490 30.2964
4242.640687 83.427 29.9712
4273.384610 83.363 29.6701
4304.351317 83.298 29.4095
4335.542421 83.234 29.2092
4366.959549 83.170 29.0913
4398.604338 83.108 29.0740
4430.478438 83.049 29.1644
4462.583511 82.994 29.3552
4494.921231 82.940 29.6241
4527.493283 82.890 29.9377
4560.301365 82.840 30.2590
4593.347189 82.792 30.5574
4626.632476 82.745 30.8166
4660.158962 82.699 31.0395
4693.928395 82.656 31.2478
4727.942535 82.618 31.4752
4762.203156 82.587 31.7585
4796.712043 82.563 32.1269
4831.470996 82.549 32.5920
4866.481826 82.545 33.1432
4901.746360 82.551 33.7505
4937.266434 82.567 34.3709
4973.043902 82.591 34.9570
5009.080628 82.623 35.4662
5045.378492 82.664 35.8683
5081.939384 82.715 36.1517
5118.765212 82.777 36.3208
5155.857894 82.852 36.3881
5193.219366 82.940 36.3639
5230.851574 83.041 36.2534
5268.756481 83.154 36.0592
5306.936062 83.276 35.7841
5345.392309 83.407 35.4352
5384.127225 83.544 35.0251
5423.142830 83.686 34.5680
5462.441159 83.829 34.0715
5502.024259 83.971 33.5295
5541.894195 84.109 32.9197
5582.053045 84.237 32.2076
5622.502902 84.353 31.3546
5663.245876 84.453 30.3284
5704.284090 84.532 29.1124
5745.619684 84.588 27.7133
5787.254813 84.620 26.1641
5829.191647 84.627 24.5212
5871.432373 84.607 22.8536
5913.979192 84.562 21.2297
5956.834323 84.492 19.7046
6000.000000 84.397 18.3112
6043.478473 84.278 17.0569
6087.272010 84.135 15.9275
6131.382892 83.969 14.8967
6175.813420 83.781 13.9387
6220.565910 83.573 13.0412
6265.642695 83.348 12.2151
6311.046124 83.111 11.4944
6356.778566 82.870 10.9240
6402.842404 82.632 10.5394
6449.240040 82.406 10.3472
6495.973891 82.191 10.3207
6543.046396 81.983 10.4244
6590.460007 81.771 10.6453
6638.217197 81.550 10.9915
6686.320456 81.318 11.4702
6734.772290 81.079 12.0762
6783.575226 80.838 12.8016
6832.731809 80.601 13.6527
6882.244600 80.375 14.6597
6932.116181 80.167 15.8737
6982.349153 79.984 17.3551
7032.946133 79.833 19.1522
7083.909760 79.726 21.2729
7135.242690 79.671 23.6619
7186.947600 79.673 26.2031
7239.027185 79.732 28.7572
7291.484160 79.844 31.2144
7344.321260 80.007 33.5148
7397.541239 80.223 35.6291
7451.146872 80.499 37.5365
7505.140954 80.839 39.2126
7559.526299 81.246 40.6234
7614.305743 81.715 41.7215
7669.482141 82.236 42.4424
7725.058371 82.796 42.7050
7781.037328 83.374 42.4179
7837.421932 83.950 41.4935
7894.215122 84.499 39.8660
7951.419859 84.999 37.5085
8009.039125 85.429 34.4450
8067.075924 85.770 30.7569
8125.533282 86.009 26.5812
8184.414245 86.139 22.0959
8243.721885 86.159 17.4954
8303.459292 86.074 12.9653
8363.629581 85.896 8.6678
8424.235888 85.641 4.7319
8485.281374 85.329 1.2524
8546.769221 84.980 -1.7072
8608.702634 84.614 -4.1111
8671.084842 84.251 -5.9503
8733.919097 83.905 -7.2488
8797.208675 83.588 -8.0695
8860.956876 83.307 -8.5153
8925.167022 83.063 -8.7178
8989.842461 82.857 -8.8176
9054.986566 82.684 -8.9437
9120.602731 82.543 -9.1960
9186.694378 82.430 -9.6302
9253.264952 82.342 -10.2535
9320.317925 82.277 -11.0350
9387.856790 82.233 -11.9244
9455.885071 82.207 -12.8734
9524.406312 82.195 -13.8553
9593.424086 82.193 -14.8789
9662.941992 82.195 -15.9902
9732.963653 82.195 -17.2634
9803.492719 82.187 -18.7823
9874.532869 82.162 -20.6204
9946.087805 82.113 -22.8203
10018.161257 82.033 -25.3771
10090.756983 81.917 -28.2338
10163.878768 81.758 -31.2930
10237.530423 81.552 -34.4348
10311.715789 81.297 -37.5356
10386.438732 80.991 -40.4888
10461.703149 80.634 -43.2245
10537.512962 80.225 -45.7181
10613.872125 79.767 -47.9836
10690.784618 79.262 -50.0587
10768.254450 78.712 -51.9877
10846.285661 78.122 -53.8028
10924.882318 77.498 -55.5051
11004.048518 76.844 -57.0563
11083.788390 76.169 -58.3850
11164.106090 75.477 -59.4026
11245.005805 74.776 -60.0232
11326.491752 74.071 -60.1869
11408.568180 73.366 -59.8799
11491.239368 72.667 -59.1404
11574.509626 71.974 -58.0475
11658.383294 71.291 -56.7037
11742.864745 70.618 -55.2167
11827.958384 69.956 -53.6748
11913.668646 69.305 -52.1243
12000.000000 68.668 -50.5651
12086.956947 68.047 -48.9667
12174.544019 67.443 -47.2887
12262.765784 66.856 -45.4897
12351.626840 66.288 -43.5303
12441.131819 65.739 -41.3687
12531.285389 65.209 -38.9550
12622.092249 64.699 -36.2235
12713.557132 64.211 -33.0927
12805.684808 63.746 -29.4783
12898.480079 63.309 -25.3177
12991.947783 62.904 -20.5917
13086.092792 62.535 -15.3264
13180.920015 62.213 -9.5785
13276.434395 61.951 -3.4136
13372.640911 61.770 3.1118
13469.544580 61.696 9.9688
13567.150452 61.763 17.1552
13665.463617 62.007 24.6605
13764.489200 62.455 32.3991
13864.232362 63.119 40.1535
13964.698305 63.986 47.5659
14065.892266 65.025 54.1958
14167.819519 66.191 59.6205
14270.485380 67.434 63.5243
14373.895200 68.705 65.7297
14478.054370 69.961 66.1866
14582.968320 71.163 64.9495
14688.642520 72.278 62.1594
14795.082478 73.276 58.0255
14902.293745 74.134 52.8036
15010.281908 74.834 46.7767
15119.052599 75.370 40.2411
15228.611486 75.746 33.4934
15338.964283 75.978 26.8094
15450.116741 76.096 20.4199
15562.074656 76.133 14.4921
15674.843864 76.128 9.1219
15788.430244 76.113 4.3293
15902.839718 76.115 0.0468
16018.078250 76.150 -3.8869
16134.151848 76.217 -7.7106
16251.066563 76.305 -11.6981
16368.828491 76.391 -16.1045
16487.443769 76.445 -21.1202
16606.918584 76.436 -26.8333
16727.259161 76.333 -33.1996
16848.471777 76.109 -40.0391
16970.562748 75.747 -47.0662
17093.538442 75.237 -53.9415
17217.405268 74.583 -60.3292
17342.169684 73.798 -65.9526
17467.838194 72.903 -70.6378
17594.417350 71.925 -74.3325
17721.913751 70.890 -77.0923
17850.334044 69.824 -79.0549
17979.684923 68.754 -80.4104
18109.973131 67.701 -81.3613
18241.205462 66.682 -82.0735
18373.388756 65.710 -82.6426
18506.529905 64.793 -83.0925
18640.635849 63.933 -83.3948
18775.713581 63.129 -83.5006
18911.770141 62.375 -83.3865
19048.812624 61.664 -83.0936
19186.848172 60.984 -82.7294
19325.883983 60.328 -82.4340
19465.927305 59.695 -82.3392
19606.985439 59.094 -82.5248
19749.065738 58.559 -82.9660
19892.175609 58.143 -83.5010
20036.322514 57.913 -83.8728
