* Measurement data measured by REW V5.30.4
* Source: Headset (2- CX31993 HIFI AUDIO), MICROPHONE (Master Volume), L, volume: 0.500
* Format: 256k Log Swept Sine, 1 sweep at -12.0 dBFS with no timing reference
* Dated: 06 8, 24 6:17:22 PM
* REW Settings:
*  C-weighting compensation: Off
*  Target level: 75.0 dB
* Note: ; 
* Measurement: T 4U Atmosphere R
* Smoothing: 1/12 octave
* Frequency Step: 96 ppo
* Start Frequency: 20.141602 Hz
*
* Freq(Hz) SPL(dB) Phase(degrees)
20.141602 95.184 -151.5464
20.287556 95.185 -151.6750
20.434568 95.187 -151.8608
20.582645 95.190 -152.0853
20.731796 95.194 -152.3341
20.882027 95.199 -152.5977
21.033346 95.206 -152.8713
21.185762 95.214 -153.1535
21.339283 95.224 -153.4446
21.493916 95.235 -153.7456
21.649670 95.246 -154.0573
21.806553 95.258 -154.3796
21.964573 95.270 -154.7115
22.123737 95.281 -155.0511
22.284056 95.291 -155.3956
22.445536 95.299 -155.7418
22.608185 95.306 -156.0866
22.772013 95.311 -156.4272
22.937029 95.316 -156.7616
23.103241 95.319 -157.0887
23.270657 95.322 -157.4083
23.439285 95.325 -157.7213
23.609137 95.328 -158.0291
23.780218 95.331 -158.3335
23.952539 95.334 -158.6361
24.126110 95.337 -158.9382
24.300938 95.340 -159.2403
24.477032 95.343 -159.5422
24.654402 95.346 -159.8429
24.833057 95.349 -160.1412
25.013008 95.351 -160.4354
25.194263 95.354 -160.7242
25.376831 95.356 -161.0069
25.560722 95.360 -161.2833
25.745945 95.363 -161.5544
25.932510 95.368 -161.8215
26.120428 95.374 -162.0867
26.309708 95.380 -162.3521
26.500359 95.386 -162.6194
26.692390 95.392 -162.8901
26.885815 95.398 -163.1647
27.080641 95.403 -163.4432
27.276878 95.407 -163.7252
27.474539 95.410 -164.0098
27.673630 95.412 -164.2965
27.874165 95.413 -164.5849
28.076153 95.413 -164.8751
28.279604 95.414 -165.1675
28.484529 95.414 -165.4627
28.690941 95.414 -165.7612
28.898848 95.413 -166.0625
29.108261 95.412 -166.3659
29.319191 95.411 -166.6692
29.531651 95.409 -166.9700
29.745649 95.406 -167.2654
29.961199 95.403 -167.5528
30.178310 95.399 -167.8306
30.396996 95.396 -168.0982
30.617264 95.393 -168.3565
30.839128 95.391 -168.6076
31.062601 95.389 -168.8546
31.287693 95.388 -169.1006
31.514416 95.387 -169.3485
31.742783 95.387 -169.6002
31.972803 95.386 -169.8568
32.204491 95.386 -170.1184
32.437859 95.385 -170.3842
32.672916 95.384 -170.6536
32.909679 95.383 -170.9257
33.148155 95.382 -171.2001
33.388359 95.382 -171.4763
33.630306 95.381 -171.7539
33.874004 95.380 -172.0317
34.119469 95.379 -172.3082
34.366711 95.376 -172.5812
34.615746 95.372 -172.8481
34.866585 95.367 -173.1065
35.119244 95.360 -173.3547
35.373734 95.351 -173.5917
35.630066 95.342 -173.8176
35.888256 95.331 -174.0334
36.148315 95.318 -174.2402
36.410259 95.303 -174.4394
36.674103 95.286 -174.6320
36.939857 95.267 -174.8190
37.207539 95.246 -175.0018
37.477161 95.224 -175.1830
37.748737 95.200 -175.3667
38.022282 95.178 -175.5593
38.297806 95.158 -175.7684
38.575329 95.141 -176.0020
38.854862 95.129 -176.2663
39.136421 95.122 -176.5634
39.420021 95.121 -176.8893
39.705673 95.124 -177.2332
39.993397 95.130 -177.5775
40.283207 95.139 -177.9012
40.575115 95.149 -178.1833
40.869141 95.160 -178.4081
41.165295 95.171 -178.5689
41.463596 95.180 -178.6711
41.764057 95.188 -178.7315
42.066696 95.193 -178.7757
42.371529 95.193 -178.8328
42.678570 95.186 -178.9292
42.987835 95.173 -179.0835
43.299343 95.154 -179.3031
43.613110 95.129 -179.5834
43.929150 95.100 -179.9097
44.247478 95.072 179.7383
44.568115 95.047 179.3823
44.891075 95.026 179.0396
45.216373 95.013 178.7203
45.544029 95.005 178.4267
45.874062 95.001 178.1544
46.206486 94.998 177.8954
46.541317 94.995 177.6412
46.878574 94.989 177.3849
47.218277 94.981 177.1225
47.560440 94.972 176.8528
47.905083 94.964 176.5767
48.252224 94.957 176.2974
48.601879 94.951 176.0198
48.954067 94.947 175.7500
49.308807 94.944 175.4944
49.666119 94.939 175.2574
50.026020 94.932 175.0398
50.388531 94.922 174.8378
50.753666 94.909 174.6442
51.121449 94.895 174.4501
51.491894 94.880 174.2482
51.865025 94.866 174.0345
52.240860 94.853 173.8092
52.619419 94.841 173.5757
53.000721 94.830 173.3389
53.384785 94.819 173.1036
53.771633 94.807 172.8727
54.161285 94.793 172.6473
54.553761 94.777 172.4265
54.949081 94.761 172.2085
55.347263 94.744 171.9921
55.748333 94.727 171.7770
56.152309 94.712 171.5648
56.559212 94.697 171.3583
56.969063 94.682 171.1602
57.381886 94.667 170.9714
57.797699 94.651 170.7907
58.216526 94.633 170.6140
58.638386 94.613 170.4363
59.063305 94.592 170.2537
59.491302 94.571 170.0649
59.922401 94.549 169.8712
60.356625 94.529 169.6754
60.793995 94.510 169.4787
61.234531 94.495 169.2798
61.678261 94.481 169.0746
62.125206 94.469 168.8576
62.575390 94.456 168.6255
63.028835 94.441 168.3795
63.485569 94.424 168.1257
63.945610 94.403 167.8743
64.408989 94.380 167.6362
64.875725 94.357 167.4196
65.345840 94.334 167.2287
65.819366 94.312 167.0624
66.296318 94.291 166.9159
66.776726 94.270 166.7819
67.260620 94.250 166.6520
67.748016 94.230 166.5187
68.238945 94.213 166.3775
68.733429 94.199 166.2289
69.231499 94.189 166.0796
69.733177 94.184 165.9387
70.238495 94.183 165.8112
70.747475 94.183 165.6909
71.260139 94.181 165.5603
71.776520 94.171 165.4011
72.296638 94.150 165.2062
72.820526 94.118 164.9825
73.348213 94.080 164.7426
73.879723 94.039 164.4958
74.415085 94.001 164.2479
74.954330 93.967 164.0058
75.497482 93.937 163.7777
76.044571 93.909 163.5668
76.595619 93.883 163.3683
77.150665 93.858 163.1764
77.709732 93.833 162.9907
78.272850 93.807 162.8147
78.840050 93.782 162.6482
79.411354 93.757 162.4857
79.986801 93.733 162.3224
80.566422 93.707 162.1588
81.150238 93.682 161.9984
81.738289 93.656 161.8418
82.330597 93.631 161.6857
82.927200 93.608 161.5257
83.528122 93.585 161.3610
84.133400 93.561 161.1953
84.743065 93.538 161.0340
85.357147 93.514 160.8809
85.975677 93.490 160.7352
86.598694 93.466 160.5921
87.226227 93.441 160.4466
87.858307 93.415 160.2971
88.494965 93.388 160.1453
89.136238 93.359 159.9930
89.782158 93.330 159.8409
90.432755 93.303 159.6877
91.088066 93.276 159.5328
91.748131 93.250 159.3781
92.412979 93.224 159.2278
93.082642 93.198 159.0851
93.757156 93.171 158.9499
94.436562 93.143 158.8190
95.120888 93.115 158.6885
95.810173 93.087 158.5565
96.504456 93.060 158.4234
97.203766 93.032 158.2913
97.908142 93.005 158.1616
98.617622 92.977 158.0336
99.332245 92.949 157.9055
100.052048 92.919 157.7768
100.777069 92.890 157.6502
101.507339 92.860 157.5304
102.242905 92.830 157.4194
102.983795 92.800 157.3142
103.730057 92.770 157.2072
104.481728 92.739 157.0916
105.238846 92.708 156.9656
106.001450 92.677 156.8352
106.769577 92.647 156.7092
107.543274 92.618 156.5938
108.322578 92.590 156.4907
109.107529 92.564 156.3970
109.898170 92.538 156.3084
110.694534 92.510 156.2203
111.496674 92.477 156.1298
112.304626 92.441 156.0366
113.118431 92.402 155.9427
113.938133 92.365 155.8531
114.763779 92.329 155.7752
115.595406 92.296 155.7166
116.433060 92.264 155.6837
117.276779 92.234 155.6774
118.126617 92.204 155.6909
118.982613 92.178 155.7100
119.844810 92.155 155.7125
120.713257 92.136 155.6727
121.587997 92.120 155.5763
122.469070 92.104 155.4327
123.356529 92.087 155.2710
124.250420 92.068 155.1227
125.150787 92.046 155.0052
126.057678 92.022 154.9162
126.971146 91.997 154.8419
127.891228 91.971 154.7715
128.817978 91.941 154.7038
129.751450 91.907 154.6433
130.691681 91.870 154.5885
131.638733 91.831 154.5231
132.592636 91.790 154.4243
133.553452 91.746 154.2820
134.521240 91.697 154.1078
135.496033 91.643 153.9283
136.477890 91.585 153.7717
137.466858 91.526 153.6583
138.462997 91.468 153.5983
139.466354 91.415 153.5880
140.476990 91.370 153.6065
141.494949 91.336 153.6235
142.520279 91.310 153.6143
143.553040 91.292 153.5692
144.593277 91.275 153.4896
145.641052 91.255 153.3821
146.696426 91.227 153.2579
147.759445 91.193 153.1328
148.830170 91.151 153.0230
149.908661 91.107 152.9397
150.994965 91.061 152.8856
152.089142 91.016 152.8578
153.191238 90.971 152.8534
154.301331 90.928 152.8759
155.419464 90.885 152.9344
156.545700 90.842 153.0371
157.680099 90.796 153.1835
158.822708 90.748 153.3611
159.973602 90.698 153.5515
161.132843 90.649 153.7363
162.300476 90.607 153.9032
163.476578 90.575 154.0489
164.661194 90.556 154.1813
165.854401 90.548 154.3146
167.056244 90.548 154.4562
168.266800 90.550 154.5981
169.486130 90.550 154.7196
170.714294 90.548 154.8016
171.951355 90.546 154.8422
173.197388 90.545 154.8576
174.452454 90.545 154.8627
175.716614 90.545 154.8596
176.989929 90.547 154.8463
178.272476 90.549 154.8239
179.564316 90.549 154.7876
180.865509 90.547 154.7234
182.176132 90.543 154.6257
183.496262 90.538 154.5037
184.825958 90.531 154.3665
186.165283 90.521 154.2160
187.514313 90.507 154.0567
188.873123 90.489 153.8969
190.241776 90.467 153.7412
191.620346 90.444 153.5898
193.008911 90.418 153.4426
194.407532 90.392 153.3027
195.816284 90.364 153.1757
197.235245 90.334 153.0668
198.664490 90.302 152.9766
200.104095 90.268 152.9013
201.554138 90.234 152.8357
203.014679 90.200 152.7758
204.485809 90.166 152.7206
205.967590 90.132 152.6701
207.460114 90.099 152.6245
208.963455 90.066 152.5833
210.477692 90.033 152.5464
212.002899 90.001 152.5142
213.539154 89.968 152.4873
215.086548 89.936 152.4666
216.645157 89.904 152.4532
218.215057 89.872 152.4460
219.796341 89.840 152.4416
221.389069 89.807 152.4367
222.993347 89.774 152.4304
224.609253 89.742 152.4232
226.236862 89.710 152.4158
227.876266 89.680 152.4095
229.527557 89.650 152.4057
231.190811 89.620 152.4052
232.866119 89.590 152.4072
234.553558 89.560 152.4105
236.253235 89.530 152.4146
237.965225 89.501 152.4200
239.689621 89.471 152.4288
241.426514 89.442 152.4419
243.175995 89.412 152.4590
244.938141 89.383 152.4788
246.713058 89.354 152.4997
248.500839 89.325 152.5208
250.301575 89.296 152.5430
252.115356 89.268 152.5680
253.942291 89.240 152.5969
255.782455 89.212 152.6295
257.635956 89.185 152.6639
259.502899 89.158 152.6984
261.383362 89.131 152.7325
263.277466 89.104 152.7670
265.185272 89.078 152.8032
267.106903 89.051 152.8417
269.042480 89.025 152.8826
270.992065 88.998 152.9252
272.955780 88.971 152.9689
274.933716 88.945 153.0123
276.925995 88.918 153.0538
278.932709 88.891 153.0920
280.953979 88.864 153.1270
282.989899 88.836 153.1605
285.040558 88.808 153.1957
287.106079 88.780 153.2360
289.186554 88.753 153.2826
291.282104 88.727 153.3346
293.392853 88.702 153.3899
295.518890 88.677 153.4467
297.660339 88.653 153.5033
299.817322 88.628 153.5594
301.989929 88.602 153.6170
304.178284 88.576 153.6786
306.382477 88.550 153.7447
308.602661 88.524 153.8128
310.838928 88.499 153.8796
313.091400 88.475 153.9431
315.360199 88.452 154.0027
317.645416 88.430 154.0597
319.947205 88.407 154.1163
322.265686 88.385 154.1749
324.600952 88.363 154.2368
326.953156 88.341 154.3013
329.322388 88.320 154.3674
331.708801 88.299 154.4348
334.112488 88.279 154.5037
336.533600 88.261 154.5751
338.972260 88.242 154.6497
341.428589 88.224 154.7261
343.902710 88.205 154.8007
346.394775 88.185 154.8710
348.904907 88.165 154.9366
351.433228 88.145 154.9983
353.979858 88.125 155.0568
356.544952 88.106 155.1125
359.128632 88.087 155.1654
361.731018 88.069 155.2162
364.352264 88.050 155.2659
366.992523 88.031 155.3163
369.651917 88.012 155.3681
372.330566 87.993 155.4213
375.028625 87.974 155.4751
377.746246 87.955 155.5290
380.483551 87.937 155.5832
383.240692 87.918 155.6379
386.017822 87.900 155.6940
388.815063 87.882 155.7524
391.632568 87.864 155.8130
394.470490 87.846 155.8757
397.328979 87.828 155.9406
400.208191 87.810 156.0078
403.108276 87.792 156.0780
406.029358 87.774 156.1520
408.971619 87.756 156.2296
411.935181 87.738 156.3097
414.920227 87.721 156.3906
417.926910 87.704 156.4709
420.955383 87.688 156.5496
424.005798 87.671 156.6265
427.078308 87.655 156.7020
430.173096 87.639 156.7766
433.290314 87.622 156.8505
436.430115 87.606 156.9230
439.592682 87.591 156.9949
442.778137 87.575 157.0673
445.986694 87.560 157.1415
449.218506 87.546 157.2180
452.473724 87.531 157.2964
455.752533 87.516 157.3765
459.055115 87.502 157.4576
462.381622 87.488 157.5390
465.732239 87.474 157.6199
469.107117 87.461 157.6999
472.506470 87.447 157.7794
475.930450 87.434 157.8591
479.379242 87.421 157.9397
482.853027 87.409 158.0215
486.351990 87.396 158.1041
489.876282 87.383 158.1871
493.426117 87.371 158.2704
497.001678 87.358 158.3535
500.603149 87.346 158.4363
504.230713 87.334 158.5191
507.884583 87.322 158.6024
511.564911 87.311 158.6864
515.271912 87.299 158.7710
519.005798 87.288 158.8561
522.766724 87.277 158.9421
526.554932 87.267 159.0297
530.370544 87.256 159.1193
534.213806 87.246 159.2109
538.084961 87.236 159.3040
541.984131 87.226 159.3977
545.911560 87.217 159.4915
549.867432 87.207 159.5849
553.851990 87.199 159.6782
557.865417 87.190 159.7717
561.907959 87.181 159.8658
565.979797 87.173 159.9607
570.081116 87.165 160.0565
574.212158 87.158 160.1529
578.373108 87.150 160.2499
582.564209 87.143 160.3477
586.785706 87.136 160.4465
591.037781 87.130 160.5467
595.320679 87.124 160.6483
599.634644 87.117 160.7513
603.979858 87.112 160.8557
608.356567 87.106 160.9611
612.764954 87.101 161.0673
617.205322 87.096 161.1743
621.677856 87.091 161.2817
626.182800 87.087 161.3896
630.720398 87.083 161.4982
635.290833 87.079 161.6079
639.894409 87.075 161.7190
644.531372 87.072 161.8317
649.201904 87.070 161.9461
653.906311 87.067 162.0623
658.644775 87.066 162.1806
663.417603 87.064 162.3007
668.224976 87.063 162.4225
673.067200 87.063 162.5456
677.944519 87.063 162.6697
682.857178 87.063 162.7946
687.805420 87.064 162.9202
692.789551 87.066 163.0465
697.809814 87.068 163.1740
702.866455 87.071 163.3032
707.959717 87.074 163.4343
713.089905 87.078 163.5670
718.257263 87.083 163.7005
723.462036 87.089 163.8341
728.704529 87.095 163.9676
733.985046 87.102 164.1016
739.303833 87.110 164.2372
744.661133 87.119 164.3750
750.057251 87.128 164.5151
755.492493 87.138 164.6570
760.967102 87.148 164.8002
766.481384 87.159 164.9440
772.035645 87.171 165.0881
777.630127 87.184 165.2326
783.265137 87.198 165.3777
788.940979 87.212 165.5237
794.657959 87.228 165.6702
800.416382 87.245 165.8170
806.216553 87.262 165.9638
812.058716 87.281 166.1106
817.943237 87.301 166.2572
823.870361 87.322 166.4033
829.840454 87.344 166.5487
835.853821 87.367 166.6933
841.910767 87.392 166.8368
848.011597 87.418 166.9791
854.156616 87.446 167.1198
860.346191 87.474 167.2586
866.580627 87.504 167.3953
872.860229 87.535 167.5297
879.185364 87.568 167.6615
885.556274 87.602 167.7902
891.973389 87.637 167.9155
898.437012 87.673 168.0372
904.947449 87.710 168.1548
911.505066 87.749 168.2680
918.110229 87.790 168.3766
924.763245 87.831 168.4805
931.464478 87.874 168.5794
938.214233 87.919 168.6728
945.012939 87.966 168.7591
951.860901 88.015 168.8361
958.758484 88.065 168.9026
965.706055 88.116 168.9586
972.703979 88.169 169.0059
979.752563 88.222 169.0471
986.852234 88.276 169.0842
994.003357 88.331 169.1169
1001.206299 88.387 169.1427
1008.461426 88.444 169.1578
1015.769165 88.502 169.1582
1023.129822 88.562 169.1424
1030.543823 88.623 169.1111
1038.011597 88.686 169.0673
1045.533447 88.749 169.0135
1053.109863 88.813 168.9509
1060.741089 88.877 168.8791
1068.427612 88.941 168.7964
1076.169922 89.005 168.7014
1083.968262 89.069 168.5931
1091.823120 89.133 168.4716
1099.734863 89.198 168.3374
1107.703979 89.262 168.1907
1115.730835 89.327 168.0314
1123.815918 89.391 167.8599
1131.959595 89.455 167.6763
1140.162231 89.519 167.4811
1148.424316 89.583 167.2745
1156.746216 89.647 167.0568
1165.128418 89.710 166.8282
1173.571411 89.773 166.5890
1182.075562 89.836 166.3397
1190.641357 89.898 166.0807
1199.269287 89.960 165.8123
1207.959717 90.021 165.5345
1216.713135 90.081 165.2474
1225.529907 90.141 164.9514
1234.410645 90.200 164.6470
1243.355713 90.259 164.3350
1252.365601 90.317 164.0158
1261.440796 90.375 163.6899
1270.581665 90.431 163.3575
1279.788818 90.488 163.0188
1289.062744 90.543 162.6740
1298.403809 90.598 162.3234
1307.812622 90.653 161.9673
1317.289551 90.706 161.6058
1326.835205 90.760 161.2391
1336.449951 90.813 160.8674
1346.134399 90.865 160.4911
1355.889038 90.918 160.1105
1365.714355 90.969 159.7258
1375.610840 91.020 159.3373
1385.579102 91.071 158.9452
1395.619629 91.122 158.5496
1405.732910 91.172 158.1504
1415.919434 91.222 157.7474
1426.179810 91.271 157.3409
1436.514526 91.320 156.9308
1446.924072 91.369 156.5175
1457.409058 91.418 156.1010
1467.970093 91.467 155.6814
1478.607666 91.515 155.2585
1489.322266 91.564 154.8324
1500.114502 91.612 154.4030
1510.984985 91.661 153.9702
1521.934204 91.709 153.5339
1532.962769 91.758 153.0941
1544.071289 91.806 152.6507
1555.260254 91.855 152.2036
1566.530273 91.904 151.7527
1577.881958 91.953 151.2981
1589.315918 92.002 150.8397
1600.832764 92.051 150.3774
1612.433105 92.101 149.9109
1624.117432 92.151 149.4400
1635.886475 92.201 148.9646
1647.740723 92.251 148.4846
1659.680908 92.301 147.9997
1671.707642 92.352 147.5099
1683.821533 92.403 147.0151
1696.023193 92.454 146.5154
1708.313232 92.506 146.0107
1720.692383 92.557 145.5006
1733.161255 92.610 144.9850
1745.720459 92.662 144.4635
1758.370728 92.715 143.9361
1771.112549 92.768 143.4026
1783.946777 92.821 142.8630
1796.874023 92.875 142.3170
1809.894897 92.930 141.7643
1823.010132 92.985 141.2047
1836.220459 93.040 140.6379
1849.526489 93.096 140.0638
1862.928955 93.152 139.4821
1876.428467 93.209 138.8925
1890.025879 93.267 138.2946
1903.721802 93.325 137.6881
1917.516968 93.383 137.0724
1931.412109 93.442 136.4473
1945.407959 93.502 135.8123
1959.505127 93.562 135.1670
1973.704468 93.622 134.5110
1988.006714 93.683 133.8439
2002.412598 93.743 133.1655
2016.922852 93.804 132.4757
2031.538330 93.865 131.7743
2046.259644 93.926 131.0614
2061.087646 93.987 130.3369
2076.023193 94.048 129.6008
2091.066895 94.108 128.8529
2106.219727 94.169 128.0931
2121.482178 94.230 127.3211
2136.855225 94.291 126.5369
2152.339844 94.352 125.7400
2167.936523 94.413 124.9302
2183.646240 94.473 124.1074
2199.469727 94.533 123.2713
2215.407959 94.594 122.4218
2231.461670 94.653 121.5587
2247.631836 94.713 120.6818
2263.919189 94.772 119.7910
2280.324463 94.830 118.8862
2296.848633 94.889 117.9672
2313.492432 94.946 117.0341
2330.256836 95.003 116.0867
2347.142822 95.059 115.1251
2364.151123 95.114 114.1491
2381.282715 95.168 113.1587
2398.538574 95.221 112.1539
2415.919434 95.273 111.1346
2433.426270 95.324 110.1011
2451.059814 95.373 109.0534
2468.821289 95.421 107.9916
2486.711426 95.468 106.9160
2504.731201 95.513 105.8268
2522.881592 95.557 104.7244
2541.163330 95.598 103.6093
2559.577637 95.638 102.4820
2578.125488 95.677 101.3427
2596.807617 95.713 100.1920
2615.625244 95.747 99.0301
2634.579102 95.779 97.8576
2653.670410 95.809 96.6749
2672.899902 95.837 95.4827
2692.268799 95.863 94.2818
2711.778076 95.885 93.0730
2731.428711 95.906 91.8576
2751.221680 95.923 90.6368
2771.158203 95.938 89.4123
2791.239258 95.950 88.1857
2811.465820 95.959 86.9593
2831.838867 95.966 85.7354
2852.359619 95.969 84.5170
2873.029053 95.970 83.3071
2893.848145 95.969 82.1088
2914.818115 95.966 80.9250
2935.940186 95.962 79.7583
2957.215332 95.959 78.6100
2978.644531 95.956 77.4800
3000.229004 95.955 76.3658
3021.969971 95.957 75.2619
3043.868408 95.964 74.1596
3065.925537 95.975 73.0479
3088.142578 95.990 71.9149
3110.520508 96.009 70.7496
3133.060547 96.030 69.5435
3155.763916 96.050 68.2926
3178.631836 96.069 66.9972
3201.665527 96.084 65.6618
3224.866211 96.094 64.2943
3248.234863 96.099 62.9037
3271.772949 96.098 61.4992
3295.481445 96.091 60.0891
3319.361816 96.078 58.6802
3343.415283 96.062 57.2777
3367.643066 96.040 55.8855
3392.046387 96.016 54.5063
3416.626465 95.988 53.1422
3441.384766 95.958 51.7944
3466.322510 95.926 50.4636
3491.440918 95.893 49.1497
3516.741455 95.860 47.8522
3542.225098 95.826 46.5697
3567.893555 95.793 45.2999
3593.748047 95.761 44.0396
3619.789795 95.730 42.7853
3646.020264 95.701 41.5329
3672.440918 95.672 40.2786
3699.052979 95.645 39.0194
3725.857910 95.618 37.7529
3752.856934 95.591 36.4781
3780.051758 95.564 35.1948
3807.443604 95.536 33.9037
3835.033936 95.508 32.6060
3862.824219 95.478 31.3035
3890.815918 95.447 29.9983
3919.010254 95.414 28.6928
3947.408936 95.380 27.3899
3976.013428 95.345 26.0920
4004.825195 95.310 24.8013
4033.845703 95.274 23.5187
4063.076660 95.238 22.2437
4092.519287 95.204 20.9746
4122.175293 95.170 19.7086
4152.046387 95.138 18.4421
4182.133789 95.107 17.1723
4212.439453 95.077 15.8966
4242.964355 95.047 14.6136
4273.710449 95.018 13.3238
4304.679688 94.989 12.0284
4335.873047 94.959 10.7302
4367.292480 94.929 9.4322
4398.939453 94.899 8.1369
4430.815918 94.870 6.8455
4462.923340 94.843 5.5575
4495.263672 94.817 4.2708
4527.838379 94.794 2.9816
4560.648926 94.773 1.6859
4593.697266 94.755 0.3791
4626.984863 94.739 -0.9427
4660.513672 94.726 -2.2830
4694.285645 94.714 -3.6442
4728.302246 94.704 -5.0277
4762.565430 94.695 -6.4346
4797.077148 94.686 -7.8651
4831.838867 94.678 -9.3188
4866.852539 94.669 -10.7955
4902.119629 94.661 -12.2944
4937.642578 94.652 -13.8149
4973.422852 94.642 -15.3564
5009.462402 94.632 -16.9183
5045.763184 94.620 -18.5001
5082.326660 94.607 -20.1006
5119.155273 94.593 -21.7185
5156.250977 94.577 -23.3524
5193.615234 94.560 -25.0005
5231.250488 94.541 -26.6611
5269.158203 94.520 -28.3323
5307.340820 94.497 -30.0124
5345.799805 94.474 -31.7000
5384.537598 94.448 -33.3937
5423.556152 94.422 -35.0925
5462.857422 94.394 -36.7958
5502.443359 94.365 -38.5027
5542.316406 94.336 -40.2130
5582.478516 94.305 -41.9261
5622.931641 94.274 -43.6417
5663.677734 94.243 -45.3597
5704.719238 94.210 -47.0800
5746.058105 94.178 -48.8022
5787.696289 94.145 -50.5258
5829.636230 94.112 -52.2505
5871.880371 94.078 -53.9753
5914.430664 94.045 -55.6998
5957.289062 94.012 -57.4229
6000.458008 93.979 -59.1435
6043.939941 93.946 -60.8605
6087.736816 93.914 -62.5728
6131.851074 93.884 -64.2794
6176.285156 93.854 -65.9800
6221.041016 93.827 -67.6744
6266.121094 93.803 -69.3634
6311.527832 93.781 -71.0482
6357.263672 93.763 -72.7308
6403.331055 93.749 -74.4137
6449.732422 93.740 -76.1001
6496.469727 93.735 -77.7935
6543.545898 93.736 -79.4975
6590.962891 93.741 -81.2157
6638.723633 93.751 -82.9513
6686.830566 93.767 -84.7070
6735.286133 93.787 -86.4851
6784.092773 93.812 -88.2876
6833.252930 93.842 -90.1160
6882.769531 93.877 -91.9712
6932.645020 93.916 -93.8535
6982.881836 93.960 -95.7627
7033.482910 94.009 -97.6979
7084.450195 94.063 -99.6578
7135.787109 94.123 -101.6412
7187.496094 94.190 -103.6470
7239.579590 94.265 -105.6750
7292.040527 94.349 -107.7272
7344.881836 94.445 -109.8081
7398.105957 94.554 -111.9265
7451.715820 94.680 -114.0961
7505.713867 94.824 -116.3367
7560.103516 94.989 -118.6755
7614.887207 95.174 -121.1458
7670.067871 95.382 -123.7866
7725.648438 95.609 -126.6411
7781.631836 95.852 -129.7537
7838.020508 96.107 -133.1671
7894.817871 96.365 -136.9188
7952.026855 96.618 -141.0371
8009.650391 96.854 -145.5374
8067.691406 97.062 -150.4194
8126.153320 97.229 -155.6646
8185.038574 97.344 -161.2346
8244.350586 97.395 -167.0729
8304.092773 97.375 -173.1054
8364.267578 97.277 -179.2454
8424.878906 97.098 174.6013
8485.928711 96.839 168.5296
8547.420898 96.505 162.6284
8609.359375 96.102 156.9742
8671.746094 95.639 151.6284
8734.584961 95.126 146.6348
8797.878906 94.575 142.0205
8861.631836 93.995 137.7963
8925.846680 93.398 133.9595
8990.527344 92.793 130.4957
9055.676758 92.186 127.3818
9121.297852 91.585 124.5893
9187.394531 90.995 122.0860
9253.969727 90.419 119.8399
9321.027344 89.859 117.8203
9388.571289 89.317 115.9996
9456.604492 88.792 114.3539
9525.130859 88.285 112.8635
9594.154297 87.794 111.5126
9663.677734 87.320 110.2890
9733.705078 86.863 109.1825
9804.239258 86.422 108.1844
9875.285156 85.997 107.2869
9946.845703 85.589 106.4821
10018.924805 85.196 105.7633
10091.526367 84.820 105.1241
10164.653320 84.459 104.5594
10238.310547 84.112 104.0654
10312.501953 83.780 103.6405
10387.230469 83.461 103.2853
10462.500977 83.155 103.0034
10538.316406 82.862 102.8005
10614.681641 82.581 102.6855
10691.599609 82.313 102.6701
10769.075195 82.059 102.7698
10847.112305 81.818 103.0040
10925.714844 81.595 103.3973
11004.886719 81.392 103.9795
11084.632812 81.214 104.7849
11164.957031 81.070 105.8508
11245.863281 80.972 107.2110
11327.355469 80.933 108.8859
11409.438477 80.973 110.8651
11492.116211 81.111 113.0843
11575.392578 81.364 115.4054
11659.272461 81.739 117.6119
11743.760742 82.234 119.4363
11828.861328 82.831 120.6146
11914.578125 83.500 120.9484
12000.916016 84.207 120.3436
12087.879883 84.919 118.8150
12175.473633 85.608 116.4649
12263.702148 86.259 113.4490
12352.570312 86.862 109.9443
12442.082031 87.419 106.1204
12532.242188 87.939 102.1199
12623.055664 88.437 98.0452
12714.527344 88.931 93.9526
12806.662109 89.439 89.8498
12899.464844 89.978 85.6989
12992.939453 90.561 81.4199
13087.091797 91.199 76.8990
13181.925781 91.892 71.9977
13277.447266 92.633 66.5649
13373.661133 93.407 60.4510
13470.572266 94.189 53.5260
13568.185547 94.946 45.6956
13666.505859 95.641 36.9189
13765.539062 96.233 27.2238
13865.290039 96.683 16.7185
13965.763672 96.957 5.5964
14066.965820 97.030 -5.8733
14168.900391 96.893 -17.3731
14271.574219 96.552 -28.5815
14374.992188 96.026 -39.2159
14479.159180 95.347 -49.0619
14584.081055 94.551 -57.9835
14689.763672 93.678 -65.9193
14796.211914 92.764 -72.8727
14903.431641 91.845 -78.8986
15011.427734 90.949 -84.0887
15120.207031 90.100 -88.5574
15229.774414 89.314 -92.4277
15340.135742 88.601 -95.8210
15451.296875 87.965 -98.8493
15563.263672 87.407 -101.6124
15676.041016 86.925 -104.1989
15789.635742 86.516 -106.6870
15904.053711 86.174 -109.1464
16019.300781 85.894 -111.6392
16135.382812 85.669 -114.2186
16252.306641 85.492 -116.9276
16370.077148 85.356 -119.7983
16488.701172 85.254 -122.8552
16608.185547 85.181 -126.1180
16728.535156 85.132 -129.6068
16849.757812 85.103 -133.3438
16971.857422 85.090 -137.3534
17094.841797 85.088 -141.6609
17218.718750 85.091 -146.2889
17343.492188 85.093 -151.2537
17469.169922 85.086 -156.5642
17595.757812 85.063 -162.2212
17723.263672 85.016 -168.2183
17851.693359 84.939 -174.5431
17981.054688 84.823 178.8220
18111.353516 84.662 171.9022
18242.595703 84.446 164.7351
18374.789062 84.166 157.3784
18507.939453 83.814 149.9198
18642.054688 83.382 142.4834
18777.142578 82.869 135.2301
18913.208984 82.285 128.3347
19050.261719 81.653 121.9275
19188.308594 81.013 116.0144
19327.355469 80.408 110.4375
19467.410156 79.871 104.9376
19608.478516 79.422 99.2942
19750.570312 79.067 93.4302
19893.691406 78.818 87.4275
20037.849609 0.000 81.4600
