* Measurement data measured by REW V5.30.4
* Source: Headset (2- CX31993 HIFI AUDIO), MICROPHONE (Master Volume), L, volume: 0.500
* Format: 256k Log Swept Sine, 1 sweep at -12.0 dBFS with no timing reference
* Dated: 06 8, 24 6:14:04 PM
* REW Settings:
*  C-weighting compensation: Off
*  Target level: 75.0 dB
* Note: ; 
* Measurement: T 4U Natural L
* Smoothing: 1/12 octave
* Frequency Step: 96 ppo
* Start Frequency: 20.141602 Hz
*
* Freq(Hz) SPL(dB) Phase(degrees)
20.141602 85.653 -79.9650
20.287556 85.683 -80.1513
20.434568 85.728 -80.4210
20.582645 85.784 -80.7469
20.731796 85.848 -81.1070
20.882027 85.917 -81.4869
21.033346 85.989 -81.8791
21.185762 86.062 -82.2803
21.339283 86.136 -82.6900
21.493916 86.209 -83.1082
21.649670 86.280 -83.5347
21.806553 86.349 -83.9684
21.964573 86.416 -84.4076
22.123737 86.480 -84.8496
22.284056 86.541 -85.2918
22.445536 86.599 -85.7320
22.608185 86.656 -86.1687
22.772013 86.712 -86.6018
22.937029 86.767 -87.0327
23.103241 86.822 -87.4638
23.270657 86.877 -87.8985
23.439285 86.933 -88.3401
23.609137 86.989 -88.7911
23.780218 87.045 -89.2525
23.952539 87.099 -89.7234
24.126110 87.153 -90.2011
24.300938 87.205 -90.6808
24.477032 87.256 -91.1575
24.654402 87.305 -91.6260
24.833057 87.355 -92.0830
25.013008 87.407 -92.5275
25.194263 87.460 -92.9617
25.376831 87.517 -93.3912
25.560722 87.578 -93.8238
25.745945 87.642 -94.2684
25.932510 87.709 -94.7334
26.120428 87.777 -95.2245
26.309708 87.844 -95.7437
26.500359 87.908 -96.2884
26.692390 87.969 -96.8516
26.885815 88.024 -97.4232
27.080641 88.074 -97.9911
27.276878 88.120 -98.5440
27.474539 88.164 -99.0729
27.673630 88.207 -99.5727
27.874165 88.252 -100.0432
28.076153 88.300 -100.4886
28.279604 88.352 -100.9165
28.484529 88.410 -101.3353
28.690941 88.471 -101.7529
28.898848 88.536 -102.1741
29.108261 88.603 -102.5999
29.319191 88.669 -103.0270
29.531651 88.733 -103.4495
29.745649 88.795 -103.8597
29.961199 88.854 -104.2509
30.178310 88.909 -104.6182
30.396996 88.960 -104.9605
30.617264 89.009 -105.2806
30.839128 89.054 -105.5849
31.062601 89.097 -105.8822
31.287693 89.137 -106.1830
31.514416 89.173 -106.4971
31.742783 89.207 -106.8336
31.972803 89.237 -107.1988
32.204491 89.265 -107.5970
32.437859 89.292 -108.0291
32.672916 89.317 -108.4938
32.909679 89.343 -108.9870
33.148155 89.371 -109.5027
33.388359 89.401 -110.0333
33.630306 89.435 -110.5702
33.874004 89.474 -111.1049
34.119469 89.517 -111.6297
34.366711 89.565 -112.1384
34.615746 89.618 -112.6275
34.866585 89.673 -113.0964
35.119244 89.731 -113.5474
35.373734 89.790 -113.9862
35.630066 89.849 -114.4204
35.888256 89.907 -114.8583
36.148315 89.963 -115.3077
36.410259 90.015 -115.7734
36.674103 90.063 -116.2563
36.939857 90.106 -116.7524
37.207539 90.144 -117.2533
37.477161 90.178 -117.7479
37.748737 90.209 -118.2247
38.022282 90.239 -118.6749
38.297806 90.270 -119.0943
38.575329 90.303 -119.4849
38.854862 90.338 -119.8542
39.136421 90.376 -120.2130
39.420021 90.416 -120.5729
39.705673 90.456 -120.9436
39.993397 90.495 -121.3308
40.283207 90.532 -121.7359
40.575115 90.567 -122.1566
40.869141 90.600 -122.5886
41.165295 90.633 -123.0268
41.463596 90.665 -123.4673
41.764057 90.699 -123.9077
42.066696 90.733 -124.3474
42.371529 90.770 -124.7873
42.678570 90.807 -125.2284
42.987835 90.844 -125.6711
43.299343 90.879 -126.1147
43.613110 90.913 -126.5570
43.929150 90.944 -126.9956
44.247478 90.973 -127.4288
44.568115 91.002 -127.8565
44.891075 91.030 -128.2809
45.216373 91.059 -128.7048
45.544029 91.089 -129.1313
45.874062 91.119 -129.5616
46.206486 91.148 -129.9950
46.541317 91.175 -130.4292
46.878574 91.202 -130.8619
47.218277 91.226 -131.2914
47.560440 91.250 -131.7169
47.905083 91.272 -132.1380
48.252224 91.294 -132.5544
48.601879 91.317 -132.9659
48.954067 91.340 -133.3725
49.308807 91.365 -133.7760
49.666119 91.391 -134.1798
50.026020 91.420 -134.5881
50.388531 91.448 -135.0047
50.753666 91.476 -135.4315
51.121449 91.502 -135.8682
51.491894 91.525 -136.3122
51.865025 91.546 -136.7594
52.240860 91.564 -137.2053
52.619419 91.582 -137.6450
53.000721 91.599 -138.0745
53.384785 91.617 -138.4918
53.771633 91.637 -138.8983
54.161285 91.659 -139.2984
54.553761 91.684 -139.6991
54.949081 91.709 -140.1068
55.347263 91.733 -140.5249
55.748333 91.755 -140.9533
56.152309 91.774 -141.3884
56.559212 91.790 -141.8259
56.969063 91.803 -142.2623
57.381886 91.816 -142.6960
57.797699 91.828 -143.1271
58.216526 91.840 -143.5557
58.638386 91.854 -143.9819
59.063305 91.868 -144.4049
59.491302 91.884 -144.8231
59.922401 91.899 -145.2345
60.356625 91.914 -145.6369
60.793995 91.928 -146.0287
61.234531 91.940 -146.4103
61.678261 91.951 -146.7850
62.125206 91.961 -147.1582
62.575390 91.969 -147.5370
63.028835 91.976 -147.9271
63.485569 91.983 -148.3318
63.945610 91.990 -148.7504
64.408989 91.997 -149.1789
64.875725 92.006 -149.6115
65.345840 92.015 -150.0420
65.819366 92.025 -150.4658
66.296318 92.036 -150.8799
66.776726 92.046 -151.2839
67.260620 92.055 -151.6783
67.748016 92.064 -152.0647
68.238945 92.072 -152.4432
68.733429 92.081 -152.8115
69.231499 92.092 -153.1642
69.733177 92.104 -153.4969
70.238495 92.117 -153.8117
70.747475 92.132 -154.1211
71.260139 92.147 -154.4453
71.776520 92.158 -154.8029
72.296638 92.163 -155.2004
72.820526 92.162 -155.6294
73.348213 92.156 -156.0722
73.879723 92.147 -156.5117
74.415085 92.138 -156.9389
74.954330 92.130 -157.3546
75.497482 92.124 -157.7634
76.044571 92.120 -158.1689
76.595619 92.119 -158.5694
77.150665 92.118 -158.9603
77.709732 92.118 -159.3386
78.272850 92.117 -159.7052
78.840050 92.116 -160.0638
79.411354 92.112 -160.4189
79.986801 92.109 -160.7744
80.566422 92.105 -161.1336
81.150238 92.102 -161.4983
81.738289 92.100 -161.8671
82.330597 92.097 -162.2362
82.927200 92.094 -162.6024
83.528122 92.089 -162.9650
84.133400 92.084 -163.3260
84.743065 92.078 -163.6873
85.357147 92.072 -164.0497
85.975677 92.067 -164.4125
86.598694 92.061 -164.7737
87.226227 92.057 -165.1299
87.858307 92.052 -165.4780
88.494965 92.047 -165.8161
89.136238 92.041 -166.1460
89.782158 92.035 -166.4725
90.432755 92.028 -166.8007
91.088066 92.019 -167.1318
91.748131 92.010 -167.4641
92.412979 92.001 -167.7970
93.082642 91.991 -168.1308
93.757156 91.982 -168.4645
94.436562 91.972 -168.7942
95.120888 91.962 -169.1176
95.810173 91.952 -169.4366
96.504456 91.943 -169.7553
97.203766 91.933 -170.0757
97.908142 91.922 -170.3961
98.617622 91.909 -170.7139
99.332245 91.895 -171.0285
100.052048 91.879 -171.3420
100.777069 91.861 -171.6551
101.507339 91.842 -171.9647
102.242905 91.823 -172.2661
102.983795 91.805 -172.5583
103.730057 91.788 -172.8461
104.481728 91.774 -173.1372
105.238846 91.761 -173.4376
106.001450 91.750 -173.7471
106.769577 91.738 -174.0585
107.543274 91.724 -174.3602
108.322578 91.708 -174.6418
109.107529 91.691 -174.9005
109.898170 91.674 -175.1440
110.694534 91.658 -175.3860
111.496674 91.644 -175.6378
112.304626 91.631 -175.9046
113.118431 91.619 -176.1893
113.938133 91.604 -176.4968
114.763779 91.586 -176.8315
115.595406 91.564 -177.1913
116.433060 91.540 -177.5652
117.276779 91.516 -177.9376
118.126617 91.495 -178.2899
118.982613 91.478 -178.5987
119.844810 91.466 -178.8387
120.713257 91.456 -179.0035
121.587997 91.447 -179.1238
122.469070 91.434 -179.2573
123.356529 91.414 -179.4524
124.250420 91.390 -179.7190
125.150787 91.362 179.9703
126.057678 91.333 179.6571
126.971146 91.305 179.3716
127.891228 91.274 179.1166
128.817978 91.241 178.8685
129.751450 91.207 178.6028
130.691681 91.179 178.3245
131.638733 91.160 178.0680
132.592636 91.147 177.8598
133.553452 91.132 177.6861
134.521240 91.111 177.5067
135.496033 91.082 177.2991
136.477890 91.050 177.0805
137.466858 91.013 176.8824
138.462997 90.973 176.7103
139.466354 90.928 176.5396
140.476990 90.881 176.3504
141.494949 90.836 176.1522
142.520279 90.792 175.9672
143.553040 90.750 175.8044
144.593277 90.710 175.6588
145.641052 90.673 175.5280
146.696426 90.635 175.4139
147.759445 90.596 175.3162
148.830170 90.553 175.2386
149.908661 90.507 175.1947
150.994965 90.460 175.1987
152.089142 90.413 175.2555
153.191238 90.371 175.3644
154.301331 90.336 175.5226
155.419464 90.310 175.7219
156.545700 90.296 175.9489
157.680099 90.296 176.1870
158.822708 90.310 176.4136
159.973602 90.338 176.6026
161.132843 90.378 176.7321
162.300476 90.425 176.7848
163.476578 90.477 176.7429
164.661194 90.531 176.5925
165.854401 90.586 176.3340
167.056244 90.640 175.9821
168.266800 90.695 175.5595
169.486130 90.751 175.0918
170.714294 90.808 174.6014
171.951355 90.859 174.1113
173.197388 90.896 173.6535
174.452454 90.904 173.2560
175.716614 90.875 172.9201
176.989929 90.816 172.6224
178.272476 90.741 172.3443
179.564316 90.665 172.0864
180.865509 90.594 171.8518
182.176132 90.530 171.6351
183.496262 90.473 171.4259
184.825958 90.422 171.2177
186.165283 90.376 171.0134
187.514313 90.335 170.8188
188.873123 90.297 170.6334
190.241776 90.260 170.4507
191.620346 90.226 170.2675
193.008911 90.193 170.0867
194.407532 90.161 169.9135
195.816284 90.129 169.7498
197.235245 90.097 169.5925
198.664490 90.066 169.4377
200.104095 90.035 169.2848
201.554138 90.005 169.1357
203.014679 89.975 168.9903
204.485809 89.946 168.8477
205.967590 89.917 168.7084
207.460114 89.890 168.5731
208.963455 89.863 168.4413
210.477692 89.837 168.3116
212.002899 89.813 168.1823
213.539154 89.790 168.0526
215.086548 89.770 167.9244
216.645157 89.750 167.8041
218.215057 89.731 167.7000
219.796341 89.707 167.6168
221.389069 89.678 167.5476
222.993347 89.643 167.4794
224.609253 89.606 167.4045
226.236862 89.568 167.3228
227.876266 89.532 167.2377
229.527557 89.498 167.1530
231.190811 89.465 167.0714
232.866119 89.435 166.9951
234.553558 89.405 166.9245
236.253235 89.376 166.8580
237.965225 89.347 166.7923
239.689621 89.318 166.7241
241.426514 89.291 166.6514
243.175995 89.264 166.5756
244.938141 89.238 166.4995
246.713058 89.212 166.4268
248.500839 89.186 166.3599
250.301575 89.159 166.2997
252.115356 89.132 166.2443
253.942291 89.104 166.1906
255.782455 89.077 166.1361
257.635956 89.049 166.0798
259.502899 89.022 166.0224
261.383362 88.995 165.9667
263.277466 88.967 165.9158
265.185272 88.941 165.8715
267.106903 88.915 165.8343
269.042480 88.891 165.8030
270.992065 88.867 165.7758
272.955780 88.843 165.7498
274.933716 88.817 165.7212
276.925995 88.791 165.6883
278.932709 88.764 165.6546
280.953979 88.736 165.6274
282.989899 88.709 165.6107
285.040558 88.682 165.6034
287.106079 88.657 165.6028
289.186554 88.633 165.6068
291.282104 88.609 165.6133
293.392853 88.586 165.6187
295.518890 88.562 165.6183
297.660339 88.537 165.6108
299.817322 88.512 165.5973
301.989929 88.487 165.5781
304.178284 88.463 165.5518
306.382477 88.441 165.5182
308.602661 88.419 165.4807
310.838928 88.398 165.4449
313.091400 88.376 165.4159
315.360199 88.353 165.3955
317.645416 88.330 165.3828
319.947205 88.307 165.3759
322.265686 88.284 165.3744
324.600952 88.262 165.3782
326.953156 88.240 165.3873
329.322388 88.218 165.4007
331.708801 88.196 165.4168
334.112488 88.173 165.4338
336.533600 88.151 165.4501
338.972260 88.128 165.4655
341.428589 88.106 165.4807
343.902710 88.084 165.4979
346.394775 88.063 165.5182
348.904907 88.042 165.5418
351.433228 88.023 165.5673
353.979858 88.004 165.5932
356.544952 87.986 165.6171
359.128632 87.968 165.6368
361.731018 87.951 165.6515
364.352264 87.933 165.6624
366.992523 87.914 165.6724
369.651917 87.895 165.6837
372.330566 87.876 165.6961
375.028625 87.856 165.7083
377.746246 87.837 165.7195
380.483551 87.818 165.7305
383.240692 87.799 165.7426
386.017822 87.781 165.7572
388.815063 87.763 165.7754
391.632568 87.744 165.7978
394.470490 87.726 165.8241
397.328979 87.707 165.8532
400.208191 87.689 165.8837
403.108276 87.671 165.9150
406.029358 87.653 165.9472
408.971619 87.635 165.9808
411.935181 87.617 166.0161
414.920227 87.599 166.0532
417.926910 87.581 166.0917
420.955383 87.564 166.1308
424.005798 87.547 166.1701
427.078308 87.530 166.2094
430.173096 87.514 166.2491
433.290314 87.497 166.2905
436.430115 87.480 166.3348
439.592682 87.464 166.3824
442.778137 87.448 166.4326
445.986694 87.432 166.4839
449.218506 87.416 166.5358
452.473724 87.400 166.5878
455.752533 87.384 166.6404
459.055115 87.369 166.6940
462.381622 87.354 166.7490
465.732239 87.339 166.8053
469.107117 87.324 166.8627
472.506470 87.310 166.9208
475.930450 87.296 166.9796
479.379242 87.282 167.0388
482.853027 87.269 167.0988
486.351990 87.255 167.1600
489.876282 87.242 167.2224
493.426117 87.228 167.2860
497.001678 87.214 167.3509
500.603149 87.201 167.4174
504.230713 87.188 167.4855
507.884583 87.175 167.5554
511.564911 87.162 167.6267
515.271912 87.150 167.6992
519.005798 87.138 167.7727
522.766724 87.126 167.8471
526.554932 87.115 167.9223
530.370544 87.103 167.9984
534.213806 87.092 168.0757
538.084961 87.082 168.1544
541.984131 87.071 168.2343
545.911560 87.061 168.3155
549.867432 87.051 168.3977
553.851990 87.041 168.4808
557.865417 87.031 168.5648
561.907959 87.022 168.6497
565.979797 87.013 168.7355
570.081116 87.004 168.8226
574.212158 86.995 168.9113
578.373108 86.986 169.0017
582.564209 86.978 169.0939
586.785706 86.970 169.1876
591.037781 86.962 169.2827
595.320679 86.955 169.3790
599.634644 86.948 169.4764
603.979858 86.942 169.5752
608.356567 86.936 169.6754
612.764954 86.930 169.7772
617.205322 86.924 169.8803
621.677856 86.919 169.9850
626.182800 86.914 170.0914
630.720398 86.909 170.1997
635.290833 86.904 170.3102
639.894409 86.900 170.4231
644.531372 86.896 170.5381
649.201904 86.893 170.6552
653.906311 86.890 170.7738
658.644775 86.887 170.8939
663.417603 86.885 171.0155
668.224976 86.883 171.1389
673.067200 86.882 171.2639
677.944519 86.881 171.3903
682.857178 86.881 171.5175
687.805420 86.881 171.6457
692.789551 86.882 171.7751
697.809814 86.884 171.9066
702.866455 86.885 172.0406
707.959717 86.888 172.1776
713.089905 86.891 172.3174
718.257263 86.895 172.4596
723.462036 86.899 172.6039
728.704529 86.904 172.7498
733.985046 86.910 172.8966
739.303833 86.916 173.0441
744.661133 86.923 173.1924
750.057251 86.931 173.3420
755.492493 86.940 173.4932
760.967102 86.949 173.6464
766.481384 86.959 173.8015
772.035645 86.971 173.9586
777.630127 86.983 174.1173
783.265137 86.995 174.2774
788.940979 87.009 174.4386
794.657959 87.024 174.6006
800.416382 87.039 174.7634
806.216553 87.056 174.9268
812.058716 87.074 175.0906
817.943237 87.093 175.2548
823.870361 87.113 175.4191
829.840454 87.134 175.5835
835.853821 87.156 175.7476
841.910767 87.179 175.9112
848.011597 87.204 176.0741
854.156616 87.230 176.2359
860.346191 87.257 176.3962
866.580627 87.286 176.5547
872.860229 87.315 176.7111
879.185364 87.347 176.8651
885.556274 87.379 177.0161
891.973389 87.413 177.1641
898.437012 87.448 177.3089
904.947449 87.485 177.4501
911.505066 87.523 177.5875
918.110229 87.562 177.7204
924.763245 87.602 177.8482
931.464478 87.644 177.9702
938.214233 87.687 178.0860
945.012939 87.732 178.1951
951.860901 87.778 178.2974
958.758484 87.825 178.3928
965.706055 87.873 178.4810
972.703979 87.923 178.5617
979.752563 87.973 178.6344
986.852234 88.025 178.6984
994.003357 88.077 178.7534
1001.206299 88.131 178.7990
1008.461426 88.185 178.8354
1015.769165 88.241 178.8624
1023.129822 88.298 178.8802
1030.543823 88.356 178.8881
1038.011597 88.415 178.8845
1045.533447 88.476 178.8683
1053.109863 88.537 178.8391
1060.741089 88.600 178.7975
1068.427612 88.662 178.7448
1076.169922 88.725 178.6825
1083.968262 88.788 178.6116
1091.823120 88.850 178.5323
1099.734863 88.912 178.4436
1107.703979 88.974 178.3444
1115.730835 89.035 178.2338
1123.815918 89.096 178.1120
1131.959595 89.157 177.9796
1140.162231 89.218 177.8370
1148.424316 89.279 177.6842
1156.746216 89.339 177.5215
1165.128418 89.399 177.3492
1173.571411 89.459 177.1675
1182.075562 89.519 176.9769
1190.641357 89.578 176.7776
1199.269287 89.636 176.5699
1207.959717 89.694 176.3540
1216.713135 89.752 176.1302
1225.529907 89.809 175.8990
1234.410645 89.866 175.6607
1243.355713 89.922 175.4158
1252.365601 89.977 175.1647
1261.440796 90.032 174.9077
1270.581665 90.087 174.6450
1279.788818 90.141 174.3768
1289.062744 90.194 174.1035
1298.403809 90.248 173.8253
1307.812622 90.300 173.5424
1317.289551 90.352 173.2554
1326.835205 90.404 172.9644
1336.449951 90.455 172.6696
1346.134399 90.506 172.3712
1355.889038 90.556 172.0693
1365.714355 90.606 171.7638
1375.610840 90.656 171.4549
1385.579102 90.705 171.1427
1395.619629 90.755 170.8275
1405.732910 90.804 170.5095
1415.919434 90.852 170.1886
1426.179810 90.901 169.8649
1436.514526 90.949 169.5384
1446.924072 90.997 169.2092
1457.409058 91.045 168.8776
1467.970093 91.093 168.5435
1478.607666 91.141 168.2068
1489.322266 91.189 167.8674
1500.114502 91.237 167.5250
1510.984985 91.285 167.1795
1521.934204 91.333 166.8309
1532.962769 91.381 166.4789
1544.071289 91.429 166.1237
1555.260254 91.478 165.7649
1566.530273 91.526 165.4026
1577.881958 91.575 165.0367
1589.315918 91.624 164.6674
1600.832764 91.673 164.2946
1612.433105 91.723 163.9182
1624.117432 91.772 163.5380
1635.886475 91.822 163.1537
1647.740723 91.872 162.7652
1659.680908 91.922 162.3723
1671.707642 91.973 161.9749
1683.821533 92.024 161.5731
1696.023193 92.075 161.1666
1708.313232 92.126 160.7554
1720.692383 92.178 160.3393
1733.161255 92.229 159.9182
1745.720459 92.282 159.4920
1758.370728 92.334 159.0605
1771.112549 92.387 158.6237
1783.946777 92.440 158.1813
1796.874023 92.493 157.7336
1809.894897 92.547 157.2804
1823.010132 92.601 156.8218
1836.220459 92.655 156.3578
1849.526489 92.710 155.8882
1862.928955 92.766 155.4126
1876.428467 92.821 154.9308
1890.025879 92.878 154.4425
1903.721802 92.935 153.9472
1917.516968 92.993 153.4442
1931.412109 93.051 152.9325
1945.407959 93.109 152.4113
1959.505127 93.169 151.8799
1973.704468 93.228 151.3378
1988.006714 93.288 150.7847
2002.412598 93.348 150.2205
2016.922852 93.408 149.6454
2031.538330 93.468 149.0598
2046.259644 93.528 148.4639
2061.087646 93.588 147.8581
2076.023193 93.648 147.2425
2091.066895 93.708 146.6172
2106.219727 93.768 145.9819
2121.482178 93.828 145.3365
2136.855225 93.887 144.6809
2152.339844 93.947 144.0149
2167.936523 94.007 143.3383
2183.646240 94.066 142.6509
2199.469727 94.125 141.9524
2215.407959 94.185 141.2426
2231.461670 94.243 140.5211
2247.631836 94.302 139.7878
2263.919189 94.360 139.0426
2280.324463 94.418 138.2853
2296.848633 94.476 137.5159
2313.492432 94.533 136.7340
2330.256836 94.590 135.9395
2347.142822 94.645 135.1324
2364.151123 94.701 134.3127
2381.282715 94.755 133.4805
2398.538574 94.809 132.6356
2415.919434 94.862 131.7782
2433.426270 94.914 130.9084
2451.059814 94.965 130.0262
2468.821289 95.015 129.1318
2486.711426 95.063 128.2252
2504.731201 95.111 127.3065
2522.881592 95.157 126.3760
2541.163330 95.202 125.4338
2559.577637 95.246 124.4800
2578.125488 95.288 123.5150
2596.807617 95.328 122.5389
2615.625244 95.367 121.5520
2634.579102 95.405 120.5544
2653.670410 95.441 119.5464
2672.899902 95.475 118.5283
2692.268799 95.507 117.5005
2711.778076 95.537 116.4634
2731.428711 95.565 115.4175
2751.221680 95.591 114.3635
2771.158203 95.615 113.3018
2791.239258 95.636 112.2332
2811.465820 95.655 111.1588
2831.838867 95.672 110.0795
2852.359619 95.686 108.9966
2873.029053 95.698 107.9112
2893.848145 95.707 106.8248
2914.818115 95.713 105.7390
2935.940186 95.717 104.6554
2957.215332 95.719 103.5761
2978.644531 95.718 102.5036
3000.229004 95.715 101.4402
3021.969971 95.710 100.3885
3043.868408 95.703 99.3508
3065.925537 95.696 98.3290
3088.142578 95.689 97.3241
3110.520508 95.683 96.3354
3133.060547 95.679 95.3604
3155.763916 95.678 94.3939
3178.631836 95.680 93.4286
3201.665527 95.685 92.4552
3224.866211 95.694 91.4645
3248.234863 95.705 90.4481
3271.772949 95.718 89.4000
3295.481445 95.730 88.3180
3319.361816 95.741 87.2032
3343.415283 95.748 86.0600
3367.643066 95.752 84.8947
3392.046387 95.752 83.7142
3416.626465 95.747 82.5251
3441.384766 95.739 81.3331
3466.322510 95.726 80.1429
3491.440918 95.711 78.9577
3516.741455 95.692 77.7798
3542.225098 95.672 76.6102
3567.893555 95.649 75.4491
3593.748047 95.625 74.2960
3619.789795 95.600 73.1502
3646.020264 95.575 72.0107
3672.440918 95.548 70.8762
3699.052979 95.521 69.7457
3725.857910 95.494 68.6180
3752.856934 95.466 67.4922
3780.051758 95.437 66.3672
3807.443604 95.408 65.2426
3835.033936 95.378 64.1176
3862.824219 95.348 62.9923
3890.815918 95.316 61.8669
3919.010254 95.283 60.7422
3947.408936 95.248 59.6198
3976.013428 95.212 58.5023
4004.825195 95.175 57.3925
4033.845703 95.137 56.2928
4063.076660 95.098 55.2055
4092.519287 95.060 54.1312
4122.175293 95.022 53.0691
4152.046387 94.985 52.0168
4182.133789 94.950 50.9708
4212.439453 94.917 49.9265
4242.964355 94.885 48.8795
4273.710449 94.856 47.8256
4304.679688 94.827 46.7624
4335.873047 94.799 45.6887
4367.292480 94.771 44.6052
4398.939453 94.743 43.5141
4430.815918 94.714 42.4185
4462.923340 94.684 41.3219
4495.263672 94.654 40.2276
4527.838379 94.624 39.1377
4560.648926 94.594 38.0530
4593.697266 94.566 36.9724
4626.984863 94.540 35.8930
4660.513672 94.516 34.8112
4694.285645 94.494 33.7228
4728.302246 94.474 32.6240
4762.565430 94.456 31.5118
4797.077148 94.440 30.3841
4831.838867 94.424 29.2397
4866.852539 94.410 28.0780
4902.119629 94.397 26.8984
4937.642578 94.384 25.7009
4973.422852 94.371 24.4852
5009.462402 94.358 23.2514
5045.763184 94.344 22.0000
5082.326660 94.330 20.7319
5119.155273 94.315 19.4484
5156.250977 94.299 18.1516
5193.615234 94.281 16.8437
5231.250488 94.263 15.5272
5269.158203 94.243 14.2041
5307.340820 94.223 12.8757
5345.799805 94.202 11.5425
5384.537598 94.180 10.2045
5423.556152 94.159 8.8613
5462.857422 94.137 7.5126
5502.443359 94.115 6.1578
5542.316406 94.093 4.7966
5582.478516 94.070 3.4289
5622.931641 94.048 2.0546
5663.677734 94.024 0.6743
5704.719238 94.001 -0.7113
5746.058105 93.976 -2.1008
5787.696289 93.952 -3.4924
5829.636230 93.927 -4.8845
5871.880371 93.901 -6.2759
5914.430664 93.876 -7.6656
5957.289062 93.850 -9.0530
6000.458008 93.826 -10.4377
6043.939941 93.801 -11.8195
6087.736816 93.778 -13.1981
6131.851074 93.756 -14.5735
6176.285156 93.735 -15.9456
6221.041016 93.717 -17.3141
6266.121094 93.700 -18.6790
6311.527832 93.685 -20.0405
6357.263672 93.674 -21.3995
6403.331055 93.666 -22.7573
6449.732422 93.662 -24.1152
6496.469727 93.663 -25.4756
6543.545898 93.668 -26.8414
6590.962891 93.678 -28.2156
6638.723633 93.694 -29.6016
6686.830566 93.715 -31.0027
6735.286133 93.741 -32.4222
6784.092773 93.773 -33.8632
6833.252930 93.811 -35.3281
6882.769531 93.855 -36.8198
6932.645020 93.904 -38.3405
6982.881836 93.959 -39.8920
7033.482910 94.020 -41.4760
7084.450195 94.087 -43.0938
7135.787109 94.160 -44.7463
7187.496094 94.239 -46.4340
7239.579590 94.326 -48.1573
7292.040527 94.422 -49.9177
7344.881836 94.528 -51.7180
7398.105957 94.645 -53.5653
7451.715820 94.777 -55.4717
7505.713867 94.926 -57.4556
7560.103516 95.093 -59.5432
7614.887207 95.279 -61.7678
7670.067871 95.484 -64.1689
7725.648438 95.707 -66.7901
7781.631836 95.943 -69.6764
7838.020508 96.186 -72.8694
7894.817871 96.428 -76.4041
7952.026855 96.658 -80.3033
8009.650391 96.866 -84.5753
8067.691406 97.040 -89.2107
8126.153320 97.166 -94.1805
8185.038574 97.233 -99.4360
8244.350586 97.232 -104.9097
8304.092773 97.155 -110.5189
8364.267578 96.999 -116.1708
8424.878906 96.762 -121.7688
8485.928711 96.447 -127.2197
8547.420898 96.060 -132.4404
8609.359375 95.611 -137.3632
8671.746094 95.109 -141.9378
8734.584961 94.566 -146.1337
8797.878906 93.992 -149.9377
8861.631836 93.399 -153.3524
8925.846680 92.795 -156.3920
8990.527344 92.189 -159.0792
9055.676758 91.587 -161.4422
9121.297852 90.993 -163.5110
9187.394531 90.410 -165.3151
9253.969727 89.842 -166.8820
9321.027344 89.288 -168.2363
9388.571289 88.750 -169.3990
9456.604492 88.227 -170.3878
9525.130859 87.719 -171.2164
9594.154297 87.226 -171.8960
9663.677734 86.749 -172.4357
9733.705078 86.286 -172.8427
9804.239258 85.838 -173.1226
9875.285156 85.405 -173.2802
9946.845703 84.987 -173.3188
10018.924805 84.583 -173.2399
10091.526367 84.193 -173.0420
10164.653320 83.818 -172.7210
10238.310547 83.456 -172.2692
10312.501953 83.110 -171.6755
10387.230469 82.779 -170.9253
10462.500977 82.465 -169.9993
10538.316406 82.173 -168.8745
10614.681641 81.905 -167.5239
10691.599609 81.669 -165.9195
10769.075195 81.473 -164.0364
10847.112305 81.330 -161.8613
10925.714844 81.253 -159.4044
11004.886719 81.258 -156.7153
11084.632812 81.358 -153.8979
11164.957031 81.565 -151.1148
11245.863281 81.878 -148.5746
11327.355469 82.288 -146.4979
11409.438477 82.775 -145.0740
11492.116211 83.311 -144.4236
11575.392578 83.868 -144.5833
11659.272461 84.418 -145.5104
11743.760742 84.939 -147.1022
11828.861328 85.416 -149.2189
11914.578125 85.842 -151.7064
12000.916016 86.216 -154.4151
12087.879883 86.545 -157.2134
12175.473633 86.838 -159.9966
12263.702148 87.110 -162.6910
12352.570312 87.374 -165.2547
12442.082031 87.646 -167.6756
12532.242188 87.941 -169.9683
12623.055664 88.272 -172.1706
12714.527344 88.652 -174.3400
12806.662109 89.091 -176.5519
12899.464844 89.597 -178.8985
12992.939453 90.174 178.5108
13087.091797 90.823 175.5505
13181.925781 91.540 172.0836
13277.447266 92.312 167.9675
13373.661133 93.119 163.0665
13470.572266 93.933 157.2650
13568.185547 94.722 150.4842
13666.505859 95.444 142.6979
13765.539062 96.061 133.9479
13865.290039 96.532 124.3556
13965.763672 96.822 114.1267
14066.965820 96.909 103.5425
14168.900391 96.782 92.9304
14271.574219 96.450 82.6197
14374.992188 95.933 72.8968
14479.159180 95.264 63.9769
14584.081055 94.481 55.9940
14689.763672 93.623 49.0051
14796.211914 92.730 43.0009
14903.431641 91.835 37.9191
15011.427734 90.970 33.6601
15120.207031 90.155 30.1014
15229.774414 89.406 27.1134
15340.135742 88.732 24.5697
15451.296875 88.136 22.3563
15563.263672 87.616 20.3745
15676.041016 87.170 18.5413
15789.635742 86.792 16.7866
15904.053711 86.478 15.0513
16019.300781 86.222 13.2841
16135.382812 86.018 11.4389
16252.306641 85.859 9.4741
16370.077148 85.741 7.3515
16488.701172 85.658 5.0359
16608.185547 85.603 2.4950
16728.535156 85.571 -0.3010
16849.757812 85.556 -3.3784
16971.857422 85.550 -6.7592
17094.841797 85.547 -10.4587
17218.718750 85.539 -14.4843
17343.492188 85.517 -18.8327
17469.169922 85.472 -23.4888
17595.757812 85.398 -28.4245
17723.263672 85.287 -33.5994
17851.693359 85.134 -38.9622
17981.054688 84.937 -44.4552
18111.353516 84.696 -50.0214
18242.595703 84.416 -55.6141
18374.789062 84.104 -61.2098
18507.939453 83.769 -66.8179
18642.054688 83.419 -72.4799
18777.142578 83.054 -78.2525
18913.208984 82.669 -84.1781
19050.261719 82.256 -90.2589
19188.308594 81.803 -96.4479
19327.355469 81.310 -102.6631
19467.410156 80.786 -108.8114
19608.478516 80.259 -114.8073
19750.570312 79.774 -120.5772
19893.691406 79.395 -126.0479
20037.849609 0.000 -131.1404
