* Measurement data measured by REW V5.31.3
* Source: Headset (CX31993 HIFI AUDIO), MICROPHONE (Master Volume), R, volume: 0.400
* Format: 256k Log Swept Sine, 1 sweep at -11.9 dBFS with no timing reference
* Dated: 04 29, 25 11:12:59 AM
* REW Settings:
*  C-weighting compensation: Off
*  Target level: 75.0 dB
* Note: ; 
* Measurement: Tanchjim Zero Ultima R
* Smoothing: 1/12 octave
* Frequency Step: 96 ppo
* Start Frequency: 0.36621094 Hz
*
* Freq(Hz) SPL(dB) Phase(degrees)
0.366211 47.211 -13.7137
0.368865 47.203 -13.7004
0.371538 47.192 -13.6807
0.374230 47.178 -13.6565
0.376942 47.162 -13.6293
0.379673 47.145 -13.6004
0.382424 47.127 -13.5703
0.385196 47.109 -13.5396
0.387987 47.091 -13.5086
0.390798 47.072 -13.4774
0.393630 47.053 -13.4461
0.396483 47.034 -13.4146
0.399356 47.014 -13.3830
0.402250 46.995 -13.3513
0.405165 46.975 -13.3194
0.408101 46.956 -13.2873
0.411058 46.936 -13.2550
0.414037 46.916 -13.2225
0.417037 46.896 -13.1897
0.420059 46.875 -13.1565
0.423103 46.855 -13.1230
0.426169 46.834 -13.0892
0.429257 46.814 -13.0549
0.432368 46.793 -13.0201
0.435501 46.772 -12.9848
0.438656 46.750 -12.9490
0.441835 46.729 -12.9126
0.445037 46.707 -12.8755
0.448262 46.686 -12.8377
0.451510 46.664 -12.7992
0.454782 46.642 -12.7599
0.458077 46.620 -12.7197
0.461397 46.598 -12.6786
0.464740 46.575 -12.6365
0.468108 46.552 -12.5933
0.471500 46.530 -12.5491
0.474917 46.507 -12.5036
0.478358 46.484 -12.4569
0.481825 46.460 -12.4088
0.485316 46.437 -12.3593
0.488833 46.413 -12.3084
0.492375 46.389 -12.2558
0.495943 46.365 -12.2015
0.499537 46.341 -12.1455
0.503157 46.317 -12.0876
0.506803 46.292 -12.0278
0.510475 46.268 -11.9659
0.514175 46.243 -11.9018
0.517900 46.218 -11.8353
0.521653 46.193 -11.7665
0.525434 46.167 -11.6952
0.529241 46.142 -11.6212
0.533076 46.116 -11.5443
0.536939 46.090 -11.4646
0.540830 46.064 -11.3818
0.544749 46.037 -11.2957
0.548696 46.011 -11.2063
0.552673 45.984 -11.1134
0.556677 45.957 -11.0168
0.560711 45.930 -10.9163
0.564774 45.903 -10.8118
0.568867 45.875 -10.7031
0.572989 45.848 -10.5900
0.577141 45.820 -10.4723
0.581324 45.792 -10.3499
0.585536 45.763 -10.2224
0.589779 45.735 -10.0898
0.594053 45.706 -9.9518
0.598358 45.677 -9.8082
0.602694 45.648 -9.6588
0.607061 45.619 -9.5033
0.611460 45.589 -9.3416
0.615891 45.559 -9.1733
0.620354 45.529 -8.9983
0.624849 45.499 -8.8163
0.629377 45.469 -8.6271
0.633938 45.438 -8.4303
0.638532 45.407 -8.2259
0.643159 45.376 -8.0135
0.647819 45.345 -7.7928
0.652514 45.313 -7.5637
0.657242 45.282 -7.3259
0.662005 45.250 -7.0791
0.666802 45.217 -6.8232
0.671634 45.185 -6.5578
0.676501 45.152 -6.2827
0.681403 45.119 -5.9978
0.686341 45.086 -5.7029
0.691314 45.053 -5.3976
0.696324 45.020 -5.0820
0.701370 44.987 -4.7556
0.706452 44.954 -4.4185
0.711571 44.922 -4.0704
0.716728 44.893 -3.7110
0.721921 44.866 -3.3402
0.727153 44.844 -2.9577
0.732422 44.828 -2.5630
0.737729 44.819 -2.1557
0.743075 44.817 -1.7353
0.748460 44.821 -1.3016
0.753883 44.830 -0.8542
0.759346 44.842 -0.3931
0.764849 44.857 0.0817
0.770391 44.875 0.5701
0.775974 44.895 1.0720
0.781597 44.917 1.5872
0.787261 44.941 2.1153
0.792966 44.968 2.6561
0.798712 44.996 3.2092
0.804500 45.026 3.7741
0.810329 45.059 4.3505
0.816201 45.093 4.9378
0.822116 45.129 5.5354
0.828073 45.167 6.1428
0.834074 45.208 6.7592
0.840118 45.250 7.3840
0.846206 45.294 8.0165
0.852338 45.340 8.6557
0.858514 45.388 9.3008
0.864735 45.439 9.9510
0.871001 45.491 10.6052
0.877313 45.545 11.2625
0.883670 45.601 11.9218
0.890074 45.659 12.5821
0.896524 45.719 13.2422
0.903020 45.781 13.9010
0.909564 45.844 14.5574
0.916155 45.910 15.2101
0.922794 45.977 15.8579
0.929481 46.047 16.4997
0.936216 46.118 17.1342
0.943000 46.191 17.7602
0.949834 46.266 18.3765
0.956717 46.342 18.9819
0.963649 46.420 19.5751
0.970632 46.500 20.1551
0.977666 46.582 20.7207
0.984750 46.665 21.2706
0.991886 46.750 21.8040
0.999074 46.836 22.3197
1.006314 46.923 22.8167
1.013606 47.013 23.2940
1.020951 47.103 23.7508
1.028349 47.195 24.1861
1.035801 47.288 24.5992
1.043307 47.383 24.9894
1.050867 47.478 25.3561
1.058482 47.575 25.6990
1.066152 47.673 26.0178
1.073878 47.772 26.3127
1.081660 47.873 26.5847
1.089498 47.975 26.8351
1.097393 48.080 27.0661
1.105345 48.187 27.2803
1.113355 48.296 27.4806
1.121423 48.409 27.6691
1.129549 48.526 27.8474
1.137734 48.646 28.0161
1.145979 48.769 28.1757
1.154283 48.897 28.3260
1.162647 49.027 28.4669
1.171072 49.162 28.5981
1.179558 49.299 28.7191
1.188106 49.440 28.8296
1.196715 49.585 28.9292
1.205387 49.732 29.0176
1.214122 49.882 29.0945
1.222920 50.035 29.1596
1.231782 50.190 29.2125
1.240708 50.348 29.2531
1.249699 50.508 29.2811
1.258754 50.671 29.2962
1.267876 50.835 29.2983
1.277063 51.001 29.2871
1.286318 51.169 29.2624
1.295639 51.338 29.2240
1.305027 51.508 29.1718
1.314484 51.679 29.1054
1.324009 51.851 29.0249
1.333604 52.023 28.9298
1.343268 52.195 28.8200
1.353002 52.367 28.6954
1.362806 52.539 28.5556
1.372681 52.710 28.4005
1.382628 52.880 28.2299
1.392647 53.049 28.0434
1.402739 53.217 27.8410
1.412904 53.382 27.6224
1.423142 53.546 27.3876
1.433455 53.707 27.1366
1.443843 53.866 26.8698
1.454305 54.023 26.5877
1.464844 54.178 26.2915
1.475459 54.331 25.9822
1.486150 54.482 25.6614
1.496920 54.633 25.3303
1.507767 54.782 24.9898
1.518693 54.931 24.6408
1.529698 55.078 24.2838
1.540783 55.225 23.9192
1.551948 55.372 23.5473
1.563194 55.518 23.1684
1.574521 55.663 22.7826
1.585931 55.807 22.3902
1.597423 55.951 21.9912
1.608999 56.095 21.5857
1.620658 56.237 21.1737
1.632402 56.379 20.7554
1.644232 56.521 20.3305
1.656146 56.662 19.8992
1.668147 56.802 19.4614
1.680235 56.942 19.0169
1.692411 57.081 18.5656
1.704675 57.219 18.1073
1.717028 57.358 17.6420
1.729470 57.495 17.1693
1.742003 57.632 16.6890
1.754626 57.769 16.2007
1.767341 57.905 15.7042
1.780147 58.040 15.1991
1.793047 58.175 14.6848
1.806040 58.309 14.1608
1.819128 58.443 13.6267
1.832310 58.576 13.0818
1.845587 58.708 12.5259
1.858961 58.839 11.9590
1.872432 58.969 11.3811
1.886001 59.098 10.7930
1.899667 59.225 10.1953
1.913433 59.352 9.5890
1.927299 59.477 8.9749
1.941265 59.601 8.3540
1.955332 59.724 7.7272
1.969501 59.846 7.0954
1.983773 59.967 6.4593
1.998148 60.087 5.8197
2.012627 60.205 5.1773
2.027212 60.323 4.5327
2.041902 60.440 3.8864
2.056698 60.556 3.2391
2.071602 60.671 2.5910
2.086614 60.785 1.9426
2.101734 60.899 1.2940
2.116964 61.012 0.6453
2.132304 61.124 -0.0035
2.147756 61.235 -0.6529
2.163320 61.346 -1.3035
2.178996 61.456 -1.9563
2.194786 61.565 -2.6130
2.210690 61.673 -3.2750
2.226710 61.780 -3.9439
2.242845 61.886 -4.6205
2.259098 61.991 -5.3052
2.275468 62.094 -5.9977
2.291957 62.196 -6.6970
2.308566 62.296 -7.4023
2.325295 62.395 -8.1124
2.342145 62.493 -8.8260
2.359117 62.590 -9.5419
2.376212 62.685 -10.2588
2.393431 62.779 -10.9754
2.410775 62.873 -11.6906
2.428244 62.965 -12.4032
2.445840 63.056 -13.1122
2.463564 63.146 -13.8167
2.481416 63.235 -14.5160
2.499397 63.324 -15.2096
2.517509 63.411 -15.8975
2.535752 63.498 -16.5805
2.554127 63.583 -17.2597
2.572635 63.667 -17.9370
2.591277 63.750 -18.6146
2.610055 63.832 -19.2941
2.628968 63.912 -19.9765
2.648019 63.991 -20.6620
2.667208 64.068 -21.3501
2.686535 64.144 -22.0401
2.706003 64.219 -22.7307
2.725612 64.292 -23.4206
2.745363 64.364 -24.1083
2.765257 64.435 -24.7921
2.785295 64.505 -25.4706
2.805478 64.574 -26.1421
2.825808 64.642 -26.8051
2.846285 64.709 -27.4582
2.866910 64.776 -28.1005
2.887685 64.842 -28.7314
2.908611 64.908 -29.3510
2.929688 64.972 -29.9600
2.950917 65.036 -30.5598
2.972301 65.098 -31.1521
2.993839 65.159 -31.7381
3.015534 65.219 -32.3185
3.037386 65.278 -32.8937
3.059396 65.336 -33.4633
3.081565 65.392 -34.0268
3.103896 65.448 -34.5835
3.126388 65.504 -35.1324
3.149043 65.559 -35.6724
3.171862 65.614 -36.2022
3.194847 65.670 -36.7207
3.217998 65.725 -37.2268
3.241317 65.781 -37.7192
3.264805 65.837 -38.1973
3.288463 65.893 -38.6605
3.312293 65.950 -39.1088
3.336295 66.007 -39.5425
3.360471 66.064 -39.9622
3.384822 66.121 -40.3689
3.409350 66.178 -40.7633
3.434056 66.235 -41.1461
3.458940 66.292 -41.5183
3.484005 66.351 -41.8804
3.509252 66.410 -42.2330
3.534681 66.471 -42.5766
3.560295 66.533 -42.9115
3.586094 66.596 -43.2376
3.612081 66.662 -43.5548
3.638255 66.730 -43.8623
3.664620 66.800 -44.1594
3.691175 66.872 -44.4452
3.717923 66.946 -44.7192
3.744864 67.022 -44.9818
3.772001 67.100 -45.2341
3.799335 67.180 -45.4779
3.826866 67.262 -45.7153
3.854597 67.346 -45.9489
3.882529 67.432 -46.1810
3.910664 67.520 -46.4139
3.939002 67.610 -46.6495
3.967546 67.703 -46.8892
3.996296 67.798 -47.1335
4.025255 67.896 -47.3822
4.054423 67.997 -47.6343
4.083804 68.100 -47.8887
4.113396 68.206 -48.1453
4.143204 68.315 -48.4045
4.173227 68.425 -48.6677
4.203468 68.538 -48.9368
4.233928 68.653 -49.2141
4.264609 68.769 -49.5019
4.295512 68.887 -49.8022
4.326639 69.006 -50.1169
4.357992 69.126 -50.4470
4.389572 69.247 -50.7927
4.421380 69.369 -51.1536
4.453419 69.492 -51.5287
4.485691 69.616 -51.9171
4.518196 69.741 -52.3182
4.550936 69.868 -52.7318
4.583914 69.994 -53.1581
4.617131 70.121 -53.5974
4.650589 70.247 -54.0505
4.684289 70.373 -54.5179
4.718233 70.498 -55.0003
4.752424 70.622 -55.4981
4.786862 70.746 -56.0115
4.821549 70.868 -56.5400
4.856488 70.990 -57.0828
4.891680 71.110 -57.6385
4.927127 71.230 -58.2058
4.962831 71.348 -58.7831
4.998794 71.465 -59.3692
5.035017 71.580 -59.9630
5.071503 71.693 -60.5641
5.108253 71.804 -61.1726
5.145270 71.914 -61.7887
5.182555 72.021 -62.4127
5.220110 72.126 -63.0443
5.257937 72.229 -63.6825
5.296038 72.330 -64.3257
5.334415 72.429 -64.9717
5.373071 72.525 -65.6185
5.412006 72.620 -66.2645
5.451224 72.713 -66.9085
5.490725 72.803 -67.5501
5.530514 72.892 -68.1897
5.570590 72.978 -68.8274
5.610957 73.062 -69.4631
5.651616 73.144 -70.0961
5.692570 73.224 -70.7248
5.733821 73.302 -71.3478
5.775370 73.379 -71.9633
5.817221 73.454 -72.5702
5.859375 73.528 -73.1679
5.901834 73.601 -73.7563
5.944602 73.672 -74.3357
5.987679 73.741 -74.9064
6.031068 73.810 -75.4683
6.074771 73.877 -76.0212
6.118792 73.944 -76.5645
6.163131 74.011 -77.0978
6.207792 74.077 -77.6207
6.252776 74.143 -78.1330
6.298086 74.208 -78.6350
6.343725 74.273 -79.1272
6.389694 74.338 -79.6102
6.435996 74.403 -80.0849
6.482634 74.469 -80.5519
6.529610 74.534 -81.0120
6.576926 74.600 -81.4654
6.624585 74.666 -81.9125
6.672590 74.733 -82.3537
6.720942 74.800 -82.7894
6.769645 74.867 -83.2204
6.818700 74.934 -83.6476
6.868111 75.002 -84.0720
6.917881 75.070 -84.4943
6.968010 75.138 -84.9150
7.018504 75.207 -85.3345
7.069362 75.275 -85.7530
7.120590 75.344 -86.1704
7.172189 75.412 -86.5869
7.224161 75.480 -87.0026
7.276511 75.548 -87.4178
7.329239 75.615 -87.8325
7.382350 75.682 -88.2467
7.435845 75.749 -88.6601
7.489729 75.814 -89.0724
7.544002 75.879 -89.4827
7.598669 75.944 -89.8906
7.653732 76.007 -90.2953
7.709194 76.070 -90.6965
7.765058 76.132 -91.0938
7.821327 76.193 -91.4869
7.878004 76.254 -91.8754
7.935091 76.314 -92.2585
7.992592 76.374 -92.6358
8.050510 76.433 -93.0068
8.108847 76.492 -93.3713
8.167607 76.551 -93.7293
8.226793 76.610 -94.0812
8.286408 76.669 -94.4272
8.346454 76.728 -94.7679
8.406936 76.787 -95.1036
8.467856 76.847 -95.4347
8.529218 76.908 -95.7619
8.591024 76.969 -96.0861
8.653278 77.030 -96.4087
8.715983 77.092 -96.7309
8.779143 77.155 -97.0539
8.842760 77.218 -97.3785
8.906839 77.282 -97.7057
8.971381 77.346 -98.0364
9.036392 77.411 -98.3715
9.101873 77.475 -98.7119
9.167829 77.539 -99.0584
9.234263 77.603 -99.4113
9.301178 77.666 -99.7706
9.368578 77.729 -100.1359
9.436467 77.790 -100.5068
9.504847 77.850 -100.8827
9.573723 77.909 -101.2630
9.643099 77.966 -101.6467
9.712976 78.021 -102.0324
9.783361 78.074 -102.4183
9.854255 78.126 -102.8029
9.925663 78.176 -103.1845
9.997588 78.224 -103.5618
10.070035 78.270 -103.9335
10.143007 78.315 -104.2980
10.216507 78.358 -104.6539
10.290540 78.401 -105.0003
10.365109 78.443 -105.3367
10.440219 78.485 -105.6631
10.515873 78.526 -105.9800
10.592076 78.568 -106.2880
10.668830 78.611 -106.5883
10.746141 78.655 -106.8824
10.824012 78.700 -107.1725
10.902447 78.747 -107.4613
10.981451 78.795 -107.7517
11.061027 78.844 -108.0462
11.141180 78.895 -108.3477
11.221913 78.946 -108.6588
11.303232 78.999 -108.9823
11.385140 79.052 -109.3205
11.467641 79.104 -109.6747
11.550741 79.157 -110.0457
11.634442 79.207 -110.4336
11.718750 79.256 -110.8380
11.803669 79.302 -111.2577
11.889203 79.346 -111.6903
11.975357 79.385 -112.1326
12.062136 79.421 -112.5809
12.149543 79.453 -113.0309
12.237583 79.480 -113.4783
12.326262 79.503 -113.9178
12.415583 79.522 -114.3442
12.505552 79.537 -114.7526
12.596172 79.549 -115.1386
12.687449 79.558 -115.4985
12.779387 79.566 -115.8292
12.871992 79.574 -116.1287
12.965268 79.582 -116.3967
13.059220 79.592 -116.6344
13.153852 79.605 -116.8446
13.249170 79.622 -117.0315
13.345179 79.644 -117.2007
13.441884 79.671 -117.3594
13.539289 79.704 -117.5158
13.637401 79.742 -117.6784
13.736223 79.786 -117.8553
13.835761 79.835 -118.0547
13.936021 79.888 -118.2840
14.037007 79.944 -118.5486
14.138725 80.002 -118.8523
14.241180 80.060 -119.1969
14.344377 80.116 -119.5826
14.448323 80.170 -120.0070
14.553021 80.220 -120.4658
14.658478 80.265 -120.9530
14.764700 80.303 -121.4613
14.871691 80.335 -121.9822
14.979457 80.361 -122.5063
15.088005 80.379 -123.0242
15.197339 80.391 -123.5266
15.307465 80.397 -124.0051
15.418389 80.399 -124.4519
15.530117 80.397 -124.8611
15.642655 80.394 -125.2288
15.756008 80.390 -125.5532
15.870182 80.388 -125.8347
15.985184 80.388 -126.0764
16.101019 80.393 -126.2835
16.217694 80.402 -126.4632
16.335214 80.418 -126.6240
16.453586 80.441 -126.7756
16.572815 80.469 -126.9276
16.692909 80.504 -127.0890
16.813872 80.544 -127.2679
16.935713 80.587 -127.4707
17.058436 80.634 -127.7018
17.182048 80.683 -127.9634
17.306556 80.732 -128.2560
17.431967 80.780 -128.5780
17.558286 80.826 -128.9261
17.685521 80.870 -129.2960
17.813677 80.911 -129.6828
17.942762 80.949 -130.0811
18.072783 80.983 -130.4855
18.203746 81.014 -130.8912
18.335658 81.042 -131.2942
18.468526 81.068 -131.6911
18.602356 81.091 -132.0797
18.737156 81.113 -132.4587
18.872934 81.134 -132.8276
19.009695 81.153 -133.1868
19.147447 81.173 -133.5370
19.286197 81.192 -133.8794
19.425953 81.210 -134.2154
19.566721 81.228 -134.5461
19.708510 81.246 -134.8723
19.851326 81.264 -135.1947
19.995177 81.280 -135.5132
20.140070 81.296 -135.8277
20.286013 81.312 -136.1373
20.433014 81.326 -136.4411
20.581080 81.340 -136.7381
20.730219 81.353 -137.0270
20.880439 81.365 -137.3069
21.031747 81.378 -137.5774
21.184152 81.390 -137.8383
21.337661 81.404 -138.0901
21.492282 81.418 -138.3341
21.648024 81.433 -138.5722
21.804895 81.449 -138.8067
21.962902 81.467 -139.0405
22.122054 81.487 -139.2764
22.282360 81.507 -139.5171
22.443827 81.529 -139.7648
22.606464 81.551 -140.0210
22.770280 81.573 -140.2859
22.935283 81.595 -140.5592
23.101481 81.616 -140.8392
23.268884 81.636 -141.1238
23.437500 81.655 -141.4106
23.607338 81.674 -141.6971
23.778406 81.692 -141.9820
23.950714 81.710 -142.2647
24.124271 81.729 -142.5460
24.299086 81.748 -142.8277
24.475167 81.768 -143.1125
24.652524 81.789 -143.4031
24.831166 81.810 -143.7017
25.011103 81.830 -144.0090
25.192344 81.849 -144.3239
25.374898 81.867 -144.6430
25.558775 81.882 -144.9612
25.743984 81.896 -145.2723
25.930536 81.908 -145.5706
26.118439 81.919 -145.8517
26.307704 81.931 -146.1143
26.498341 81.945 -146.3609
26.690359 81.963 -146.5978
26.883768 81.984 -146.8346
27.078579 82.008 -147.0819
27.274801 82.036 -147.3497
27.472446 82.063 -147.6443
27.671522 82.090 -147.9667
27.872042 82.112 -148.3115
28.074014 82.129 -148.6678
28.277450 82.140 -149.0204
28.482360 82.145 -149.3530
28.688755 82.145 -149.6518
28.896645 82.145 -149.9087
29.106042 82.145 -150.1234
29.316957 82.149 -150.3045
29.529400 82.158 -150.4673
29.743382 82.174 -150.6307
29.958915 82.194 -150.8122
30.176009 82.215 -151.0233
30.394677 82.236 -151.2666
30.614929 82.253 -151.5348
30.836778 82.263 -151.8127
31.060234 82.268 -152.0815
31.285309 82.268 -152.3236
31.512015 82.266 -152.5280
31.740364 82.265 -152.6937
31.970368 82.269 -152.8303
32.202039 82.278 -152.9557
32.435388 82.294 -153.0917
32.670428 82.315 -153.2569
32.907171 82.337 -153.4623
33.145630 82.358 -153.7082
33.385817 82.374 -153.9849
33.627745 82.384 -154.2755
33.871425 82.389 -154.5619
34.116871 82.390 -154.8294
34.364096 82.389 -155.0714
34.613113 82.390 -155.2901
34.863934 82.394 -155.4956
35.116572 82.401 -155.7015
35.371041 82.411 -155.9201
35.627354 82.421 -156.1577
35.885525 82.430 -156.4121
36.145566 82.435 -156.6737
36.407492 82.437 -156.9281
36.671316 82.436 -157.1609
36.937051 82.434 -157.3622
37.204712 82.434 -157.5301
37.474313 82.439 -157.6714
37.745867 82.449 -157.8003
38.019389 82.465 -157.9344
38.294893 82.486 -158.0901
38.572394 82.509 -158.2776
38.851905 82.531 -158.4991
39.133442 82.551 -158.7482
39.417019 82.566 -159.0125
39.702651 82.576 -159.2771
39.990353 82.582 -159.5293
40.280140 82.585 -159.7614
40.572026 82.587 -159.9727
40.866028 82.590 -160.1685
41.162160 82.594 -160.3569
41.460438 82.599 -160.5460
41.760877 82.604 -160.7403
42.063494 82.609 -160.9408
42.368303 82.613 -161.1456
42.675322 82.617 -161.3539
42.984565 82.622 -161.5685
43.296048 82.627 -161.7958
43.609789 82.633 -162.0438
43.925804 82.638 -162.3168
44.244108 82.639 -162.6108
44.564719 82.635 -162.9115
44.887654 82.626 -163.1977
45.212928 82.613 -163.4484
45.540560 82.602 -163.6523
45.870565 82.597 -163.8134
46.202962 82.600 -163.9520
46.537768 82.614 -164.0975
46.875000 82.635 -164.2778
47.214676 82.661 -164.5100
47.556813 82.687 -164.7951
47.901429 82.709 -165.1194
48.248542 82.724 -165.4597
48.598171 82.732 -165.7886
48.950334 82.734 -166.0801
49.305048 82.734 -166.3157
49.662333 82.735 -166.4906
50.022206 82.742 -166.6187
50.384688 82.758 -166.7322
50.749796 82.782 -166.8724
51.117550 82.808 -167.0719
51.487969 82.830 -167.3386
51.861072 82.839 -167.6485
52.236879 82.834 -167.9543
52.615409 82.815 -168.2057
52.996681 82.790 -168.3716
53.380717 82.766 -168.4531
53.767536 82.749 -168.4808
54.157158 82.741 -168.4981
54.549603 82.741 -168.5416
54.944892 82.743 -168.6291
55.343045 82.745 -168.7600
55.744084 82.745 -168.9233
56.148028 82.743 -169.1071
56.554900 82.739 -169.3040
56.964720 82.733 -169.5110
57.377510 82.726 -169.7267
57.793291 82.718 -169.9480
58.212085 82.708 -170.1686
58.633914 82.699 -170.3821
59.058799 82.690 -170.5853
59.486764 82.683 -170.7815
59.917829 82.678 -170.9781
60.352019 82.675 -171.1814
60.789354 82.672 -171.3913
61.229859 82.669 -171.6009
61.673556 82.664 -171.8019
62.120468 82.659 -171.9896
62.570618 82.656 -172.1650
63.024031 82.653 -172.3316
63.480729 82.651 -172.4919
63.940736 82.651 -172.6475
64.404077 82.651 -172.8012
64.870776 82.654 -172.9585
65.340856 82.657 -173.1256
65.814343 82.660 -173.3059
66.291261 82.661 -173.4992
66.771635 82.661 -173.7019
67.255489 82.659 -173.9096
67.742850 82.654 -174.1175
68.233743 82.648 -174.3212
68.728193 82.640 -174.5170
69.226226 82.632 -174.7040
69.727867 82.624 -174.8846
70.233144 82.617 -175.0634
70.742083 82.610 -175.2445
71.254709 82.604 -175.4290
71.771050 82.598 -175.6155
72.291132 82.592 -175.8015
72.814984 82.587 -175.9858
73.342631 82.582 -176.1692
73.874102 82.578 -176.3532
74.409424 82.575 -176.5385
74.948626 82.572 -176.7241
75.491734 82.569 -176.9074
76.038779 82.565 -177.0857
76.589787 82.561 -177.2567
77.144788 82.557 -177.4198
77.703811 82.553 -177.5762
78.266885 82.548 -177.7286
78.834039 82.543 -177.8796
79.405303 82.537 -178.0309
79.980706 82.529 -178.1832
80.560280 82.521 -178.3366
81.144053 82.511 -178.4921
81.732056 82.501 -178.6507
82.324320 82.490 -178.8129
82.920876 82.479 -178.9784
83.521755 82.467 -179.1463
84.126988 82.457 -179.3156
84.736607 82.447 -179.4855
85.350643 82.438 -179.6564
85.969129 82.431 -179.8288
86.592097 82.425 179.9976
87.219579 82.419 179.8254
87.851608 82.413 179.6569
88.488217 82.407 179.4926
89.129439 82.400 179.3310
89.775308 82.394 179.1704
90.425856 82.386 179.0107
91.081119 82.377 178.8530
91.741131 82.367 178.6972
92.405925 82.358 178.5417
93.075536 82.348 178.3842
93.750000 82.338 178.2230
94.429351 82.328 178.0579
95.113625 82.319 177.8904
95.802858 82.309 177.7226
96.497085 82.299 177.5568
97.196342 82.288 177.3956
97.900667 82.277 177.2419
98.610096 82.265 177.0973
99.324665 82.252 176.9601
100.044413 82.239 176.8268
100.769376 82.226 176.6943
101.499592 82.212 176.5621
102.235100 82.197 176.4304
102.975938 82.182 176.2990
103.722144 82.168 176.1665
104.473757 82.155 176.0310
105.230817 82.142 175.8915
105.993363 82.129 175.7489
106.761435 82.118 175.6040
107.535072 82.106 175.4561
108.314315 82.094 175.3045
109.099206 82.082 175.1494
109.889783 82.069 174.9921
110.686090 82.056 174.8342
111.488167 82.041 174.6770
112.296056 82.027 174.5209
113.109800 82.011 174.3661
113.929440 81.996 174.2136
114.755020 81.979 174.0657
115.586582 81.963 173.9254
116.424170 81.946 173.7941
117.267827 81.929 173.6696
118.117598 81.914 173.5441
118.973527 81.898 173.4085
119.835658 81.883 173.2584
120.704037 81.865 173.0965
121.578708 81.846 172.9316
122.459718 81.826 172.7728
123.347111 81.806 172.6254
124.240935 81.787 172.4911
125.141236 81.769 172.3711
126.048061 81.753 172.2642
126.961458 81.740 172.1647
127.881473 81.727 172.0654
128.808154 81.713 171.9653
129.741551 81.699 171.8694
130.681712 81.683 171.7812
131.628686 81.667 171.6955
132.582521 81.650 171.5997
133.543269 81.633 171.4835
134.510979 81.614 171.3483
135.485701 81.593 171.2031
136.467486 81.571 171.0554
137.456386 81.549 170.9104
138.452451 81.529 170.7740
139.455735 81.510 170.6517
140.466288 81.493 170.5430
141.484165 81.477 170.4416
142.509418 81.462 170.3399
143.542100 81.446 170.2340
144.582265 81.428 170.1246
145.629968 81.407 170.0149
146.685262 81.385 169.9070
147.748204 81.361 169.8028
148.818849 81.335 169.7044
149.897251 81.308 169.6144
150.983469 81.278 169.5351
152.077557 81.248 169.4669
153.179574 81.216 169.4060
154.289576 81.186 169.3455
155.407622 81.158 169.2762
156.533770 81.133 169.1899
157.668078 81.111 169.0843
158.810606 81.090 168.9676
159.961413 81.069 168.8530
161.120559 81.048 168.7506
162.288105 81.024 168.6633
163.464112 80.999 168.5878
164.648640 80.972 168.5175
165.841752 80.945 168.4458
167.043510 80.918 168.3689
168.253976 80.892 168.2868
169.473213 80.866 168.2021
170.701286 80.839 168.1179
171.938258 80.813 168.0360
173.184194 80.785 167.9559
174.439158 80.757 167.8757
175.703216 80.729 167.7935
176.976434 80.700 167.7077
178.258878 80.670 167.6194
179.550615 80.638 167.5333
180.851713 80.605 167.4550
182.162239 80.570 167.3882
183.482262 80.533 167.3322
184.811850 80.495 167.2825
186.151073 80.455 167.2360
187.500000 80.414 167.1945
188.858702 80.372 167.1636
190.227250 80.329 167.1485
191.605715 80.285 167.1508
192.994169 80.240 167.1649
194.392685 80.196 167.1806
195.801334 80.151 167.1889
197.220191 80.106 167.1875
198.649330 80.059 167.1815
200.088825 80.010 167.1786
201.538751 79.959 167.1868
202.999184 79.905 167.2095
204.470200 79.850 167.2451
205.951875 79.794 167.2914
207.444287 79.739 167.3525
208.947514 79.685 167.4395
210.461634 79.632 167.5669
211.986726 79.579 167.7498
213.522869 79.525 168.0027
215.070144 79.472 168.3376
216.628631 79.420 168.7593
218.198411 79.372 169.2670
219.779567 79.330 169.8530
221.372180 79.297 170.4966
222.976334 79.274 171.1648
224.592112 79.265 171.8229
226.219600 79.272 172.4450
227.858880 79.297 173.0167
229.510039 79.341 173.5294
231.173164 79.403 173.9707
232.848340 79.479 174.3231
234.535655 79.561 174.5695
236.235197 79.644 174.7002
237.947054 79.722 174.7159
239.671317 79.792 174.6278
241.408074 79.852 174.4553
243.157416 79.899 174.2216
244.919435 79.936 173.9478
246.694223 79.962 173.6513
248.481871 79.980 173.3481
250.282473 79.990 173.0526
252.096123 79.995 172.7738
253.922915 79.993 172.5143
255.762945 79.986 172.2733
257.616309 79.973 172.0463
259.483103 79.955 171.8275
261.363424 79.934 171.6171
263.257372 79.910 171.4221
265.165043 79.887 171.2474
267.086538 79.864 171.0926
269.021957 79.841 170.9580
270.971401 79.817 170.8478
272.934972 79.791 170.7641
274.912771 79.763 170.7030
276.904902 79.734 170.6596
278.911469 79.704 170.6310
280.932577 79.674 170.6149
282.968330 79.645 170.6075
285.018835 79.616 170.6043
287.084199 79.587 170.6028
289.164530 79.557 170.6023
291.259935 79.526 170.6024
293.370525 79.494 170.6020
295.496408 79.464 170.5977
297.637697 79.437 170.5848
299.794503 79.412 170.5625
301.966937 79.389 170.5365
304.155114 79.365 170.5173
306.359147 79.338 170.5136
308.579152 79.310 170.5279
310.815244 79.282 170.5580
313.067539 79.257 170.5996
315.336156 79.234 170.6460
317.621211 79.213 170.6913
319.922826 79.194 170.7322
322.241118 79.174 170.7687
324.576210 79.153 170.8028
326.928223 79.130 170.8365
329.297280 79.107 170.8729
331.683504 79.083 170.9150
334.087019 79.058 170.9656
336.507952 79.034 171.0256
338.946427 79.011 171.0951
341.402572 78.990 171.1743
343.876516 78.968 171.2639
346.368387 78.948 171.3638
348.878315 78.928 171.4732
351.406431 78.907 171.5924
353.952867 78.885 171.7216
356.517756 78.861 171.8563
359.101230 78.835 171.9873
361.703426 78.808 172.1050
364.324478 78.780 172.2020
366.964523 78.751 172.2767
369.623699 78.722 172.3344
372.302145 78.694 172.3859
375.000000 78.666 172.4435
377.717405 78.639 172.5169
380.454501 78.611 172.6102
383.211431 78.584 172.7209
385.988339 78.558 172.8427
388.785369 78.533 172.9711
391.602668 78.511 173.1048
394.440383 78.490 173.2433
397.298660 78.469 173.3838
400.177650 78.449 173.5237
403.077502 78.428 173.6630
405.998368 78.407 173.8026
408.940400 78.386 173.9407
411.903750 78.363 174.0727
414.888575 78.341 174.1962
417.895028 78.318 174.3141
420.923268 78.297 174.4345
423.973452 78.276 174.5656
427.045738 78.256 174.7103
430.140287 78.237 174.8667
433.257261 78.217 175.0319
436.396822 78.198 175.2028
439.559133 78.180 175.3762
442.744360 78.161 175.5482
445.952668 78.143 175.7172
449.184225 78.125 175.8846
452.439199 78.106 176.0528
455.717760 78.087 176.2237
459.020079 78.067 176.3979
462.346327 78.047 176.5754
465.696680 78.027 176.7557
469.071310 78.008 176.9386
472.470394 77.990 177.1237
475.894109 77.972 177.3103
479.342634 77.955 177.4970
482.816148 77.938 177.6830
486.314833 77.921 177.8687
489.838871 77.905 178.0552
493.388445 77.888 178.2433
496.963741 77.871 178.4332
500.564945 77.855 178.6257
504.192245 77.839 178.8222
507.845830 77.824 179.0225
511.525890 77.809 179.2257
515.232618 77.795 179.4310
518.966206 77.781 179.6393
522.726849 77.767 179.8521
526.514743 77.753 -179.9299
530.330086 77.739 -179.7079
534.173076 77.725 -179.4838
538.043915 77.711 -179.2585
541.942803 77.697 -179.0316
545.869944 77.683 -178.8024
549.825542 77.670 -178.5710
553.809805 77.657 -178.3368
557.822939 77.645 -178.0992
561.865154 77.634 -177.8568
565.936660 77.623 -177.6095
570.037671 77.613 -177.3578
574.168399 77.601 -177.1026
578.329060 77.590 -176.8452
582.519870 77.578 -176.5875
586.741049 77.567 -176.3306
590.992817 77.555 -176.0741
595.275394 77.543 -175.8161
599.589005 77.532 -175.5552
603.933874 77.521 -175.2901
608.310228 77.511 -175.0198
612.718295 77.502 -174.7434
617.158304 77.493 -174.4607
621.630488 77.486 -174.1729
626.135079 77.479 -173.8822
630.672311 77.473 -173.5905
635.242423 77.467 -173.2988
639.845651 77.462 -173.0068
644.482237 77.457 -172.7138
649.152421 77.452 -172.4185
653.856447 77.448 -172.1197
658.594560 77.444 -171.8166
663.367008 77.440 -171.5091
668.174039 77.437 -171.1970
673.015903 77.434 -170.8803
677.892854 77.432 -170.5601
682.805145 77.430 -170.2372
687.753032 77.429 -169.9113
692.736774 77.429 -169.5814
697.756631 77.429 -169.2465
702.812863 77.429 -168.9067
707.905735 77.430 -168.5624
713.035511 77.432 -168.2138
718.202461 77.434 -167.8620
723.406852 77.437 -167.5088
728.648956 77.441 -167.1554
733.929047 77.446 -166.8016
739.247399 77.451 -166.4459
744.604290 77.458 -166.0866
750.000000 77.465 -165.7223
755.434809 77.473 -165.3526
760.909001 77.482 -164.9780
766.422861 77.492 -164.5990
771.976677 77.504 -164.2163
777.570739 77.516 -163.8309
783.205337 77.530 -163.4432
788.880766 77.545 -163.0524
794.597321 77.561 -162.6573
800.355301 77.578 -162.2566
806.155005 77.595 -161.8502
811.996736 77.614 -161.4391
817.880799 77.634 -161.0253
823.807501 77.655 -160.6109
829.777150 77.677 -160.1974
835.790057 77.701 -159.7850
841.846536 77.725 -159.3729
847.946903 77.751 -158.9601
854.091476 77.778 -158.5455
860.280575 77.807 -158.1286
866.514523 77.836 -157.7091
872.793644 77.868 -157.2871
879.118267 77.900 -156.8635
885.488720 77.934 -156.4392
891.905336 77.969 -156.0157
898.368450 78.006 -155.5940
904.878398 78.043 -155.1745
911.435520 78.082 -154.7569
918.040157 78.122 -154.3410
924.692655 78.164 -153.9267
931.393359 78.206 -153.5140
938.142619 78.250 -153.1034
944.940787 78.296 -152.6962
951.788218 78.343 -152.2947
958.685268 78.392 -151.9009
965.632296 78.442 -151.5162
972.629666 78.493 -151.1409
979.677741 78.547 -150.7747
986.776890 78.601 -150.4171
993.927482 78.657 -150.0682
1001.129891 78.715 -149.7287
1008.384491 78.773 -149.3999
1015.691660 78.833 -149.0832
1023.051781 78.895 -148.7793
1030.465236 78.958 -148.4888
1037.932411 79.021 -148.2124
1045.453698 79.086 -147.9506
1053.029486 79.152 -147.7038
1060.660172 79.218 -147.4719
1068.346153 79.285 -147.2542
1076.087829 79.352 -147.0500
1083.885605 79.419 -146.8588
1091.739887 79.486 -146.6810
1099.651084 79.554 -146.5169
1107.619609 79.621 -146.3666
1115.645878 79.688 -146.2300
1123.730308 79.756 -146.1068
1131.873321 79.823 -145.9967
1140.075341 79.890 -145.8989
1148.336797 79.957 -145.8129
1156.658119 80.024 -145.7383
1165.039741 80.090 -145.6748
1173.482099 80.155 -145.6222
1181.985634 80.220 -145.5800
1190.550789 80.284 -145.5477
1199.178011 80.348 -145.5240
1207.867749 80.410 -145.5076
1216.620457 80.472 -145.4976
1225.436590 80.533 -145.4935
1234.316609 80.593 -145.4945
1243.260976 80.651 -145.4997
1252.270157 80.709 -145.5087
1261.344623 80.766 -145.5213
1270.484846 80.822 -145.5377
1279.691303 80.877 -145.5574
1288.964474 80.931 -145.5793
1298.304842 80.984 -145.6017
1307.712894 81.036 -145.6236
1317.189120 81.087 -145.6437
1326.734016 81.137 -145.6613
1336.348077 81.187 -145.6759
1346.031806 81.237 -145.6869
1355.785708 81.286 -145.6934
1365.610290 81.334 -145.6947
1375.506065 81.383 -145.6902
1385.473549 81.431 -145.6794
1395.513261 81.479 -145.6617
1405.625726 81.527 -145.6368
1415.811469 81.576 -145.6047
1426.071023 81.624 -145.5655
1436.404921 81.673 -145.5193
1446.813703 81.722 -145.4665
1457.297912 81.770 -145.4076
1467.858093 81.819 -145.3433
1478.494798 81.869 -145.2739
1489.208581 81.918 -145.1994
1500.000000 81.968 -145.1195
1510.869618 82.019 -145.0349
1521.818002 82.069 -144.9460
1532.845723 82.120 -144.8539
1543.953355 82.172 -144.7590
1555.141477 82.224 -144.6617
1566.410674 82.277 -144.5621
1577.761531 82.329 -144.4603
1589.194642 82.383 -144.3567
1600.710601 82.436 -144.2515
1612.310010 82.491 -144.1454
1623.993473 82.546 -144.0390
1635.761599 82.602 -143.9330
1647.615002 82.658 -143.8271
1659.554299 82.715 -143.7214
1671.580114 82.773 -143.6153
1683.693072 82.832 -143.5089
1695.893807 82.891 -143.4022
1708.182952 82.952 -143.2954
1720.561150 83.013 -143.1889
1733.029045 83.075 -143.0833
1745.587288 83.139 -142.9791
1758.236533 83.203 -142.8771
1770.977440 83.268 -142.7773
1783.810673 83.335 -142.6800
1796.736900 83.403 -142.5854
1809.756796 83.472 -142.4937
1822.871040 83.542 -142.4049
1836.080315 83.614 -142.3191
1849.385310 83.687 -142.2363
1862.786718 83.762 -142.1571
1876.285239 83.839 -142.0829
1889.881575 83.919 -142.0162
1903.576436 84.002 -141.9594
1917.370535 84.087 -141.9133
1931.264593 84.174 -141.8771
1945.259332 84.263 -141.8494
1959.355483 84.353 -141.8296
1973.553781 84.444 -141.8189
1987.854965 84.537 -141.8200
2002.259781 84.630 -141.8361
2016.768981 84.725 -141.8695
2031.383320 84.820 -141.9219
2046.103561 84.917 -141.9945
2060.930471 85.015 -142.0886
2075.864823 85.114 -142.2056
2090.907395 85.213 -142.3467
2106.058972 85.313 -142.5126
2121.320344 85.413 -142.7037
2136.692305 85.512 -142.9198
2152.175658 85.611 -143.1606
2167.771210 85.708 -143.4255
2183.479774 85.804 -143.7136
2199.302169 85.897 -144.0240
2215.239219 85.989 -144.3556
2231.291755 86.078 -144.7069
2247.460615 86.164 -145.0762
2263.746641 86.247 -145.4615
2280.150683 86.328 -145.8605
2296.673595 86.405 -146.2713
2313.316238 86.480 -146.6917
2330.079481 86.552 -147.1198
2346.964198 86.620 -147.5539
2363.971268 86.686 -147.9926
2381.101578 86.749 -148.4350
2398.356022 86.810 -148.8804
2415.735498 86.868 -149.3283
2433.240913 86.925 -149.7781
2450.873180 86.979 -150.2293
2468.633217 87.031 -150.6816
2486.521951 87.081 -151.1347
2504.540314 87.130 -151.5887
2522.689246 87.176 -152.0434
2540.969692 87.221 -152.4992
2559.382606 87.264 -152.9563
2577.928947 87.305 -153.4151
2596.609683 87.345 -153.8759
2615.425787 87.383 -154.3386
2634.378241 87.419 -154.8033
2653.468031 87.454 -155.2701
2672.696154 87.487 -155.7391
2692.063613 87.518 -156.2104
2711.571415 87.547 -156.6839
2731.220579 87.575 -157.1595
2751.012130 87.601 -157.6366
2770.947098 87.625 -158.1151
2791.026522 87.647 -158.5945
2811.251451 87.668 -159.0746
2831.622938 87.686 -159.5554
2852.142045 87.702 -160.0365
2872.809842 87.717 -160.5177
2893.627406 87.729 -160.9987
2914.595823 87.739 -161.4786
2935.716186 87.747 -161.9564
2956.989596 87.752 -162.4310
2978.417161 87.756 -162.9015
3000.000000 87.757 -163.3670
3021.739237 87.755 -163.8271
3043.636005 87.752 -164.2814
3065.691446 87.746 -164.7296
3087.906710 87.738 -165.1714
3110.282955 87.729 -165.6067
3132.821347 87.717 -166.0350
3155.523062 87.704 -166.4557
3178.389283 87.689 -166.8681
3201.421202 87.672 -167.2719
3224.620020 87.654 -167.6667
3247.986946 87.633 -168.0522
3271.523198 87.612 -168.4283
3295.230004 87.588 -168.7945
3319.108599 87.564 -169.1506
3343.160228 87.537 -169.4960
3367.386145 87.510 -169.8303
3391.787613 87.481 -170.1530
3416.365904 87.451 -170.4636
3441.122300 87.419 -170.7617
3466.058091 87.387 -171.0468
3491.174576 87.354 -171.3187
3516.473066 87.319 -171.5769
3541.954880 87.285 -171.8211
3567.621345 87.249 -172.0508
3593.473800 87.214 -172.2660
3619.513592 87.180 -172.4668
3645.742080 87.145 -172.6540
3672.160630 87.112 -172.8289
3698.770620 87.079 -172.9930
3725.573436 87.047 -173.1481
3752.570477 87.015 -173.2958
3779.763150 86.984 -173.4371
3807.152872 86.954 -173.5728
3834.741071 86.924 -173.7032
3862.529185 86.894 -173.8284
3890.518664 86.864 -173.9483
3918.710966 86.835 -174.0630
3947.107561 86.805 -174.1723
3975.709929 86.775 -174.2766
4004.519563 86.745 -174.3763
4033.537962 86.716 -174.4719
4062.766641 86.686 -174.5642
4092.207123 86.656 -174.6536
4121.860942 86.627 -174.7402
4151.729646 86.598 -174.8241
4181.814790 86.569 -174.9052
4212.117944 86.540 -174.9834
4242.640687 86.511 -175.0587
4273.384610 86.482 -175.1314
4304.351317 86.454 -175.2016
4335.542421 86.426 -175.2699
4366.959549 86.397 -175.3366
4398.604338 86.368 -175.4019
4430.478438 86.340 -175.4659
4462.583511 86.311 -175.5288
4494.921231 86.282 -175.5909
4527.493283 86.252 -175.6527
4560.301365 86.223 -175.7143
4593.347189 86.193 -175.7762
4626.632476 86.163 -175.8383
4660.158962 86.132 -175.9009
4693.928395 86.101 -175.9639
4727.942535 86.069 -176.0272
4762.203156 86.035 -176.0906
4796.712043 86.001 -176.1534
4831.470996 85.966 -176.2146
4866.481826 85.929 -176.2731
4901.746360 85.891 -176.3273
4937.266434 85.850 -176.3758
4973.043902 85.809 -176.4172
5009.080628 85.765 -176.4501
5045.378492 85.721 -176.4733
5081.939384 85.674 -176.4858
5118.765212 85.627 -176.4872
5155.857894 85.579 -176.4766
5193.219366 85.529 -176.4534
5230.851574 85.479 -176.4173
5268.756481 85.428 -176.3679
5306.936062 85.376 -176.3050
5345.392309 85.324 -176.2282
5384.127225 85.271 -176.1368
5423.142830 85.218 -176.0300
5462.441159 85.165 -175.9075
5502.024259 85.112 -175.7690
5541.894195 85.059 -175.6143
5582.053045 85.006 -175.4434
5622.502902 84.954 -175.2563
5663.245876 84.903 -175.0528
5704.284090 84.853 -174.8328
5745.619684 84.804 -174.5962
5787.254813 84.756 -174.3427
5829.191647 84.710 -174.0722
5871.432373 84.665 -173.7851
5913.979192 84.623 -173.4818
5956.834323 84.582 -173.1630
6000.000000 84.544 -172.8294
6043.478473 84.508 -172.4820
6087.272010 84.475 -172.1216
6131.382892 84.446 -171.7492
6175.813420 84.419 -171.3662
6220.565910 84.396 -170.9742
6265.642695 84.377 -170.5749
6311.046124 84.362 -170.1705
6356.778566 84.350 -169.7633
6402.842404 84.343 -169.3563
6449.240040 84.341 -168.9529
6495.973891 84.342 -168.5569
6543.046396 84.348 -168.1728
6590.460007 84.359 -167.8062
6638.217197 84.374 -167.4635
6686.320456 84.392 -167.1522
6734.772290 84.414 -166.8800
6783.575226 84.438 -166.6556
6832.731809 84.464 -166.4892
6882.244600 84.492 -166.3882
6932.116181 84.523 -166.3527
6982.349153 84.555 -166.3746
7032.946133 84.592 -166.4411
7083.909760 84.632 -166.5388
7135.242690 84.679 -166.6574
7186.947600 84.732 -166.7909
7239.027185 84.795 -166.9383
7291.484160 84.869 -167.1045
7344.321260 84.958 -167.3007
7397.541239 85.063 -167.5451
7451.146872 85.187 -167.8634
7505.140954 85.331 -168.2877
7559.526299 85.496 -168.8559
7614.305743 85.679 -169.6090
7669.482141 85.878 -170.5890
7725.058371 86.087 -171.8354
7781.037328 86.301 -173.3824
7837.421932 86.509 -175.2550
7894.215122 86.704 -177.4668
7951.419859 86.873 179.9831
8009.039125 87.005 177.1112
8067.075924 87.091 173.9510
8125.533282 87.121 170.5517
8184.414245 87.087 166.9771
8243.721885 86.983 163.3015
8303.459292 86.806 159.6061
8363.629581 86.556 155.9728
8424.235888 86.236 152.4800
8485.281374 85.852 149.1974
8546.769221 85.409 146.1830
8608.702634 84.917 143.4810
8671.084842 84.386 141.1212
8733.919097 83.823 139.1194
8797.208675 83.239 137.4786
8860.956876 82.642 136.1917
8925.167022 82.039 135.2428
8989.842461 81.436 134.6104
9054.986566 80.839 134.2688
9120.602731 80.252 134.1914
9186.694378 79.678 134.3519
9253.264952 79.120 134.7255
9320.317925 78.578 135.2899
9387.856790 78.054 136.0252
9455.885071 77.546 136.9144
9524.406312 77.055 137.9430
9593.424086 76.581 139.0983
9662.941992 76.122 140.3698
9732.963653 75.679 141.7487
9803.492719 75.251 143.2279
9874.532869 74.838 144.8011
9946.087805 74.439 146.4633
10018.161257 74.053 148.2101
10090.756983 73.681 150.0389
10163.878768 73.322 151.9489
10237.530423 72.974 153.9406
10311.715789 72.639 156.0164
10386.438732 72.315 158.1809
10461.703149 72.003 160.4421
10537.512962 71.704 162.8106
10613.872125 71.417 165.3003
10690.784618 71.145 167.9272
10768.254450 70.891 170.7083
10846.285661 70.659 173.6595
10924.882318 70.454 176.7916
11004.048518 70.284 -179.8955
11083.788390 70.157 -176.4194
11164.106090 70.081 -172.8223
11245.005805 70.064 -169.1754
11326.491752 70.109 -165.5759
11408.568180 70.215 -162.1355
11491.239368 70.376 -158.9621
11574.509626 70.579 -156.1387
11658.383294 70.808 -153.7082
11742.864745 71.050 -151.6695
11827.958384 71.289 -149.9835
11913.668646 71.516 -148.5857
12000.000000 71.725 -147.4004
12086.956947 71.915 -146.3528
12174.544019 72.087 -145.3784
12262.765784 72.244 -144.4276
12351.626840 72.391 -143.4659
12441.131819 72.532 -142.4726
12531.285389 72.672 -141.4372
12622.092249 72.816 -140.3569
12713.557132 72.966 -139.2334
12805.684808 73.127 -138.0711
12898.480079 73.301 -136.8765
12991.947783 73.492 -135.6582
13086.092792 73.701 -134.4270
13180.920015 73.931 -133.1953
13276.434395 74.187 -131.9775
13372.640911 74.470 -130.7909
13469.544580 74.785 -129.6572
13567.150452 75.136 -128.6010
13665.463617 75.526 -127.6475
13764.489200 75.960 -126.8248
13864.232362 76.443 -126.1709
13964.698305 76.978 -125.7387
14065.892266 77.570 -125.5995
14167.819519 78.218 -125.8433
14270.485380 78.920 -126.5766
14373.895200 79.664 -127.9145
14478.054370 80.434 -129.9696
14582.968320 81.206 -132.8379
14688.642520 81.949 -136.5822
14795.082478 82.630 -141.2182
14902.293745 83.214 -146.7023
15010.281908 83.667 -152.9237
15119.052599 83.960 -159.7054
15228.611486 84.075 -166.8150
15338.964283 84.005 -173.9884
15450.116741 83.755 179.0379
15562.074656 83.343 172.4958
15674.843864 82.793 166.5640
15788.430244 82.136 161.3595
15902.839718 81.404 156.9389
16018.078250 80.629 153.3035
16134.151848 79.840 150.4075
16251.066563 79.063 148.1694
16368.828491 78.319 146.4835
16487.443769 77.621 145.2314
16606.918584 76.979 144.2908
16727.259161 76.395 143.5441
16848.471777 75.868 142.8829
16970.562748 75.390 142.2119
17093.538442 74.955 141.4508
17217.405268 74.550 140.5346
17342.169684 74.163 139.4153
17467.838194 73.778 138.0648
17594.417350 73.377 136.4842
17721.913751 72.939 134.7196
17850.334044 72.441 132.8838
17979.684923 71.862 131.1730
18109.973131 71.195 129.8575
18241.205462 70.449 129.2160
18373.388756 69.658 129.4174
18506.529905 68.868 130.4274
18640.635849 68.118 132.0311
18775.713581 67.432 133.9570
18911.770141 66.812 135.9951
19048.812624 66.248 138.0365
19186.848172 65.726 140.0489
19325.883983 65.238 142.0331
19465.927305 64.782 143.9828
19606.985439 64.369 145.8527
19749.065738 64.018 147.5356
19892.175609 63.757 148.8549
20036.322514 63.618 149.5961
