* Measurement data measured by REW V5.31.3
* Source: Headset (CX31993 HIFI AUDIO), MICROPHONE (Master Volume), R, volume: 0.400
* Format: 256k Log Swept Sine, 1 sweep at -11.9 dBFS with no timing reference
* Dated: 04 29, 25 11:12:30 AM
* REW Settings:
*  C-weighting compensation: Off
*  Target level: 75.0 dB
* Note: ; 
* Measurement: Tanchjim Zero Ultima L
* Smoothing: 1/12 octave
* Frequency Step: 96 ppo
* Start Frequency: 0.36621094 Hz
*
* Freq(Hz) SPL(dB) Phase(degrees)
0.366211 34.158 -170.0544
0.368865 34.173 -170.1670
0.371538 34.195 -170.3344
0.374230 34.223 -170.5424
0.376942 34.254 -170.7787
0.379673 34.287 -171.0344
0.382424 34.322 -171.3034
0.385196 34.358 -171.5820
0.387987 34.394 -171.8682
0.390798 34.431 -172.1607
0.393630 34.468 -172.4587
0.396483 34.505 -172.7620
0.399356 34.543 -173.0702
0.402250 34.581 -173.3833
0.405165 34.619 -173.7013
0.408101 34.657 -174.0239
0.411058 34.696 -174.3512
0.414037 34.735 -174.6832
0.417037 34.775 -175.0197
0.420059 34.814 -175.3607
0.423103 34.854 -175.7062
0.426169 34.894 -176.0562
0.429257 34.935 -176.4105
0.432368 34.976 -176.7691
0.435501 35.017 -177.1320
0.438656 35.058 -177.4992
0.441835 35.100 -177.8705
0.445037 35.142 -178.2460
0.448262 35.184 -178.6256
0.451510 35.227 -179.0093
0.454782 35.269 -179.3970
0.458077 35.313 -179.7887
0.461397 35.356 179.8157
0.464740 35.400 179.4161
0.468108 35.444 179.0127
0.471500 35.489 178.6053
0.474917 35.534 178.1942
0.478358 35.579 177.7791
0.481825 35.624 177.3602
0.485316 35.670 176.9375
0.488833 35.716 176.5110
0.492375 35.762 176.0806
0.495943 35.809 175.6464
0.499537 35.856 175.2082
0.503157 35.904 174.7662
0.506803 35.952 174.3203
0.510475 36.000 173.8703
0.514175 36.048 173.4164
0.517900 36.097 172.9584
0.521653 36.146 172.4962
0.525434 36.196 172.0299
0.529241 36.246 171.5592
0.533076 36.296 171.0842
0.536939 36.347 170.6047
0.540830 36.398 170.1207
0.544749 36.449 169.6319
0.548696 36.501 169.1384
0.552673 36.553 168.6398
0.556677 36.606 168.1362
0.560711 36.659 167.6273
0.564774 36.712 167.1130
0.568867 36.766 166.5931
0.572989 36.820 166.0675
0.577141 36.874 165.5358
0.581324 36.929 164.9979
0.585536 36.984 164.4536
0.589779 37.040 163.9027
0.594053 37.096 163.3448
0.598358 37.153 162.7798
0.602694 37.209 162.2073
0.607061 37.267 161.6270
0.611460 37.324 161.0387
0.615891 37.382 160.4421
0.620354 37.441 159.8367
0.624849 37.500 159.2223
0.629377 37.559 158.5985
0.633938 37.619 157.9649
0.638532 37.679 157.3212
0.643159 37.740 156.6669
0.647819 37.801 156.0015
0.652514 37.863 155.3248
0.657242 37.925 154.6361
0.662005 37.987 153.9351
0.666802 38.050 153.2213
0.671634 38.114 152.4941
0.676501 38.178 151.7531
0.681403 38.242 150.9976
0.686341 38.307 150.2273
0.691314 38.372 149.4416
0.696324 38.438 148.6399
0.701370 38.505 147.8217
0.706452 38.572 146.9866
0.711571 38.640 146.1343
0.716728 38.710 145.2646
0.721921 38.782 144.3776
0.727153 38.856 143.4741
0.732422 38.934 142.5551
0.737729 39.015 141.6224
0.743075 39.099 140.6778
0.748460 39.186 139.7233
0.753883 39.276 138.7608
0.759346 39.368 137.7919
0.764849 39.463 136.8178
0.770391 39.559 135.8398
0.775974 39.656 134.8592
0.781597 39.756 133.8766
0.787261 39.857 132.8933
0.792966 39.959 131.9099
0.798712 40.064 130.9272
0.804500 40.170 129.9459
0.810329 40.277 128.9666
0.816201 40.386 127.9901
0.822116 40.497 127.0166
0.828073 40.609 126.0468
0.834074 40.723 125.0809
0.840118 40.838 124.1193
0.846206 40.955 123.1622
0.852338 41.073 122.2098
0.858514 41.193 121.2623
0.864735 41.314 120.3197
0.871001 41.437 119.3820
0.877313 41.561 118.4492
0.883670 41.687 117.5212
0.890074 41.814 116.5979
0.896524 41.942 115.6790
0.903020 42.072 114.7644
0.909564 42.203 113.8537
0.916155 42.335 112.9467
0.922794 42.469 112.0431
0.929481 42.604 111.1424
0.936216 42.740 110.2443
0.943000 42.877 109.3482
0.949834 43.015 108.4539
0.956717 43.154 107.5608
0.963649 43.295 106.6683
0.970632 43.436 105.7761
0.977666 43.579 104.8835
0.984750 43.722 103.9900
0.991886 43.866 103.0950
0.999074 44.011 102.1980
1.006314 44.156 101.2984
1.013606 44.303 100.3956
1.020951 44.449 99.4890
1.028349 44.597 98.5779
1.035801 44.745 97.6620
1.043307 44.893 96.7404
1.050867 45.042 95.8127
1.058482 45.191 94.8785
1.066152 45.340 93.9374
1.073878 45.490 92.9892
1.081660 45.640 92.0340
1.089498 45.790 91.0724
1.097393 45.941 90.1057
1.105345 46.093 89.1352
1.113355 46.245 88.1631
1.121423 46.399 87.1912
1.129549 46.554 86.2213
1.137734 46.711 85.2549
1.145979 46.868 84.2932
1.154283 47.027 83.3372
1.162647 47.188 82.3876
1.171072 47.350 81.4452
1.179558 47.513 80.5103
1.188106 47.677 79.5835
1.196715 47.842 78.6650
1.205387 48.009 77.7551
1.214122 48.177 76.8538
1.222920 48.346 75.9612
1.231782 48.516 75.0773
1.240708 48.686 74.2020
1.249699 48.858 73.3351
1.258754 49.031 72.4765
1.267876 49.204 71.6259
1.277063 49.378 70.7831
1.286318 49.553 69.9475
1.295639 49.728 69.1189
1.305027 49.904 68.2968
1.314484 50.080 67.4808
1.324009 50.257 66.6704
1.333604 50.434 65.8651
1.343268 50.611 65.0644
1.353002 50.788 64.2676
1.362806 50.966 63.4742
1.372681 51.143 62.6836
1.382628 51.320 61.8953
1.392647 51.497 61.1085
1.402739 51.673 60.3228
1.412904 51.849 59.5375
1.423142 52.024 58.7521
1.433455 52.199 57.9664
1.443843 52.373 57.1801
1.454305 52.547 56.3935
1.464844 52.719 55.6069
1.475459 52.892 54.8212
1.486150 53.063 54.0372
1.496920 53.234 53.2560
1.507767 53.405 52.4781
1.518693 53.575 51.7041
1.529698 53.745 50.9342
1.540783 53.915 50.1686
1.551948 54.084 49.4073
1.563194 54.253 48.6502
1.574521 54.421 47.8973
1.585931 54.590 47.1483
1.597423 54.757 46.4030
1.608999 54.925 45.6610
1.620658 55.092 44.9222
1.632402 55.259 44.1862
1.644232 55.425 43.4525
1.656146 55.591 42.7209
1.668147 55.757 41.9907
1.680235 55.923 41.2616
1.692411 56.088 40.5332
1.704675 56.253 39.8048
1.717028 56.418 39.0760
1.729470 56.582 38.3462
1.742003 56.746 37.6149
1.754626 56.910 36.8815
1.767341 57.074 36.1454
1.780147 57.238 35.4062
1.793047 57.401 34.6633
1.806040 57.564 33.9164
1.819128 57.727 33.1652
1.832310 57.889 32.4097
1.845587 58.050 31.6502
1.858961 58.211 30.8872
1.872432 58.372 30.1213
1.886001 58.531 29.3532
1.899667 58.690 28.5838
1.913433 58.847 27.8135
1.927299 59.004 27.0431
1.941265 59.160 26.2730
1.955332 59.316 25.5038
1.969501 59.471 24.7357
1.983773 59.624 23.9691
1.998148 59.778 23.2043
2.012627 59.930 22.4413
2.027212 60.082 21.6804
2.041902 60.233 20.9215
2.056698 60.384 20.1647
2.071602 60.534 19.4097
2.086614 60.684 18.6566
2.101734 60.833 17.9049
2.116964 60.982 17.1546
2.132304 61.131 16.4051
2.147756 61.279 15.6560
2.163320 61.427 14.9066
2.178996 61.574 14.1564
2.194786 61.720 13.4046
2.210690 61.866 12.6505
2.226710 62.012 11.8937
2.242845 62.156 11.1339
2.259098 62.299 10.3715
2.275468 62.442 9.6068
2.291957 62.583 8.8404
2.308566 62.724 8.0729
2.325295 62.864 7.3048
2.342145 63.002 6.5370
2.359117 63.140 5.7698
2.376212 63.277 5.0038
2.393431 63.413 4.2394
2.410775 63.549 3.4771
2.428244 63.683 2.7171
2.445840 63.817 1.9597
2.463564 63.951 1.2049
2.481416 64.084 0.4528
2.499397 64.216 -0.2968
2.517509 64.348 -1.0442
2.535752 64.479 -1.7902
2.554127 64.609 -2.5355
2.572635 64.739 -3.2811
2.591277 64.868 -4.0282
2.610055 64.996 -4.7773
2.628968 65.122 -5.5288
2.648019 65.248 -6.2825
2.667208 65.373 -7.0378
2.686535 65.497 -7.7943
2.706003 65.620 -8.5510
2.725612 65.741 -9.3074
2.745363 65.862 -10.0627
2.765257 65.982 -10.8160
2.785295 66.101 -11.5668
2.805478 66.220 -12.3145
2.825808 66.338 -13.0585
2.846285 66.455 -13.7985
2.866910 66.571 -14.5344
2.887685 66.687 -15.2664
2.908611 66.802 -15.9951
2.929688 66.917 -16.7213
2.950917 67.030 -17.4462
2.972301 67.143 -18.1707
2.993839 67.254 -18.8955
3.015534 67.365 -19.6208
3.037386 67.474 -20.3464
3.059396 67.583 -21.0718
3.081565 67.691 -21.7964
3.103896 67.797 -22.5194
3.126388 67.903 -23.2401
3.149043 68.008 -23.9578
3.171862 68.113 -24.6715
3.194847 68.216 -25.3809
3.217998 68.319 -26.0853
3.241317 68.422 -26.7847
3.264805 68.524 -27.4791
3.288463 68.625 -28.1690
3.312293 68.726 -28.8552
3.336295 68.826 -29.5387
3.360471 68.925 -30.2201
3.384822 69.023 -30.8998
3.409350 69.120 -31.5779
3.434056 69.216 -32.2540
3.458940 69.312 -32.9277
3.484005 69.407 -33.5986
3.509252 69.501 -34.2660
3.534681 69.595 -34.9293
3.560295 69.688 -35.5880
3.586094 69.781 -36.2416
3.612081 69.874 -36.8900
3.638255 69.966 -37.5331
3.664620 70.057 -38.1712
3.691175 70.149 -38.8049
3.717923 70.239 -39.4347
3.744864 70.329 -40.0610
3.772001 70.419 -40.6842
3.799335 70.508 -41.3043
3.826866 70.596 -41.9210
3.854597 70.684 -42.5344
3.882529 70.771 -43.1440
3.910664 70.858 -43.7498
3.939002 70.945 -44.3512
3.967546 71.032 -44.9484
3.996296 71.119 -45.5410
4.025255 71.205 -46.1293
4.054423 71.291 -46.7135
4.083804 71.377 -47.2939
4.113396 71.463 -47.8707
4.143204 71.548 -48.4441
4.173227 71.633 -49.0144
4.203468 71.718 -49.5815
4.233928 71.802 -50.1457
4.264609 71.887 -50.7068
4.295512 71.971 -51.2649
4.326639 72.055 -51.8199
4.357992 72.139 -52.3721
4.389572 72.223 -52.9213
4.421380 72.306 -53.4678
4.453419 72.390 -54.0117
4.485691 72.473 -54.5532
4.518196 72.557 -55.0923
4.550936 72.640 -55.6292
4.583914 72.723 -56.1638
4.617131 72.805 -56.6964
4.650589 72.888 -57.2269
4.684289 72.970 -57.7554
4.718233 73.053 -58.2822
4.752424 73.135 -58.8073
4.786862 73.216 -59.3307
4.821549 73.298 -59.8527
4.856488 73.379 -60.3732
4.891680 73.460 -60.8924
4.927127 73.541 -61.4100
4.962831 73.622 -61.9261
4.998794 73.702 -62.4407
5.035017 73.782 -62.9534
5.071503 73.862 -63.4646
5.108253 73.942 -63.9741
5.145270 74.021 -64.4821
5.182555 74.099 -64.9888
5.220110 74.178 -65.4941
5.257937 74.256 -65.9980
5.296038 74.334 -66.5005
5.334415 74.411 -67.0012
5.373071 74.488 -67.5000
5.412006 74.564 -67.9967
5.451224 74.641 -68.4911
5.490725 74.717 -68.9834
5.530514 74.792 -69.4735
5.570590 74.867 -69.9615
5.610957 74.942 -70.4476
5.651616 75.016 -70.9316
5.692570 75.091 -71.4135
5.733821 75.164 -71.8931
5.775370 75.238 -72.3702
5.817221 75.311 -72.8448
5.859375 75.384 -73.3170
5.901834 75.457 -73.7865
5.944602 75.529 -74.2537
5.987679 75.602 -74.7187
6.031068 75.674 -75.1815
6.074771 75.746 -75.6424
6.118792 75.818 -76.1014
6.163131 75.889 -76.5587
6.207792 75.961 -77.0142
6.252776 76.032 -77.4681
6.298086 76.104 -77.9205
6.343725 76.175 -78.3716
6.389694 76.247 -78.8218
6.435996 76.318 -79.2712
6.482634 76.389 -79.7202
6.529610 76.460 -80.1692
6.576926 76.531 -80.6184
6.624585 76.602 -81.0680
6.672590 76.672 -81.5181
6.720942 76.743 -81.9689
6.769645 76.813 -82.4206
6.818700 76.884 -82.8734
6.868111 76.954 -83.3277
6.917881 77.023 -83.7837
6.968010 77.092 -84.2416
7.018504 77.161 -84.7015
7.069362 77.229 -85.1636
7.120590 77.297 -85.6276
7.172189 77.364 -86.0934
7.224161 77.431 -86.5612
7.276511 77.497 -87.0306
7.329239 77.562 -87.5018
7.382350 77.626 -87.9749
7.435845 77.689 -88.4494
7.489729 77.751 -88.9252
7.544002 77.813 -89.4016
7.598669 77.873 -89.8784
7.653732 77.932 -90.3550
7.709194 77.990 -90.8311
7.765058 78.047 -91.3064
7.821327 78.103 -91.7806
7.878004 78.158 -92.2534
7.935091 78.211 -92.7239
7.992592 78.264 -93.1914
8.050510 78.315 -93.6555
8.108847 78.365 -94.1160
8.167607 78.414 -94.5723
8.226793 78.462 -95.0243
8.286408 78.510 -95.4716
8.346454 78.556 -95.9138
8.406936 78.602 -96.3504
8.467856 78.647 -96.7813
8.529218 78.691 -97.2064
8.591024 78.735 -97.6259
8.653278 78.779 -98.0397
8.715983 78.822 -98.4480
8.779143 78.865 -98.8509
8.842760 78.908 -99.2485
8.906839 78.950 -99.6412
8.971381 78.993 -100.0294
9.036392 79.036 -100.4136
9.101873 79.078 -100.7942
9.167829 79.121 -101.1719
9.234263 79.164 -101.5469
9.301178 79.207 -101.9198
9.368578 79.250 -102.2910
9.436467 79.293 -102.6613
9.504847 79.336 -103.0308
9.573723 79.379 -103.4002
9.643099 79.423 -103.7697
9.712976 79.466 -104.1394
9.783361 79.508 -104.5095
9.854255 79.551 -104.8803
9.925663 79.593 -105.2517
9.997588 79.635 -105.6237
10.070035 79.676 -105.9961
10.143007 79.717 -106.3687
10.216507 79.758 -106.7411
10.290540 79.798 -107.1132
10.365109 79.837 -107.4845
10.440219 79.876 -107.8549
10.515873 79.914 -108.2236
10.592076 79.952 -108.5907
10.668830 79.989 -108.9555
10.746141 80.026 -109.3179
10.824012 80.063 -109.6778
10.902447 80.099 -110.0349
10.981451 80.135 -110.3892
11.061027 80.171 -110.7407
11.141180 80.207 -111.0895
11.221913 80.242 -111.4357
11.303232 80.278 -111.7798
11.385140 80.314 -112.1221
11.467641 80.350 -112.4628
11.550741 80.386 -112.8024
11.634442 80.423 -113.1415
11.718750 80.459 -113.4805
11.803669 80.496 -113.8198
11.889203 80.533 -114.1600
11.975357 80.570 -114.5013
12.062136 80.607 -114.8444
12.149543 80.645 -115.1891
12.237583 80.682 -115.5361
12.326262 80.719 -115.8853
12.415583 80.756 -116.2368
12.505552 80.793 -116.5906
12.596172 80.829 -116.9468
12.687449 80.865 -117.3052
12.779387 80.901 -117.6658
12.871992 80.937 -118.0283
12.965268 80.972 -118.3927
13.059220 81.006 -118.7587
13.153852 81.040 -119.1262
13.249170 81.074 -119.4949
13.345179 81.107 -119.8646
13.441884 81.140 -120.2353
13.539289 81.172 -120.6066
13.637401 81.203 -120.9783
13.736223 81.234 -121.3503
13.835761 81.264 -121.7222
13.936021 81.294 -122.0936
14.037007 81.323 -122.4644
14.138725 81.352 -122.8340
14.241180 81.379 -123.2023
14.344377 81.406 -123.5685
14.448323 81.433 -123.9326
14.553021 81.459 -124.2939
14.658478 81.485 -124.6523
14.764700 81.510 -125.0074
14.871691 81.534 -125.3591
14.979457 81.559 -125.7073
15.088005 81.583 -126.0518
15.197339 81.607 -126.3929
15.307465 81.631 -126.7307
15.418389 81.654 -127.0654
15.530117 81.678 -127.3973
15.642655 81.701 -127.7266
15.756008 81.725 -128.0536
15.870182 81.748 -128.3782
15.985184 81.771 -128.7005
16.101019 81.794 -129.0203
16.217694 81.816 -129.3371
16.335214 81.838 -129.6505
16.453586 81.859 -129.9597
16.572815 81.880 -130.2639
16.692909 81.901 -130.5623
16.813872 81.922 -130.8541
16.935713 81.942 -131.1387
17.058436 81.963 -131.4155
17.182048 81.983 -131.6846
17.306556 82.005 -131.9462
17.431967 82.027 -132.2009
17.558286 82.050 -132.4498
17.685521 82.074 -132.6945
17.813677 82.099 -132.9368
17.942762 82.126 -133.1786
18.072783 82.154 -133.4222
18.203746 82.182 -133.6695
18.335658 82.211 -133.9222
18.468526 82.241 -134.1816
18.602356 82.271 -134.4484
18.737156 82.300 -134.7228
18.872934 82.328 -135.0041
19.009695 82.355 -135.2911
19.147447 82.381 -135.5820
19.286197 82.405 -135.8748
19.425953 82.427 -136.1666
19.566721 82.447 -136.4553
19.708510 82.465 -136.7384
19.851326 82.481 -137.0139
19.995177 82.497 -137.2805
20.140070 82.511 -137.5374
20.286013 82.525 -137.7845
20.433014 82.539 -138.0225
20.581080 82.552 -138.2525
20.730219 82.565 -138.4761
20.880439 82.579 -138.6951
21.031747 82.592 -138.9108
21.184152 82.606 -139.1245
21.337661 82.618 -139.3367
21.492282 82.631 -139.5473
21.648024 82.642 -139.7554
21.804895 82.652 -139.9595
21.962902 82.661 -140.1577
22.122054 82.669 -140.3476
22.282360 82.677 -140.5275
22.443827 82.684 -140.6962
22.606464 82.692 -140.8533
22.770280 82.701 -140.9996
22.935283 82.712 -141.1376
23.101481 82.725 -141.2705
23.268884 82.741 -141.4029
23.437500 82.759 -141.5398
23.607338 82.780 -141.6863
23.778406 82.803 -141.8472
23.950714 82.828 -142.0264
24.124271 82.854 -142.2264
24.299086 82.881 -142.4489
24.475167 82.907 -142.6941
24.652524 82.933 -142.9614
24.831166 82.958 -143.2494
25.011103 82.980 -143.5565
25.192344 83.001 -143.8806
25.374898 83.019 -144.2194
25.558775 83.035 -144.5698
25.743984 83.047 -144.9279
25.930536 83.056 -145.2883
26.118439 83.060 -145.6444
26.307704 83.061 -145.9880
26.498341 83.059 -146.3101
26.690359 83.054 -146.6023
26.883768 83.049 -146.8580
27.078579 83.044 -147.0743
27.274801 83.044 -147.2535
27.472446 83.049 -147.4036
27.671522 83.062 -147.5383
27.872042 83.082 -147.6756
28.074014 83.110 -147.8345
28.277450 83.144 -148.0318
28.482360 83.179 -148.2784
28.688755 83.214 -148.5769
28.896645 83.243 -148.9200
29.106042 83.264 -149.2919
29.316957 83.275 -149.6700
29.529400 83.276 -150.0292
29.743382 83.268 -150.3455
29.958915 83.255 -150.6010
30.176009 83.239 -150.7863
30.394677 83.225 -150.9030
30.614929 83.217 -150.9628
30.836778 83.215 -150.9846
31.060234 83.221 -150.9900
31.285309 83.233 -150.9991
31.512015 83.250 -151.0262
31.740364 83.270 -151.0780
31.970368 83.288 -151.1540
32.202039 83.305 -151.2485
32.435388 83.320 -151.3539
32.670428 83.332 -151.4627
32.907171 83.342 -151.5704
33.145630 83.351 -151.6757
33.385817 83.359 -151.7794
33.627745 83.366 -151.8842
33.871425 83.373 -151.9921
34.116871 83.379 -152.1043
34.364096 83.384 -152.2208
34.613113 83.389 -152.3406
34.863934 83.392 -152.4630
35.116572 83.395 -152.5876
35.371041 83.397 -152.7147
35.627354 83.399 -152.8447
35.885525 83.400 -152.9772
36.145566 83.402 -153.1107
36.407492 83.402 -153.2430
36.671316 83.402 -153.3713
36.937051 83.403 -153.4935
37.204712 83.404 -153.6089
37.474313 83.407 -153.7189
37.745867 83.411 -153.8262
38.019389 83.417 -153.9343
38.294893 83.424 -154.0458
38.572394 83.432 -154.1616
38.851905 83.439 -154.2804
39.133442 83.446 -154.3991
39.417019 83.453 -154.5138
39.702651 83.458 -154.6206
39.990353 83.463 -154.7170
40.280140 83.467 -154.8024
40.572026 83.472 -154.8776
40.866028 83.478 -154.9450
41.162160 83.483 -155.0072
41.460438 83.489 -155.0661
41.760877 83.494 -155.1228
42.063494 83.499 -155.1771
42.368303 83.503 -155.2283
42.675322 83.507 -155.2761
42.984565 83.511 -155.3215
43.296048 83.516 -155.3672
43.609789 83.521 -155.4171
43.925804 83.526 -155.4746
44.244108 83.530 -155.5417
44.564719 83.534 -155.6174
44.887654 83.536 -155.6984
45.212928 83.538 -155.7804
45.540560 83.539 -155.8600
45.870565 83.539 -155.9362
46.202962 83.541 -156.0099
46.537768 83.542 -156.0828
46.875000 83.545 -156.1549
47.214676 83.547 -156.2243
47.556813 83.549 -156.2879
47.901429 83.552 -156.3433
48.248542 83.555 -156.3898
48.598171 83.558 -156.4279
48.950334 83.562 -156.4559
49.305048 83.565 -156.4689
49.662333 83.569 -156.4599
50.022206 83.575 -156.4261
50.384688 83.585 -156.3751
50.749796 83.600 -156.3279
51.117550 83.621 -156.3126
51.487969 83.642 -156.3509
51.861072 83.659 -156.4462
52.236879 83.665 -156.5781
52.615409 83.660 -156.7104
52.996681 83.645 -156.8074
53.380717 83.625 -156.8485
53.767536 83.604 -156.8357
54.157158 83.587 -156.7877
54.549603 83.574 -156.7281
54.944892 83.564 -156.6741
55.343045 83.557 -156.6328
55.744084 83.550 -156.6047
56.148028 83.544 -156.5886
56.554900 83.539 -156.5845
56.964720 83.533 -156.5919
57.377510 83.526 -156.6073
57.793291 83.518 -156.6234
58.212085 83.508 -156.6295
58.633914 83.497 -156.6152
59.058799 83.488 -156.5752
59.486764 83.481 -156.5117
59.917829 83.479 -156.4365
60.352019 83.481 -156.3658
60.789354 83.486 -156.3134
61.229859 83.491 -156.2838
61.673556 83.494 -156.2709
62.120468 83.494 -156.2626
62.570618 83.491 -156.2469
63.024031 83.486 -156.2166
63.480729 83.481 -156.1698
63.940736 83.476 -156.1089
64.404077 83.471 -156.0391
64.870776 83.468 -155.9664
65.340856 83.466 -155.8968
65.814343 83.463 -155.8326
66.291261 83.460 -155.7726
66.771635 83.456 -155.7125
67.255489 83.451 -155.6473
67.742850 83.445 -155.5743
68.233743 83.438 -155.4923
68.728193 83.432 -155.4022
69.226226 83.425 -155.3052
69.727867 83.419 -155.2018
70.233144 83.413 -155.0918
70.742083 83.406 -154.9752
71.254709 83.401 -154.8540
71.771050 83.396 -154.7324
72.291132 83.392 -154.6152
72.814984 83.388 -154.5052
73.342631 83.383 -154.4015
73.874102 83.377 -154.3006
74.409424 83.370 -154.1978
74.948626 83.362 -154.0892
75.491734 83.353 -153.9722
76.038779 83.344 -153.8461
76.589787 83.336 -153.7111
77.144788 83.327 -153.5663
77.703811 83.319 -153.4111
78.266885 83.312 -153.2460
78.834039 83.306 -153.0743
79.405303 83.301 -152.9012
79.980706 83.296 -152.7313
80.560280 83.291 -152.5671
81.144053 83.285 -152.4085
81.732056 83.278 -152.2532
82.324320 83.269 -152.0965
82.920876 83.258 -151.9334
83.521755 83.246 -151.7604
84.126988 83.234 -151.5768
84.736607 83.222 -151.3846
85.350643 83.211 -151.1864
85.969129 83.200 -150.9844
86.592097 83.190 -150.7798
87.219579 83.179 -150.5721
87.851608 83.169 -150.3599
88.488217 83.158 -150.1421
89.129439 83.147 -149.9186
89.775308 83.136 -149.6901
90.425856 83.124 -149.4574
91.081119 83.113 -149.2213
91.741131 83.101 -148.9819
92.405925 83.090 -148.7398
93.075536 83.078 -148.4949
93.750000 83.067 -148.2468
94.429351 83.057 -147.9952
95.113625 83.046 -147.7396
95.802858 83.036 -147.4803
96.497085 83.025 -147.2175
97.196342 83.014 -146.9503
97.900667 83.002 -146.6763
98.610096 82.989 -146.3931
99.324665 82.975 -146.0998
100.044413 82.960 -145.7977
100.769376 82.945 -145.4890
101.499592 82.930 -145.1761
102.235100 82.914 -144.8608
102.975938 82.899 -144.5444
103.722144 82.884 -144.2279
104.473757 82.870 -143.9130
105.230817 82.856 -143.6001
105.993363 82.842 -143.2876
106.761435 82.828 -142.9705
107.535072 82.815 -142.6432
108.314315 82.802 -142.3018
109.099206 82.789 -141.9461
109.889783 82.776 -141.5779
110.686090 82.763 -141.1989
111.488167 82.750 -140.8103
112.296056 82.735 -140.4140
113.109800 82.719 -140.0128
113.929440 82.702 -139.6104
114.755020 82.684 -139.2114
115.586582 82.665 -138.8200
116.424170 82.644 -138.4391
117.267827 82.624 -138.0683
118.117598 82.601 -137.7007
118.973527 82.578 -137.3221
119.835658 82.556 -136.9166
120.704037 82.535 -136.4771
121.578708 82.518 -136.0083
122.459718 82.505 -135.5211
123.347111 82.493 -135.0268
124.240935 82.482 -134.5350
125.141236 82.470 -134.0519
126.048061 82.455 -133.5796
126.961458 82.438 -133.1179
127.881473 82.418 -132.6646
128.808154 82.397 -132.2142
129.741551 82.375 -131.7585
130.681712 82.354 -131.2869
131.628686 82.335 -130.7892
132.582521 82.318 -130.2599
133.543269 82.304 -129.7018
134.510979 82.293 -129.1236
135.485701 82.282 -128.5349
136.467486 82.270 -127.9435
137.456386 82.256 -127.3540
138.452451 82.238 -126.7683
139.455735 82.217 -126.1868
140.466288 82.193 -125.6081
141.484165 82.168 -125.0312
142.509418 82.143 -124.4568
143.542100 82.119 -123.8833
144.582265 82.096 -123.3044
145.629968 82.075 -122.7142
146.685262 82.055 -122.1099
147.748204 82.036 -121.4898
148.818849 82.015 -120.8513
149.897251 81.992 -120.1907
150.983469 81.967 -119.5060
152.077557 81.938 -118.7999
153.179574 81.908 -118.0792
154.289576 81.878 -117.3505
155.407622 81.849 -116.6202
156.533770 81.823 -115.8976
157.668078 81.801 -115.1930
158.810606 81.783 -114.5084
159.961413 81.765 -113.8345
161.120559 81.747 -113.1575
162.288105 81.729 -112.4653
163.464112 81.709 -111.7513
164.648640 81.688 -111.0140
165.841752 81.665 -110.2555
167.043510 81.641 -109.4803
168.253976 81.617 -108.6929
169.473213 81.593 -107.8966
170.701286 81.569 -107.0942
171.938258 81.546 -106.2861
173.184194 81.523 -105.4702
174.439158 81.500 -104.6420
175.703216 81.476 -103.7961
176.976434 81.452 -102.9299
178.258878 81.427 -102.0475
179.550615 81.400 -101.1576
180.851713 81.370 -100.2659
182.162239 81.337 -99.3726
183.482262 81.302 -98.4742
184.811850 81.265 -97.5665
186.151073 81.227 -96.6460
187.500000 81.191 -95.7111
188.858702 81.157 -94.7625
190.227250 81.124 -93.8030
191.605715 81.092 -92.8369
192.994169 81.062 -91.8671
194.392685 81.030 -90.8920
195.801334 80.998 -89.9062
197.220191 80.966 -88.9067
198.649330 80.933 -87.8931
200.088825 80.898 -86.8659
201.538751 80.863 -85.8262
202.999184 80.825 -84.7758
204.470200 80.783 -83.7134
205.951875 80.738 -82.6311
207.444287 80.689 -81.5144
208.947514 80.637 -80.3508
210.461634 80.582 -79.1376
211.986726 80.528 -77.8848
213.522869 80.473 -76.6119
215.070144 80.417 -75.3416
216.628631 80.359 -74.0905
218.198411 80.297 -72.8632
219.779567 80.229 -71.6484
221.372180 80.154 -70.4169
222.976334 80.073 -69.1311
224.592112 79.988 -67.7549
226.219600 79.902 -66.2573
227.858880 79.818 -64.6126
229.510039 79.736 -62.8030
231.173164 79.662 -60.8240
232.848340 79.600 -58.6841
234.535655 79.558 -56.4073
236.235197 79.545 -54.0379
237.947054 79.567 -51.6378
239.671317 79.622 -49.2762
241.408074 79.706 -47.0181
243.157416 79.810 -44.9176
244.919435 79.926 -43.0118
246.694223 80.043 -41.3113
248.481871 80.156 -39.8032
250.282473 80.260 -38.4640
252.096123 80.352 -37.2662
253.922915 80.431 -36.1757
255.762945 80.498 -35.1511
257.616309 80.552 -34.1485
259.483103 80.595 -33.1318
261.363424 80.625 -32.0800
263.257372 80.643 -30.9841
265.165043 80.650 -29.8389
267.086538 80.648 -28.6413
269.021957 80.636 -27.3914
270.971401 80.618 -26.0927
272.934972 80.595 -24.7491
274.912771 80.568 -23.3625
276.904902 80.539 -21.9336
278.911469 80.509 -20.4617
280.932577 80.479 -18.9474
282.968330 80.449 -17.3950
285.018835 80.420 -15.8142
287.084199 80.392 -14.2133
289.164530 80.364 -12.5935
291.259935 80.335 -10.9489
293.370525 80.306 -9.2725
295.496408 80.277 -7.5605
297.637697 80.247 -5.8134
299.794503 80.218 -4.0335
301.966937 80.189 -2.2244
304.155114 80.161 -0.3914
306.359147 80.132 1.4596
308.579152 80.104 3.3262
310.815244 80.076 5.2098
313.067539 80.048 7.1129
315.336156 80.020 9.0365
317.621211 79.992 10.9803
319.922826 79.963 12.9447
322.241118 79.934 14.9316
324.576210 79.905 16.9435
326.928223 79.877 18.9813
329.297280 79.850 21.0464
331.683504 79.825 23.1391
334.087019 79.801 25.2581
336.507952 79.777 27.4017
338.946427 79.753 29.5696
341.402572 79.730 31.7621
343.876516 79.706 33.9785
346.368387 79.682 36.2168
348.878315 79.659 38.4734
351.406431 79.637 40.7440
353.952867 79.613 43.0258
356.517756 79.590 45.3206
359.101230 79.566 47.6342
361.703426 79.542 49.9735
364.324478 79.518 52.3418
366.964523 79.494 54.7373
369.623699 79.471 57.1566
372.302145 79.448 59.5973
375.000000 79.425 62.0595
377.717405 79.402 64.5443
380.454501 79.379 67.0529
383.211431 79.357 69.5861
385.988339 79.335 72.1449
388.785369 79.314 74.7304
391.602668 79.292 77.3440
394.440383 79.271 79.9852
397.298660 79.249 82.6520
400.177650 79.228 85.3427
403.077502 79.206 88.0582
405.998368 79.184 90.8000
408.940400 79.164 93.5671
411.903750 79.143 96.3566
414.888575 79.123 99.1666
417.895028 79.102 102.0005
420.923268 79.081 104.8676
423.973452 79.059 107.7801
427.045738 79.039 110.7455
430.140287 79.022 113.7603
433.257261 79.012 116.8065
436.396822 79.008 119.8557
439.559133 79.010 122.8765
442.744360 79.017 125.8405
445.952668 79.026 128.7255
449.184225 79.034 131.5168
452.439199 79.037 134.2066
455.717760 79.033 136.7926
459.020079 79.019 139.2751
462.346327 78.996 141.6554
465.696680 78.964 143.9340
469.071310 78.924 146.1107
472.470394 78.881 148.1891
475.894109 78.837 150.1795
479.342634 78.796 152.0989
482.816148 78.761 153.9695
486.314833 78.733 155.8158
489.838871 78.711 157.6608
493.388445 78.693 159.5219
496.963741 78.677 161.4064
500.564945 78.661 163.3121
504.192245 78.646 165.2307
507.845830 78.631 167.1544
511.525890 78.616 169.0800
515.232618 78.603 171.0085
518.966206 78.590 172.9427
522.726849 78.577 174.8842
526.514743 78.564 176.8351
530.330086 78.551 178.7979
534.173076 78.538 -179.2262
538.043915 78.526 -177.2385
541.942803 78.513 -175.2399
545.869944 78.501 -173.2307
549.825542 78.488 -171.2109
553.809805 78.476 -169.1805
557.822939 78.463 -167.1396
561.865154 78.451 -165.0880
565.936660 78.440 -163.0266
570.037671 78.429 -160.9572
574.168399 78.419 -158.8816
578.329060 78.410 -156.8001
582.519870 78.402 -154.7115
586.741049 78.394 -152.6142
590.992817 78.386 -150.5078
595.275394 78.379 -148.3926
599.589005 78.371 -146.2696
603.933874 78.364 -144.1384
608.310228 78.356 -141.9979
612.718295 78.348 -139.8471
617.158304 78.339 -137.6858
621.630488 78.331 -135.5155
626.135079 78.323 -133.3377
630.672311 78.316 -131.1520
635.242423 78.310 -128.9563
639.845651 78.304 -126.7483
644.482237 78.299 -124.5272
649.152421 78.295 -122.2938
653.856447 78.291 -120.0487
658.594560 78.288 -117.7927
663.367008 78.284 -115.5255
668.174039 78.282 -113.2471
673.015903 78.279 -110.9582
677.892854 78.277 -108.6595
682.805145 78.276 -106.3517
687.753032 78.275 -104.0350
692.736774 78.275 -101.7097
697.756631 78.276 -99.3760
702.812863 78.277 -97.0341
707.905735 78.279 -94.6838
713.035511 78.282 -92.3245
718.202461 78.285 -89.9552
723.406852 78.289 -87.5752
728.648956 78.293 -85.1850
733.929047 78.298 -82.7851
739.247399 78.303 -80.3759
744.604290 78.310 -77.9579
750.000000 78.317 -75.5312
755.434809 78.325 -73.0959
760.909001 78.334 -70.6514
766.422861 78.344 -68.1971
771.976677 78.355 -65.7330
777.570739 78.367 -63.2593
783.205337 78.379 -60.7764
788.880766 78.393 -58.2840
794.597321 78.407 -55.7822
800.355301 78.422 -53.2709
806.155005 78.439 -50.7502
811.996736 78.456 -48.2204
817.880799 78.474 -45.6823
823.807501 78.494 -43.1367
829.777150 78.515 -40.5842
835.790057 78.536 -38.0244
841.846536 78.559 -35.4566
847.946903 78.584 -32.8797
854.091476 78.610 -30.2931
860.280575 78.637 -27.6968
866.514523 78.666 -25.0912
872.793644 78.696 -22.4773
879.118267 78.727 -19.8565
885.488720 78.761 -17.2301
891.905336 78.795 -14.5989
898.368450 78.831 -11.9634
904.878398 78.869 -9.3241
911.435520 78.908 -6.6813
918.040157 78.949 -4.0354
924.692655 78.991 -1.3867
931.393359 79.035 1.2650
938.142619 79.081 3.9201
944.940787 79.129 6.5786
951.788218 79.178 9.2391
958.685268 79.229 11.9000
965.632296 79.282 14.5596
972.629666 79.336 17.2168
979.677741 79.392 19.8711
986.776890 79.449 22.5221
993.927482 79.507 25.1699
1001.129891 79.566 27.8141
1008.384491 79.627 30.4545
1015.691660 79.689 33.0907
1023.051781 79.751 35.7221
1030.465236 79.815 38.3482
1037.932411 79.880 40.9684
1045.453698 79.945 43.5822
1053.029486 80.011 46.1893
1060.660172 80.078 48.7902
1068.346153 80.145 51.3856
1076.087829 80.212 53.9761
1083.885605 80.281 56.5620
1091.739887 80.349 59.1432
1099.651084 80.418 61.7193
1107.619609 80.487 64.2898
1115.645878 80.557 66.8543
1123.730308 80.626 69.4125
1131.873321 80.695 71.9645
1140.075341 80.764 74.5109
1148.336797 80.832 77.0520
1156.658119 80.900 79.5883
1165.039741 80.968 82.1207
1173.482099 81.035 84.6497
1181.985634 81.101 87.1762
1190.550789 81.167 89.7005
1199.178011 81.232 92.2220
1207.867749 81.298 94.7405
1216.620457 81.362 97.2560
1225.436590 81.427 99.7694
1234.316609 81.491 102.2818
1243.260976 81.554 104.7940
1252.270157 81.617 107.3065
1261.344623 81.679 109.8194
1270.484846 81.741 112.3328
1279.691303 81.802 114.8466
1288.964474 81.862 117.3611
1298.304842 81.922 119.8764
1307.712894 81.982 122.3926
1317.189120 82.041 124.9097
1326.734016 82.099 127.4282
1336.348077 82.157 129.9485
1346.031806 82.214 132.4710
1355.785708 82.271 134.9961
1365.610290 82.328 137.5244
1375.506065 82.385 140.0562
1385.473549 82.441 142.5916
1395.513261 82.497 145.1305
1405.625726 82.552 147.6724
1415.811469 82.608 150.2174
1426.071023 82.665 152.7657
1436.404921 82.722 155.3169
1446.813703 82.780 157.8698
1457.297912 82.838 160.4229
1467.858093 82.897 162.9752
1478.494798 82.957 165.5272
1489.208581 83.016 168.0805
1500.000000 83.076 170.6367
1510.869618 83.135 173.1973
1521.818002 83.194 175.7626
1532.845723 83.253 178.3315
1543.953355 83.311 -179.0977
1555.141477 83.370 -176.5260
1566.410674 83.429 -173.9538
1577.761531 83.488 -171.3808
1589.194642 83.548 -168.8072
1600.710601 83.609 -166.2334
1612.310010 83.670 -163.6597
1623.993473 83.732 -161.0864
1635.761599 83.795 -158.5134
1647.615002 83.859 -155.9409
1659.554299 83.923 -153.3687
1671.580114 83.988 -150.7974
1683.693072 84.053 -148.2273
1695.893807 84.120 -145.6588
1708.182952 84.187 -143.0924
1720.561150 84.255 -140.5289
1733.029045 84.325 -137.9687
1745.587288 84.395 -135.4125
1758.236533 84.467 -132.8605
1770.977440 84.540 -130.3132
1783.810673 84.613 -127.7706
1796.736900 84.688 -125.2328
1809.756796 84.765 -122.6999
1822.871040 84.842 -120.1728
1836.080315 84.921 -117.6523
1849.385310 85.002 -115.1394
1862.786718 85.084 -112.6348
1876.285239 85.168 -110.1392
1889.881575 85.253 -107.6537
1903.576436 85.340 -105.1793
1917.370535 85.429 -102.7169
1931.264593 85.520 -100.2674
1945.259332 85.612 -97.8318
1959.355483 85.706 -95.4116
1973.553781 85.802 -93.0079
1987.854965 85.900 -90.6226
2002.259781 86.000 -88.2574
2016.768981 86.102 -85.9144
2031.383320 86.205 -83.5955
2046.103561 86.311 -81.3029
2060.930471 86.418 -79.0387
2075.864823 86.526 -76.8051
2090.907395 86.635 -74.6043
2106.058972 86.746 -72.4385
2121.320344 86.857 -70.3094
2136.692305 86.968 -68.2187
2152.175658 87.080 -66.1676
2167.771210 87.190 -64.1574
2183.479774 87.300 -62.1884
2199.302169 87.408 -60.2610
2215.239219 87.514 -58.3745
2231.291755 87.618 -56.5281
2247.460615 87.719 -54.7204
2263.746641 87.817 -52.9496
2280.150683 87.911 -51.2137
2296.673595 88.002 -49.5107
2313.316238 88.088 -47.8378
2330.079481 88.171 -46.1926
2346.964198 88.249 -44.5725
2363.971268 88.322 -42.9752
2381.101578 88.392 -41.3987
2398.356022 88.457 -39.8414
2415.735498 88.519 -38.3017
2433.240913 88.576 -36.7782
2450.873180 88.630 -35.2695
2468.633217 88.679 -33.7745
2486.521951 88.726 -32.2927
2504.540314 88.768 -30.8236
2522.689246 88.808 -29.3669
2540.969692 88.844 -27.9221
2559.382606 88.877 -26.4892
2577.928947 88.907 -25.0682
2596.609683 88.934 -23.6597
2615.425787 88.958 -22.2637
2634.378241 88.979 -20.8809
2653.468031 88.997 -19.5112
2672.696154 89.012 -18.1547
2692.063613 89.025 -16.8108
2711.571415 89.034 -15.4792
2731.220579 89.040 -14.1597
2751.012130 89.044 -12.8521
2770.947098 89.044 -11.5562
2791.026522 89.042 -10.2717
2811.251451 89.036 -8.9980
2831.622938 89.028 -7.7350
2852.142045 89.017 -6.4819
2872.809842 89.003 -5.2386
2893.627406 88.986 -4.0048
2914.595823 88.966 -2.7800
2935.716186 88.944 -1.5640
2956.989596 88.919 -0.3564
2978.417161 88.892 0.8430
3000.000000 88.862 2.0345
3021.739237 88.830 3.2187
3043.636005 88.795 4.3958
3065.691446 88.759 5.5661
3087.906710 88.720 6.7299
3110.282955 88.680 7.8873
3132.821347 88.637 9.0385
3155.523062 88.593 10.1832
3178.389283 88.547 11.3217
3201.421202 88.500 12.4534
3224.620020 88.451 13.5780
3247.986946 88.402 14.6954
3271.523198 88.352 15.8051
3295.230004 88.300 16.9067
3319.108599 88.248 17.9999
3343.160228 88.196 19.0840
3367.386145 88.143 20.1584
3391.787613 88.090 21.2227
3416.365904 88.036 22.2763
3441.122300 87.982 23.3187
3466.058091 87.929 24.3493
3491.174576 87.875 25.3671
3516.473066 87.822 26.3710
3541.954880 87.770 27.3601
3567.621345 87.718 28.3334
3593.473800 87.667 29.2896
3619.513592 87.617 30.2276
3645.742080 87.568 31.1460
3672.160630 87.520 32.0431
3698.770620 87.473 32.9172
3725.573436 87.428 33.7667
3752.570477 87.383 34.5899
3779.763150 87.340 35.3852
3807.152872 87.298 36.1513
3834.741071 87.257 36.8873
3862.529185 87.217 37.5925
3890.518664 87.179 38.2659
3918.710966 87.141 38.9065
3947.107561 87.105 39.5133
3975.709929 87.070 40.0851
4004.519563 87.036 40.6207
4033.537962 87.004 41.1192
4062.766641 86.972 41.5793
4092.207123 86.942 41.9998
4121.860942 86.913 42.3793
4151.729646 86.885 42.7167
4181.814790 86.859 43.0106
4212.117944 86.834 43.2595
4242.640687 86.810 43.4617
4273.384610 86.787 43.6158
4304.351317 86.766 43.7201
4335.542421 86.746 43.7731
4366.959549 86.727 43.7732
4398.604338 86.709 43.7188
4430.478438 86.691 43.6087
4462.583511 86.675 43.4417
4494.921231 86.659 43.2167
4527.493283 86.643 42.9326
4560.301365 86.628 42.5880
4593.347189 86.613 42.1819
4626.632476 86.598 41.7132
4660.158962 86.583 41.1809
4693.928395 86.568 40.5845
4727.942535 86.552 39.9232
4762.203156 86.535 39.1968
4796.712043 86.518 38.4050
4831.470996 86.500 37.5476
4866.481826 86.480 36.6248
4901.746360 86.460 35.6362
4937.266434 86.438 34.5817
4973.043902 86.414 33.4609
5009.080628 86.389 32.2740
5045.378492 86.363 31.0212
5081.939384 86.335 29.7023
5118.765212 86.305 28.3174
5155.857894 86.273 26.8667
5193.219366 86.240 25.3500
5230.851574 86.205 23.7673
5268.756481 86.168 22.1188
5306.936062 86.129 20.4044
5345.392309 86.089 18.6243
5384.127225 86.046 16.7788
5423.142830 86.002 14.8681
5462.441159 85.956 12.8926
5502.024259 85.907 10.8528
5541.894195 85.858 8.7494
5582.053045 85.806 6.5833
5622.502902 85.753 4.3546
5663.245876 85.699 2.0637
5704.284090 85.644 -0.2897
5745.619684 85.588 -2.7061
5787.254813 85.531 -5.1859
5829.191647 85.474 -7.7297
5871.432373 85.417 -10.3383
5913.979192 85.360 -13.0118
5956.834323 85.304 -15.7512
6000.000000 85.248 -18.5571
6043.478473 85.194 -21.4307
6087.272010 85.142 -24.3734
6131.382892 85.092 -27.3873
6175.813420 85.044 -30.4745
6220.565910 84.999 -33.6376
6265.642695 84.957 -36.8791
6311.046124 84.918 -40.2019
6356.778566 84.883 -43.6091
6402.842404 84.853 -47.1038
6449.240040 84.826 -50.6897
6495.973891 84.804 -54.3702
6543.046396 84.786 -58.1490
6590.460007 84.773 -62.0301
6638.217197 84.764 -66.0180
6686.320456 84.759 -70.1177
6734.772290 84.759 -74.3337
6783.575226 84.764 -78.6687
6832.731809 84.774 -83.1222
6882.244600 84.789 -87.6922
6932.116181 84.808 -92.3774
6982.349153 84.832 -97.1778
7032.946133 84.862 -102.0946
7083.909760 84.900 -107.1304
7135.242690 84.947 -112.2896
7186.947600 85.005 -117.5797
7239.027185 85.078 -123.0115
7291.484160 85.168 -128.6000
7344.321260 85.278 -134.3649
7397.541239 85.409 -140.3299
7451.146872 85.563 -146.5234
7505.140954 85.741 -152.9766
7559.526299 85.941 -159.7234
7614.305743 86.161 -166.7981
7669.482141 86.396 -174.2339
7725.058371 86.641 177.9395
7781.037328 86.888 169.6979
7837.421932 87.126 161.0247
7894.215122 87.347 151.9133
7951.419859 87.537 142.3693
8009.039125 87.685 132.4118
8067.075924 87.780 122.0743
8125.533282 87.812 111.4043
8184.414245 87.771 100.4618
8243.721885 87.653 89.3161
8303.459292 87.456 78.0417
8363.629581 87.179 66.7123
8424.235888 86.826 55.3965
8485.281374 86.405 44.1531
8546.769221 85.923 33.0273
8608.702634 85.391 22.0510
8671.084842 84.819 11.2422
8733.919097 84.219 0.6069
8797.208675 83.599 -9.8589
8860.956876 82.969 -20.1676
8925.167022 82.338 -30.3378
8989.842461 81.711 -40.3937
9054.986566 81.094 -50.3621
9120.602731 80.491 -60.2712
9186.694378 79.906 -70.1468
9253.264952 79.341 -80.0120
9320.317925 78.797 -89.8878
9387.856790 78.275 -99.7939
9455.885071 77.774 -109.7496
9524.406312 77.293 -119.7730
9593.424086 76.833 -129.8795
9662.941992 76.390 -140.0833
9732.963653 75.964 -150.3957
9803.492719 75.554 -160.8255
9874.532869 75.157 -171.3800
9946.087805 74.773 177.9352
10018.161257 74.399 167.1154
10090.756983 74.034 156.1576
10163.878768 73.678 145.0611
10237.530423 73.328 133.8282
10311.715789 72.984 122.4639
10386.438732 72.645 110.9745
10461.703149 72.310 99.3658
10537.512962 71.980 87.6443
10613.872125 71.655 75.8161
10690.784618 71.339 63.8890
10768.254450 71.035 51.8708
10846.285661 70.750 39.7658
10924.882318 70.491 27.5686
11004.048518 70.269 15.2607
11083.788390 70.096 2.8105
11164.106090 69.981 -9.8253
11245.005805 69.931 -22.7000
11326.491752 69.947 -35.8730
11408.568180 70.023 -49.4030
11491.239368 70.148 -63.3378
11574.509626 70.308 -77.7088
11658.383294 70.488 -92.5273
11742.864745 70.675 -107.7889
11827.958384 70.859 -123.4771
11913.668646 71.034 -139.5675
12000.000000 71.198 -156.0330
12086.956947 71.352 -172.8488
12174.544019 71.496 170.0042
12262.765784 71.636 152.5393
12351.626840 71.775 134.7662
12441.131819 71.916 116.6911
12531.285389 72.066 98.3168
12622.092249 72.226 79.6410
12713.557132 72.402 60.6568
12805.684808 72.596 41.3530
12898.480079 72.811 21.7145
12991.947783 73.051 1.7261
13086.092792 73.319 -18.6241
13180.920015 73.616 -39.3434
13276.434395 73.946 -60.4335
13372.640911 74.309 -81.8994
13469.544580 74.705 -103.7703
13567.150452 75.138 -126.1104
13665.463617 75.608 -148.9884
13764.489200 76.121 -172.4355
13864.232362 76.676 163.5450
13964.698305 77.274 138.9456
14065.892266 77.912 113.7368
14167.819519 78.585 87.8760
14270.485380 79.283 61.3174
14373.895200 79.994 34.0197
14478.054370 80.701 5.9447
14582.968320 81.383 -22.9440
14688.642520 82.014 -52.6764
14795.082478 82.569 -83.2594
14902.293745 83.019 -114.6521
15010.281908 83.338 -146.7539
15119.052599 83.503 -179.4280
15228.611486 83.499 147.4618
15338.964283 83.320 114.0406
15450.116741 82.973 80.4391
15562.074656 82.472 46.7921
15674.843864 81.845 13.2058
15788.430244 81.122 -20.2766
15902.839718 80.337 -53.6863
16018.078250 79.524 -87.0955
16134.151848 78.713 -120.5641
16251.066563 77.931 -154.1205
16368.828491 77.194 172.2098
16487.443769 76.513 138.3804
16606.918584 75.893 104.3273
16727.259161 75.334 69.9812
16848.471777 74.830 35.2759
16970.562748 74.369 0.1549
17093.538442 73.933 -35.4183
17217.405268 73.497 -71.4497
17342.169684 73.028 -107.8994
17467.838194 72.496 -144.6685
17594.417350 71.879 178.3743
17721.913751 71.179 141.3267
17850.334044 70.429 104.1863
17979.684923 69.683 66.8445
18109.973131 68.995 29.1709
18241.205462 68.395 -8.9023
18373.388756 67.881 -47.3796
18506.529905 67.432 -86.2554
18640.635849 67.021 -125.4834
18775.713581 66.622 -164.9082
18911.770141 66.221 155.6545
19048.812624 65.809 116.0154
19186.848172 65.386 74.7090
19325.883983 64.957 27.6980
19465.927305 64.532 -27.7249
19606.985439 64.132 -77.2922
19749.065738 63.784 -109.7205
19892.175609 63.523 -128.8032
20036.322514 63.382 -137.8647
