* Measurement data measured by REW V5.31.3
* Source: Headset (2- CX31993 HIFI AUDIO), MICROPHONE (Master Volume), R, volume: 0.400
* Format: 256k Log Swept Sine, 1 sweep at -11.9 dBFS with no timing reference
* Dated: 07 28, 25 4:01:21 PM
* REW Settings:
*  C-weighting compensation: Off
*  Target level: 75.0 dB
* Note: 
* Measurement: Tanchjim Origin 500 R
* Smoothing: 1/12 octave
* Frequency Step: 96 ppo
* Start Frequency: 0.36621094 Hz
*
* Freq(Hz) SPL(dB) Phase(degrees)
0.366211 35.986 -141.6434
0.368865 36.003 -141.7078
0.371538 36.029 -141.8035
0.374230 36.061 -141.9224
0.376942 36.096 -142.0575
0.379673 36.134 -142.2038
0.382424 36.174 -142.3579
0.385196 36.215 -142.5177
0.387987 36.256 -142.6820
0.390798 36.298 -142.8501
0.393630 36.340 -143.0215
0.396483 36.383 -143.1962
0.399356 36.426 -143.3739
0.402250 36.469 -143.5546
0.405165 36.513 -143.7382
0.408101 36.557 -143.9247
0.411058 36.601 -144.1140
0.414037 36.646 -144.3062
0.417037 36.690 -144.5011
0.420059 36.736 -144.6987
0.423103 36.781 -144.8990
0.426169 36.827 -145.1019
0.429257 36.873 -145.3074
0.432368 36.920 -145.5155
0.435501 36.967 -145.7261
0.438656 37.014 -145.9392
0.441835 37.062 -146.1547
0.445037 37.110 -146.3725
0.448262 37.158 -146.5927
0.451510 37.207 -146.8151
0.454782 37.256 -147.0398
0.458077 37.305 -147.2667
0.461397 37.355 -147.4957
0.464740 37.405 -147.7268
0.468108 37.455 -147.9600
0.471500 37.506 -148.1951
0.474917 37.557 -148.4322
0.478358 37.609 -148.6712
0.481825 37.661 -148.9121
0.485316 37.713 -149.1548
0.488833 37.766 -149.3994
0.492375 37.819 -149.6456
0.495943 37.872 -149.8936
0.499537 37.926 -150.1432
0.503157 37.980 -150.3944
0.506803 38.035 -150.6473
0.510475 38.090 -150.9017
0.514175 38.145 -151.1576
0.517900 38.201 -151.4151
0.521653 38.257 -151.6740
0.525434 38.314 -151.9343
0.529241 38.371 -152.1962
0.533076 38.428 -152.4594
0.536939 38.486 -152.7240
0.540830 38.544 -152.9899
0.544749 38.603 -153.2573
0.548696 38.662 -153.5260
0.552673 38.722 -153.7961
0.556677 38.782 -154.0675
0.560711 38.842 -154.3403
0.564774 38.903 -154.6144
0.568867 38.964 -154.8899
0.572989 39.026 -155.1667
0.577141 39.088 -155.4450
0.581324 39.151 -155.7247
0.585536 39.214 -156.0058
0.589779 39.278 -156.2883
0.594053 39.342 -156.5724
0.598358 39.406 -156.8579
0.602694 39.471 -157.1451
0.607061 39.536 -157.4338
0.611460 39.602 -157.7242
0.615891 39.669 -158.0163
0.620354 39.736 -158.3102
0.624849 39.803 -158.6059
0.629377 39.871 -158.9036
0.633938 39.939 -159.2032
0.638532 40.008 -159.5049
0.643159 40.077 -159.8087
0.647819 40.147 -160.1148
0.652514 40.217 -160.4232
0.657242 40.288 -160.7341
0.662005 40.359 -161.0475
0.666802 40.431 -161.3636
0.671634 40.504 -161.6826
0.676501 40.577 -162.0045
0.681403 40.650 -162.3295
0.686341 40.724 -162.6577
0.691314 40.798 -162.9894
0.696324 40.873 -163.3247
0.701370 40.948 -163.6638
0.706452 41.024 -164.0069
0.711571 41.099 -164.3542
0.716728 41.173 -164.7062
0.721921 41.247 -165.0631
0.727153 41.319 -165.4253
0.732422 41.388 -165.7932
0.737729 41.455 -166.1673
0.743075 41.519 -166.5480
0.748460 41.581 -166.9353
0.753883 41.641 -167.3295
0.759346 41.700 -167.7305
0.764849 41.758 -168.1382
0.770391 41.816 -168.5524
0.775974 41.873 -168.9729
0.781597 41.929 -169.3994
0.787261 41.985 -169.8318
0.792966 42.041 -170.2698
0.798712 42.096 -170.7132
0.804500 42.151 -171.1617
0.810329 42.206 -171.6151
0.816201 42.260 -172.0731
0.822116 42.313 -172.5355
0.828073 42.367 -173.0021
0.834074 42.420 -173.4726
0.840118 42.472 -173.9467
0.846206 42.524 -174.4243
0.852338 42.576 -174.9052
0.858514 42.627 -175.3890
0.864735 42.678 -175.8756
0.871001 42.729 -176.3647
0.877313 42.779 -176.8562
0.883670 42.829 -177.3498
0.890074 42.878 -177.8454
0.896524 42.927 -178.3427
0.903020 42.976 -178.8416
0.909564 43.024 -179.3419
0.916155 43.072 -179.8434
0.922794 43.120 179.6540
0.929481 43.168 179.1505
0.936216 43.215 178.6462
0.943000 43.261 178.1412
0.949834 43.308 177.6357
0.956717 43.354 177.1298
0.963649 43.400 176.6235
0.970632 43.446 176.1169
0.977666 43.491 175.6102
0.984750 43.536 175.1034
0.991886 43.582 174.5965
0.999074 43.626 174.0896
1.006314 43.671 173.5826
1.013606 43.716 173.0757
1.020951 43.760 172.5687
1.028349 43.804 172.0617
1.035801 43.849 171.5546
1.043307 43.893 171.0473
1.050867 43.937 170.5396
1.058482 43.981 170.0314
1.066152 44.025 169.5222
1.073878 44.069 169.0116
1.081660 44.113 168.4986
1.089498 44.157 167.9821
1.097393 44.201 167.4606
1.105345 44.244 166.9322
1.113355 44.287 166.3951
1.121423 44.330 165.8479
1.129549 44.373 165.2896
1.137734 44.415 164.7198
1.145979 44.456 164.1382
1.154283 44.497 163.5450
1.162647 44.537 162.9404
1.171072 44.577 162.3248
1.179558 44.616 161.6985
1.188106 44.654 161.0622
1.196715 44.692 160.4162
1.205387 44.730 159.7612
1.214122 44.766 159.0978
1.222920 44.802 158.4265
1.231782 44.838 157.7480
1.240708 44.873 157.0630
1.249699 44.907 156.3722
1.258754 44.941 155.6763
1.267876 44.974 154.9760
1.277063 45.006 154.2722
1.286318 45.038 153.5657
1.295639 45.069 152.8573
1.305027 45.100 152.1479
1.314484 45.130 151.4384
1.324009 45.159 150.7296
1.333604 45.188 150.0226
1.343268 45.216 149.3182
1.353002 45.243 148.6175
1.362806 45.270 147.9214
1.372681 45.296 147.2310
1.382628 45.322 146.5472
1.392647 45.347 145.8709
1.402739 45.371 145.2032
1.412904 45.395 144.5447
1.423142 45.418 143.8961
1.433455 45.441 143.2574
1.443843 45.463 142.6283
1.454305 45.484 142.0074
1.464844 45.504 141.3930
1.475459 45.523 140.7821
1.486150 45.542 140.1720
1.496920 45.559 139.5602
1.507767 45.575 138.9451
1.518693 45.590 138.3256
1.529698 45.604 137.7012
1.540783 45.617 137.0720
1.551948 45.628 136.4379
1.563194 45.639 135.7994
1.574521 45.648 135.1570
1.585931 45.656 134.5113
1.597423 45.663 133.8629
1.608999 45.669 133.2126
1.620658 45.674 132.5614
1.632402 45.678 131.9100
1.644232 45.681 131.2596
1.656146 45.683 130.6112
1.668147 45.684 129.9659
1.680235 45.684 129.3251
1.692411 45.684 128.6901
1.704675 45.682 128.0623
1.717028 45.680 127.4433
1.729470 45.677 126.8346
1.742003 45.674 126.2378
1.754626 45.670 125.6546
1.767341 45.665 125.0866
1.780147 45.660 124.5353
1.793047 45.653 124.0018
1.806040 45.646 123.4867
1.819128 45.638 122.9898
1.832310 45.629 122.5102
1.845587 45.617 122.0461
1.858961 45.604 121.5954
1.872432 45.588 121.1565
1.886001 45.570 120.7280
1.899667 45.549 120.3093
1.913433 45.526 119.9001
1.927299 45.501 119.5006
1.941265 45.475 119.1111
1.955332 45.447 118.7325
1.969501 45.418 118.3654
1.983773 45.388 118.0109
1.998148 45.358 117.6703
2.012627 45.328 117.3447
2.027212 45.299 117.0358
2.041902 45.271 116.7451
2.056698 45.244 116.4744
2.071602 45.220 116.2255
2.086614 45.198 116.0006
2.101734 45.179 115.8018
2.116964 45.163 115.6313
2.132304 45.151 115.4916
2.147756 45.144 115.3852
2.163320 45.141 115.3148
2.178996 45.142 115.2829
2.194786 45.148 115.2924
2.210690 45.158 115.3455
2.226710 45.171 115.4438
2.242845 45.187 115.5881
2.259098 45.206 115.7777
2.275468 45.228 116.0112
2.291957 45.253 116.2863
2.308566 45.281 116.6002
2.325295 45.312 116.9492
2.342145 45.348 117.3294
2.359117 45.388 117.7366
2.376212 45.433 118.1658
2.393431 45.484 118.6120
2.410775 45.541 119.0697
2.428244 45.604 119.5332
2.445840 45.674 119.9968
2.463564 45.752 120.4550
2.481416 45.839 120.9027
2.499397 45.935 121.3361
2.517509 46.040 121.7528
2.535752 46.156 122.1530
2.554127 46.283 122.5393
2.572635 46.422 122.9171
2.591277 46.574 123.2916
2.610055 46.737 123.6664
2.628968 46.913 124.0417
2.648019 47.101 124.4142
2.667208 47.299 124.7785
2.686535 47.507 125.1275
2.706003 47.725 125.4534
2.725612 47.951 125.7486
2.745363 48.184 126.0053
2.765257 48.422 126.2166
2.785295 48.666 126.3763
2.805478 48.913 126.4787
2.825808 49.163 126.5196
2.846285 49.415 126.4962
2.866910 49.667 126.4072
2.887685 49.920 126.2541
2.908611 50.174 126.0410
2.929688 50.428 125.7748
2.950917 50.684 125.4642
2.972301 50.943 125.1176
2.993839 51.204 124.7413
3.015534 51.469 124.3388
3.037386 51.737 123.9114
3.059396 52.008 123.4586
3.081565 52.281 122.9788
3.103896 52.555 122.4698
3.126388 52.831 121.9294
3.149043 53.107 121.3549
3.171862 53.382 120.7444
3.194847 53.657 120.0958
3.217998 53.930 119.4080
3.241317 54.201 118.6806
3.264805 54.469 117.9148
3.288463 54.735 117.1130
3.312293 54.999 116.2795
3.336295 55.261 115.4192
3.360471 55.521 114.5368
3.384822 55.779 113.6362
3.409350 56.036 112.7199
3.434056 56.291 111.7897
3.458940 56.544 110.8463
3.484005 56.796 109.8896
3.509252 57.046 108.9194
3.534681 57.295 107.9349
3.560295 57.542 106.9349
3.586094 57.787 105.9185
3.612081 58.030 104.8847
3.638255 58.271 103.8329
3.664620 58.510 102.7634
3.691175 58.746 101.6772
3.717923 58.981 100.5761
3.744864 59.213 99.4626
3.772001 59.443 98.3393
3.799335 59.670 97.2084
3.826866 59.896 96.0721
3.854597 60.119 94.9319
3.882529 60.340 93.7888
3.910664 60.559 92.6436
3.939002 60.777 91.4960
3.967546 60.992 90.3456
3.996296 61.206 89.1915
4.025255 61.417 88.0327
4.054423 61.627 86.8682
4.083804 61.834 85.6978
4.113396 62.039 84.5222
4.143204 62.242 83.3430
4.173227 62.442 82.1620
4.203468 62.640 80.9814
4.233928 62.836 79.8032
4.264609 63.031 78.6290
4.295512 63.223 77.4599
4.326639 63.414 76.2962
4.357992 63.602 75.1377
4.389572 63.789 73.9833
4.421380 63.974 72.8317
4.453419 64.158 71.6819
4.485691 64.338 70.5337
4.518196 64.517 69.3878
4.550936 64.694 68.2456
4.583914 64.869 67.1088
4.617131 65.043 65.9792
4.650589 65.215 64.8585
4.684289 65.385 63.7475
4.718233 65.554 62.6468
4.752424 65.722 61.5558
4.786862 65.888 60.4736
4.821549 66.052 59.3991
4.856488 66.215 58.3318
4.891680 66.376 57.2715
4.927127 66.536 56.2192
4.962831 66.695 55.1756
4.998794 66.852 54.1419
5.035017 67.008 53.1191
5.071503 67.164 52.1079
5.108253 67.319 51.1084
5.145270 67.473 50.1203
5.182555 67.626 49.1428
5.220110 67.778 48.1751
5.257937 67.929 47.2169
5.296038 68.079 46.2680
5.334415 68.229 45.3285
5.373071 68.378 44.3985
5.412006 68.527 43.4784
5.451224 68.675 42.5682
5.490725 68.824 41.6679
5.530514 68.972 40.7773
5.570590 69.119 39.8959
5.610957 69.267 39.0230
5.651616 69.414 38.1581
5.692570 69.561 37.3004
5.733821 69.708 36.4495
5.775370 69.855 35.6049
5.817221 70.002 34.7661
5.859375 70.148 33.9331
5.901834 70.295 33.1055
5.944602 70.442 32.2831
5.987679 70.589 31.4652
6.031068 70.736 30.6514
6.074771 70.882 29.8407
6.118792 71.029 29.0324
6.163131 71.175 28.2258
6.207792 71.321 27.4203
6.252776 71.467 26.6157
6.298086 71.613 25.8117
6.343725 71.759 25.0082
6.389694 71.904 24.2047
6.435996 72.049 23.4010
6.482634 72.193 22.5964
6.529610 72.337 21.7903
6.576926 72.480 20.9824
6.624585 72.622 20.1724
6.672590 72.763 19.3600
6.720942 72.904 18.5453
6.769645 73.044 17.7285
6.818700 73.182 16.9095
6.868111 73.320 16.0884
6.917881 73.456 15.2649
6.968010 73.591 14.4390
7.018504 73.724 13.6103
7.069362 73.856 12.7791
7.120590 73.987 11.9457
7.172189 74.116 11.1107
7.224161 74.243 10.2745
7.276511 74.369 9.4375
7.329239 74.493 8.5996
7.382350 74.615 7.7610
7.435845 74.735 6.9218
7.489729 74.853 6.0825
7.544002 74.970 5.2438
7.598669 75.084 4.4066
7.653732 75.197 3.5713
7.709194 75.307 2.7383
7.765058 75.416 1.9078
7.821327 75.523 1.0800
7.878004 75.628 0.2553
7.935091 75.731 -0.5653
7.992592 75.832 -1.3811
8.050510 75.932 -2.1917
8.108847 76.030 -2.9966
8.167607 76.126 -3.7960
8.226793 76.221 -4.5895
8.286408 76.314 -5.3767
8.346454 76.406 -6.1572
8.406936 76.497 -6.9305
8.467856 76.587 -7.6967
8.529218 76.676 -8.4557
8.591024 76.764 -9.2076
8.653278 76.851 -9.9529
8.715983 76.938 -10.6914
8.779143 77.025 -11.4233
8.842760 77.111 -12.1490
8.906839 77.197 -12.8690
8.971381 77.283 -13.5837
9.036392 77.369 -14.2942
9.101873 77.455 -15.0010
9.167829 77.542 -15.7048
9.234263 77.629 -16.4066
9.301178 77.716 -17.1069
9.368578 77.804 -17.8069
9.436467 77.892 -18.5076
9.504847 77.981 -19.2101
9.573723 78.070 -19.9152
9.643099 78.160 -20.6235
9.712976 78.250 -21.3362
9.783361 78.340 -22.0537
9.854255 78.431 -22.7771
9.925663 78.522 -23.5067
9.997588 78.612 -24.2430
10.070035 78.703 -24.9863
10.143007 78.793 -25.7366
10.216507 78.883 -26.4938
10.290540 78.972 -27.2579
10.365109 79.060 -28.0287
10.440219 79.148 -28.8054
10.515873 79.235 -29.5875
10.592076 79.320 -30.3740
10.668830 79.405 -31.1641
10.746141 79.488 -31.9569
10.824012 79.571 -32.7513
10.902447 79.652 -33.5458
10.981451 79.731 -34.3391
11.061027 79.810 -35.1302
11.141180 79.887 -35.9177
11.221913 79.964 -36.7004
11.303232 80.039 -37.4769
11.385140 80.113 -38.2462
11.467641 80.187 -39.0071
11.550741 80.261 -39.7589
11.634442 80.334 -40.5008
11.718750 80.407 -41.2321
11.803669 80.481 -41.9522
11.889203 80.554 -42.6611
11.975357 80.629 -43.3589
12.062136 80.704 -44.0457
12.149543 80.780 -44.7217
12.237583 80.858 -45.3878
12.326262 80.937 -46.0447
12.415583 81.017 -46.6935
12.505552 81.100 -47.3354
12.596172 81.184 -47.9719
12.687449 81.270 -48.6045
12.779387 81.358 -49.2349
12.871992 81.448 -49.8649
12.965268 81.539 -50.4962
13.059220 81.633 -51.1307
13.153852 81.728 -51.7703
13.249170 81.824 -52.4165
13.345179 81.921 -53.0709
13.441884 82.018 -53.7348
13.539289 82.117 -54.4094
13.637401 82.214 -55.0955
13.736223 82.312 -55.7933
13.835761 82.408 -56.5031
13.936021 82.503 -57.2242
14.037007 82.596 -57.9561
14.138725 82.687 -58.6971
14.241180 82.775 -59.4457
14.344377 82.859 -60.1995
14.448323 82.941 -60.9562
14.553021 83.019 -61.7126
14.658478 83.093 -62.4659
14.764700 83.163 -63.2128
14.871691 83.229 -63.9503
14.979457 83.293 -64.6752
15.088005 83.353 -65.3849
15.197339 83.410 -66.0773
15.307465 83.465 -66.7510
15.418389 83.519 -67.4051
15.530117 83.571 -68.0398
15.642655 83.623 -68.6562
15.756008 83.676 -69.2563
15.870182 83.729 -69.8432
15.985184 83.783 -70.4205
16.101019 83.838 -70.9925
16.217694 83.894 -71.5640
16.335214 83.952 -72.1395
16.453586 84.010 -72.7236
16.572815 84.069 -73.3203
16.692909 84.128 -73.9325
16.813872 84.186 -74.5621
16.935713 84.242 -75.2100
17.058436 84.296 -75.8755
17.182048 84.346 -76.5566
17.306556 84.393 -77.2502
17.431967 84.435 -77.9520
17.558286 84.473 -78.6572
17.685521 84.506 -79.3601
17.813677 84.536 -80.0553
17.942762 84.561 -80.7375
18.072783 84.584 -81.4020
18.203746 84.604 -82.0454
18.335658 84.624 -82.6655
18.468526 84.643 -83.2617
18.602356 84.665 -83.8352
18.737156 84.688 -84.3892
18.872934 84.715 -84.9279
19.009695 84.746 -85.4574
19.147447 84.781 -85.9845
19.286197 84.821 -86.5161
19.425953 84.866 -87.0590
19.566721 84.914 -87.6190
19.708510 84.965 -88.2003
19.851326 85.017 -88.8057
19.995177 85.071 -89.4352
20.140070 85.123 -90.0867
20.286013 85.175 -90.7560
20.433014 85.224 -91.4369
20.581080 85.270 -92.1215
20.730219 85.313 -92.8013
20.880439 85.354 -93.4674
21.031747 85.393 -94.1120
21.184152 85.431 -94.7287
21.337661 85.469 -95.3135
21.492282 85.510 -95.8657
21.648024 85.555 -96.3881
21.804895 85.605 -96.8869
21.962902 85.661 -97.3713
22.122054 85.723 -97.8529
22.282360 85.791 -98.3436
22.443827 85.863 -98.8547
22.606464 85.938 -99.3945
22.770280 86.013 -99.9678
22.935283 86.086 -100.5739
23.101481 86.154 -101.2072
23.268884 86.214 -101.8568
23.437500 86.267 -102.5079
23.607338 86.310 -103.1430
23.778406 86.345 -103.7445
23.950714 86.374 -104.2966
24.124271 86.398 -104.7885
24.299086 86.421 -105.2153
24.475167 86.447 -105.5810
24.652524 86.479 -105.8977
24.831166 86.518 -106.1849
25.011103 86.567 -106.4671
25.192344 86.623 -106.7699
25.374898 86.684 -107.1163
25.558775 86.748 -107.5223
25.743984 86.810 -107.9954
25.930536 86.866 -108.5325
26.118439 86.912 -109.1210
26.307704 86.946 -109.7411
26.498341 86.967 -110.3687
26.690359 86.975 -110.9790
26.883768 86.973 -111.5505
27.078579 86.964 -112.0682
27.274801 86.952 -112.5265
27.472446 86.941 -112.9294
27.671522 86.935 -113.2903
27.872042 86.935 -113.6290
28.074014 86.943 -113.9675
28.277450 86.958 -114.3260
28.482360 86.976 -114.7186
28.688755 86.996 -115.1513
28.896645 87.015 -115.6216
29.106042 87.031 -116.1200
29.316957 87.044 -116.6333
29.529400 87.054 -117.1478
29.743382 87.062 -117.6533
29.958915 87.071 -118.1447
30.176009 87.082 -118.6237
30.394677 87.098 -119.0975
30.614929 87.118 -119.5768
30.836778 87.142 -120.0717
31.060234 87.169 -120.5892
31.285309 87.196 -121.1307
31.512015 87.221 -121.6912
31.740364 87.244 -122.2603
31.970368 87.263 -122.8249
32.202039 87.279 -123.3724
32.435388 87.294 -123.8937
32.670428 87.310 -124.3858
32.907171 87.328 -124.8519
33.145630 87.349 -125.3005
33.385817 87.374 -125.7430
33.627745 87.402 -126.1896
33.871425 87.431 -126.6472
34.116871 87.460 -127.1168
34.364096 87.486 -127.5947
34.613113 87.509 -128.0731
34.863934 87.529 -128.5434
35.116572 87.547 -128.9989
35.371041 87.564 -129.4373
35.627354 87.581 -129.8606
35.885525 87.599 -130.2751
36.145566 87.619 -130.6887
36.407492 87.639 -131.1085
36.671316 87.660 -131.5387
36.937051 87.679 -131.9794
37.204712 87.697 -132.4274
37.474313 87.713 -132.8777
37.745867 87.727 -133.3253
38.019389 87.740 -133.7670
38.294893 87.752 -134.2024
38.572394 87.765 -134.6335
38.851905 87.778 -135.0635
39.133442 87.792 -135.4950
39.417019 87.804 -135.9282
39.702651 87.815 -136.3604
39.990353 87.825 -136.7859
40.280140 87.832 -137.1973
40.572026 87.839 -137.5878
40.866028 87.845 -137.9531
41.162160 87.852 -138.2932
41.460438 87.863 -138.6128
41.760877 87.877 -138.9213
42.063494 87.894 -139.2305
42.368303 87.915 -139.5516
42.675322 87.937 -139.8932
42.984565 87.959 -140.2589
43.296048 87.978 -140.6462
43.609789 87.994 -141.0481
43.925804 88.006 -141.4549
44.244108 88.015 -141.8577
44.564719 88.023 -142.2518
44.887654 88.031 -142.6393
45.212928 88.040 -143.0290
45.540560 88.051 -143.4347
45.870565 88.063 -143.8701
46.202962 88.074 -144.3433
46.537768 88.081 -144.8519
46.875000 88.081 -145.3813
47.214676 88.072 -145.9069
47.556813 88.057 -146.4009
47.901429 88.037 -146.8409
48.248542 88.019 -147.2181
48.598171 88.007 -147.5404
48.950334 88.004 -147.8301
49.305048 88.011 -148.1156
49.662333 88.027 -148.4215
50.022206 88.049 -148.7616
50.384688 88.073 -149.1383
50.749796 88.099 -149.5483
51.117550 88.124 -149.9893
51.487969 88.149 -150.4634
51.861072 88.170 -150.9738
52.236879 88.186 -151.5176
52.615409 88.191 -152.0791
52.996681 88.185 -152.6307
53.380717 88.169 -153.1405
53.767536 88.145 -153.5842
54.157158 88.118 -153.9539
54.549603 88.093 -154.2581
54.944892 88.070 -154.5134
55.343045 88.051 -154.7341
55.744084 88.035 -154.9265
56.148028 88.022 -155.0901
56.554900 88.012 -155.2248
56.964720 88.007 -155.3359
57.377510 88.008 -155.4352
57.793291 88.016 -155.5381
58.212085 88.030 -155.6607
58.633914 88.048 -155.8169
59.058799 88.068 -156.0161
59.486764 88.088 -156.2616
59.917829 88.106 -156.5494
60.352019 88.119 -156.8707
60.789354 88.128 -157.2156
61.229859 88.133 -157.5768
61.673556 88.134 -157.9499
62.120468 88.131 -158.3304
62.570618 88.125 -158.7120
63.024031 88.117 -159.0875
63.480729 88.108 -159.4531
63.940736 88.100 -159.8131
64.404077 88.095 -160.1779
64.870776 88.092 -160.5582
65.340856 88.088 -160.9570
65.814343 88.082 -161.3649
66.291261 88.074 -161.7639
66.771635 88.063 -162.1360
67.255489 88.053 -162.4734
67.742850 88.047 -162.7803
68.233743 88.044 -163.0681
68.728193 88.044 -163.3455
69.226226 88.046 -163.6141
69.727867 88.050 -163.8723
70.233144 88.055 -164.1230
70.742083 88.063 -164.3756
71.254709 88.070 -164.6406
71.771050 88.076 -164.9209
72.291132 88.077 -165.2093
72.814984 88.074 -165.4944
73.342631 88.068 -165.7694
73.874102 88.059 -166.0357
74.409424 88.049 -166.2992
74.948626 88.036 -166.5642
75.491734 88.022 -166.8305
76.038779 88.006 -167.0951
76.589787 87.990 -167.3564
77.144788 87.975 -167.6174
77.703811 87.961 -167.8834
78.266885 87.949 -168.1587
78.834039 87.938 -168.4421
79.405303 87.928 -168.7287
79.980706 87.920 -169.0143
80.560280 87.914 -169.3000
81.144053 87.910 -169.5912
81.732056 87.906 -169.8923
82.324320 87.902 -170.2030
82.920876 87.895 -170.5165
83.521755 87.884 -170.8221
84.126988 87.871 -171.1103
84.736607 87.856 -171.3787
85.350643 87.841 -171.6353
85.969129 87.827 -171.8945
86.592097 87.813 -172.1699
87.219579 87.796 -172.4661
87.851608 87.777 -172.7755
88.488217 87.753 -173.0807
89.129439 87.729 -173.3633
89.775308 87.706 -173.6157
90.425856 87.688 -173.8456
91.081119 87.676 -174.0675
91.741131 87.669 -174.2909
92.405925 87.667 -174.5183
93.075536 87.667 -174.7506
93.750000 87.669 -174.9885
94.429351 87.670 -175.2303
95.113625 87.669 -175.4722
95.802858 87.665 -175.7099
96.497085 87.658 -175.9406
97.196342 87.646 -176.1615
97.900667 87.630 -176.3712
98.610096 87.612 -176.5714
99.324665 87.591 -176.7688
100.044413 87.568 -176.9722
100.769376 87.543 -177.1860
101.499592 87.517 -177.4076
102.235100 87.490 -177.6324
102.975938 87.465 -177.8618
103.722144 87.444 -178.1044
104.473757 87.426 -178.3688
105.230817 87.411 -178.6562
105.993363 87.397 -178.9579
106.761435 87.383 -179.2580
107.535072 87.370 -179.5412
108.314315 87.355 -179.7985
109.099206 87.340 179.9697
109.889783 87.323 179.7567
110.686090 87.301 179.5547
111.488167 87.272 179.3602
112.296056 87.238 179.1719
113.109800 87.198 178.9809
113.929440 87.156 178.7664
114.755020 87.114 178.5056
115.586582 87.073 178.1848
116.424170 87.034 177.8048
117.267827 86.994 177.3862
118.117598 86.954 176.9724
118.973527 86.912 176.6255
119.835658 86.870 176.4099
120.704037 86.833 176.3575
121.578708 86.806 176.4443
122.459718 86.787 176.6143
123.347111 86.772 176.8181
124.240935 86.755 177.0262
125.141236 86.735 177.2244
126.048061 86.714 177.4046
126.961458 86.696 177.5523
127.881473 86.684 177.6452
128.808154 86.682 177.6630
129.741551 86.685 177.5935
130.681712 86.691 177.4373
131.628686 86.692 177.2127
132.582521 86.685 176.9606
133.543269 86.672 176.7357
134.510979 86.661 176.5735
135.485701 86.664 176.4603
136.467486 86.689 176.3513
137.456386 86.737 176.2129
138.452451 86.803 176.0374
139.455735 86.880 175.8228
140.466288 86.953 175.5648
141.484165 87.008 175.2793
142.509418 87.031 175.0262
143.542100 87.022 174.8707
144.582265 86.992 174.8175
145.629968 86.950 174.8129
146.685262 86.906 174.7928
147.748204 86.862 174.7117
148.818849 86.818 174.5570
149.897251 86.772 174.3621
150.983469 86.724 174.1910
152.077557 86.679 174.0959
153.179574 86.642 174.0878
154.289576 86.619 174.1378
155.407622 86.610 174.1886
156.533770 86.614 174.1721
157.668078 86.619 174.0507
158.810606 86.619 173.8444
159.961413 86.609 173.6013
161.120559 86.593 173.3558
162.288105 86.575 173.1138
163.464112 86.560 172.8544
164.648640 86.547 172.5484
165.841752 86.533 172.1884
167.043510 86.513 171.8088
168.253976 86.483 171.4625
169.473213 86.447 171.1808
170.701286 86.408 170.9648
171.938258 86.369 170.7967
173.184194 86.332 170.6522
174.439158 86.297 170.5125
175.703216 86.264 170.3707
176.976434 86.234 170.2304
178.258878 86.207 170.0983
179.550615 86.182 169.9764
180.851713 86.160 169.8599
182.162239 86.139 169.7412
183.482262 86.119 169.6158
184.811850 86.097 169.4846
186.151073 86.070 169.3537
187.500000 86.040 169.2302
188.858702 86.007 169.1157
190.227250 85.971 169.0065
191.605715 85.934 168.8989
192.994169 85.897 168.7931
194.392685 85.860 168.6915
195.801334 85.823 168.5952
197.220191 85.785 168.5032
198.649330 85.748 168.4139
200.088825 85.711 168.3243
201.538751 85.677 168.2281
202.999184 85.644 168.1202
204.470200 85.614 168.0023
205.951875 85.584 167.8804
207.444287 85.555 167.7605
208.947514 85.524 167.6458
210.461634 85.494 167.5360
211.986726 85.463 167.4287
213.522869 85.433 167.3227
215.070144 85.405 167.2189
216.628631 85.376 167.1215
218.198411 85.345 167.0409
219.779567 85.310 166.9888
221.372180 85.273 166.9695
222.976334 85.236 166.9773
224.592112 85.201 167.0016
226.219600 85.170 167.0310
227.858880 85.142 167.0581
229.510039 85.117 167.0799
231.173164 85.092 167.0942
232.848340 85.065 167.1007
234.535655 85.037 167.0989
236.235197 85.008 167.0889
237.947054 84.981 167.0709
239.671317 84.954 167.0459
241.408074 84.928 167.0140
243.157416 84.902 166.9733
244.919435 84.874 166.9210
246.694223 84.844 166.8577
248.481871 84.812 166.7875
250.282473 84.779 166.7143
252.096123 84.746 166.6392
253.922915 84.711 166.5649
255.762945 84.675 166.4987
257.616309 84.636 166.4474
259.483103 84.596 166.4141
261.363424 84.555 166.3958
263.257372 84.515 166.3857
265.165043 84.478 166.3798
267.086538 84.444 166.3770
269.021957 84.416 166.3774
270.971401 84.390 166.3801
272.934972 84.366 166.3864
274.912771 84.342 166.3990
276.904902 84.317 166.4183
278.911469 84.290 166.4417
280.932577 84.263 166.4666
282.968330 84.234 166.4921
285.018835 84.204 166.5192
287.084199 84.173 166.5498
289.164530 84.142 166.5856
291.259935 84.112 166.6266
293.370525 84.083 166.6721
295.496408 84.057 166.7212
297.637697 84.031 166.7724
299.794503 84.006 166.8241
301.966937 83.979 166.8748
304.155114 83.950 166.9231
306.359147 83.920 166.9686
308.579152 83.890 167.0125
310.815244 83.861 167.0562
313.067539 83.833 167.0986
315.336156 83.806 167.1377
317.621211 83.780 167.1724
319.922826 83.754 167.2031
322.241118 83.728 167.2324
324.576210 83.702 167.2630
326.928223 83.675 167.2982
329.297280 83.648 167.3405
331.683504 83.619 167.3899
334.087019 83.590 167.4433
336.507952 83.559 167.4963
338.946427 83.528 167.5464
341.402572 83.497 167.5941
343.876516 83.467 167.6426
346.368387 83.437 167.6949
348.878315 83.408 167.7523
351.406431 83.379 167.8135
353.952867 83.350 167.8771
356.517756 83.321 167.9421
359.101230 83.292 168.0091
361.703426 83.262 168.0798
364.324478 83.232 168.1573
366.964523 83.203 168.2440
369.623699 83.172 168.3396
372.302145 83.142 168.4417
375.000000 83.112 168.5473
377.717405 83.081 168.6541
380.454501 83.051 168.7607
383.211431 83.021 168.8677
385.988339 82.992 168.9752
388.785369 82.963 169.0830
391.602668 82.934 169.1910
394.440383 82.906 169.3002
397.298660 82.877 169.4119
400.177650 82.848 169.5275
403.077502 82.819 169.6471
405.998368 82.790 169.7703
408.940400 82.762 169.8967
411.903750 82.733 170.0268
414.888575 82.705 170.1603
417.895028 82.678 170.2968
420.923268 82.651 170.4357
423.973452 82.625 170.5762
427.045738 82.599 170.7175
430.140287 82.572 170.8591
433.257261 82.546 171.0012
436.396822 82.520 171.1443
439.559133 82.494 171.2892
442.744360 82.468 171.4366
445.952668 82.442 171.5875
449.184225 82.416 171.7424
452.439199 82.391 171.9016
455.717760 82.365 172.0647
459.020079 82.339 172.2312
462.346327 82.313 172.3998
465.696680 82.288 172.5695
469.071310 82.262 172.7401
472.470394 82.238 172.9127
475.894109 82.213 173.0886
479.342634 82.189 173.2683
482.816148 82.165 173.4515
486.314833 82.141 173.6372
489.838871 82.118 173.8239
493.388445 82.095 174.0109
496.963741 82.072 174.1990
500.564945 82.049 174.3894
504.192245 82.026 174.5830
507.845830 82.004 174.7797
511.525890 81.982 174.9789
515.232618 81.960 175.1803
518.966206 81.939 175.3838
522.726849 81.918 175.5890
526.514743 81.897 175.7960
530.330086 81.877 176.0048
534.173076 81.856 176.2169
538.043915 81.836 176.4343
541.942803 81.816 176.6586
545.869944 81.796 176.8891
549.825542 81.776 177.1237
553.809805 81.757 177.3603
557.822939 81.737 177.5975
561.865154 81.719 177.8345
565.936660 81.700 178.0710
570.037671 81.682 178.3070
574.168399 81.665 178.5430
578.329060 81.647 178.7803
582.519870 81.630 179.0211
586.741049 81.613 179.2663
590.992817 81.597 179.5166
595.275394 81.581 179.7720
599.589005 81.565 -179.9676
603.933874 81.549 -179.7029
608.310228 81.534 -179.4356
612.718295 81.519 -179.1676
617.158304 81.504 -178.8996
621.630488 81.490 -178.6309
626.135079 81.476 -178.3599
630.672311 81.463 -178.0848
635.242423 81.450 -177.8050
639.845651 81.437 -177.5215
644.482237 81.425 -177.2361
649.152421 81.414 -176.9503
653.856447 81.403 -176.6644
658.594560 81.392 -176.3779
663.367008 81.383 -176.0890
668.174039 81.374 -175.7950
673.015903 81.365 -175.4945
677.892854 81.357 -175.1885
682.805145 81.350 -174.8792
687.753032 81.343 -174.5680
692.736774 81.336 -174.2557
697.756631 81.330 -173.9421
702.812863 81.324 -173.6268
707.905735 81.318 -173.3099
713.035511 81.313 -172.9918
718.202461 81.309 -172.6730
723.406852 81.305 -172.3542
728.648956 81.302 -172.0353
733.929047 81.299 -171.7161
739.247399 81.296 -171.3955
744.604290 81.295 -171.0725
750.000000 81.294 -170.7464
755.434809 81.294 -170.4175
760.909001 81.294 -170.0863
766.422861 81.294 -169.7534
771.976677 81.294 -169.4194
777.570739 81.294 -169.0843
783.205337 81.295 -168.7477
788.880766 81.296 -168.4094
794.597321 81.297 -168.0695
800.355301 81.299 -167.7268
806.155005 81.302 -167.3801
811.996736 81.304 -167.0284
817.880799 81.306 -166.6705
823.807501 81.308 -166.3048
829.777150 81.311 -165.9296
835.790057 81.314 -165.5442
841.846536 81.318 -165.1493
847.946903 81.323 -164.7457
854.091476 81.328 -164.3336
860.280575 81.334 -163.9122
866.514523 81.341 -163.4814
872.793644 81.350 -163.0415
879.118267 81.361 -162.5925
885.488720 81.374 -162.1346
891.905336 81.389 -161.6685
898.368450 81.407 -161.1951
904.878398 81.428 -160.7155
911.435520 81.451 -160.2313
918.040157 81.477 -159.7446
924.692655 81.506 -159.2575
931.393359 81.538 -158.7726
938.142619 81.573 -158.2919
944.940787 81.611 -157.8169
951.788218 81.651 -157.3497
958.685268 81.695 -156.8925
965.632296 81.741 -156.4465
972.629666 81.790 -156.0119
979.677741 81.842 -155.5882
986.776890 81.895 -155.1750
993.927482 81.950 -154.7724
1001.129891 82.006 -154.3813
1008.384491 82.063 -154.0027
1015.691660 82.121 -153.6371
1023.051781 82.180 -153.2845
1030.465236 82.240 -152.9449
1037.932411 82.301 -152.6180
1045.453698 82.363 -152.3035
1053.029486 82.426 -152.0009
1060.660172 82.490 -151.7109
1068.346153 82.554 -151.4343
1076.087829 82.619 -151.1714
1083.885605 82.684 -150.9214
1091.739887 82.750 -150.6833
1099.651084 82.816 -150.4564
1107.619609 82.881 -150.2402
1115.645878 82.947 -150.0339
1123.730308 83.013 -149.8373
1131.873321 83.078 -149.6505
1140.075341 83.143 -149.4736
1148.336797 83.208 -149.3063
1156.658119 83.272 -149.1482
1165.039741 83.337 -148.9988
1173.482099 83.401 -148.8581
1181.985634 83.465 -148.7257
1190.550789 83.530 -148.6013
1199.178011 83.594 -148.4843
1207.867749 83.657 -148.3744
1216.620457 83.721 -148.2708
1225.436590 83.784 -148.1727
1234.316609 83.846 -148.0795
1243.260976 83.909 -147.9911
1252.270157 83.970 -147.9077
1261.344623 84.032 -147.8297
1270.484846 84.093 -147.7576
1279.691303 84.153 -147.6912
1288.964474 84.213 -147.6301
1298.304842 84.273 -147.5735
1307.712894 84.333 -147.5204
1317.189120 84.392 -147.4703
1326.734016 84.452 -147.4234
1336.348077 84.512 -147.3800
1346.031806 84.571 -147.3409
1355.785708 84.631 -147.3063
1365.610290 84.691 -147.2766
1375.506065 84.751 -147.2525
1385.473549 84.811 -147.2353
1395.513261 84.871 -147.2260
1405.625726 84.931 -147.2250
1415.811469 84.992 -147.2311
1426.071023 85.052 -147.2429
1436.404921 85.113 -147.2597
1446.813703 85.175 -147.2824
1457.297912 85.236 -147.3133
1467.858093 85.298 -147.3542
1478.494798 85.360 -147.4058
1489.208581 85.421 -147.4668
1500.000000 85.482 -147.5353
1510.869618 85.541 -147.6092
1521.818002 85.599 -147.6871
1532.845723 85.655 -147.7690
1543.953355 85.710 -147.8553
1555.141477 85.763 -147.9465
1566.410674 85.815 -148.0422
1577.761531 85.866 -148.1417
1589.194642 85.915 -148.2448
1600.710601 85.964 -148.3508
1612.310010 86.012 -148.4595
1623.993473 86.058 -148.5699
1635.761599 86.104 -148.6812
1647.615002 86.149 -148.7925
1659.554299 86.193 -148.9033
1671.580114 86.237 -149.0132
1683.693072 86.279 -149.1220
1695.893807 86.321 -149.2296
1708.182952 86.363 -149.3357
1720.561150 86.403 -149.4399
1733.029045 86.444 -149.5422
1745.587288 86.484 -149.6428
1758.236533 86.523 -149.7416
1770.977440 86.562 -149.8383
1783.810673 86.601 -149.9329
1796.736900 86.640 -150.0251
1809.756796 86.679 -150.1151
1822.871040 86.717 -150.2032
1836.080315 86.756 -150.2899
1849.385310 86.795 -150.3753
1862.786718 86.833 -150.4594
1876.285239 86.872 -150.5421
1889.881575 86.911 -150.6230
1903.576436 86.951 -150.7025
1917.370535 86.990 -150.7803
1931.264593 87.030 -150.8569
1945.259332 87.070 -150.9325
1959.355483 87.111 -151.0075
1973.553781 87.152 -151.0824
1987.854965 87.194 -151.1579
2002.259781 87.237 -151.2347
2016.768981 87.280 -151.3136
2031.383320 87.324 -151.3955
2046.103561 87.369 -151.4811
2060.930471 87.414 -151.5712
2075.864823 87.459 -151.6661
2090.907395 87.505 -151.7666
2106.058972 87.551 -151.8727
2121.320344 87.596 -151.9846
2136.692305 87.642 -152.1018
2152.175658 87.688 -152.2241
2167.771210 87.733 -152.3508
2183.479774 87.778 -152.4811
2199.302169 87.824 -152.6147
2215.239219 87.869 -152.7510
2231.291755 87.914 -152.8900
2247.460615 87.959 -153.0314
2263.746641 88.003 -153.1750
2280.150683 88.048 -153.3206
2296.673595 88.093 -153.4683
2313.316238 88.138 -153.6183
2330.079481 88.184 -153.7712
2346.964198 88.230 -153.9272
2363.971268 88.276 -154.0870
2381.101578 88.322 -154.2511
2398.356022 88.368 -154.4201
2415.735498 88.415 -154.5945
2433.240913 88.462 -154.7745
2450.873180 88.509 -154.9605
2468.633217 88.556 -155.1525
2486.521951 88.603 -155.3506
2504.540314 88.649 -155.5547
2522.689246 88.696 -155.7651
2540.969692 88.743 -155.9815
2559.382606 88.790 -156.2040
2577.928947 88.836 -156.4324
2596.609683 88.883 -156.6666
2615.425787 88.929 -156.9067
2634.378241 88.975 -157.1530
2653.468031 89.021 -157.4053
2672.696154 89.067 -157.6639
2692.063613 89.113 -157.9290
2711.571415 89.159 -158.2006
2731.220579 89.204 -158.4787
2751.012130 89.249 -158.7632
2770.947098 89.295 -159.0542
2791.026522 89.339 -159.3521
2811.251451 89.384 -159.6570
2831.622938 89.429 -159.9697
2852.142045 89.473 -160.2905
2872.809842 89.517 -160.6196
2893.627406 89.561 -160.9578
2914.595823 89.605 -161.3054
2935.716186 89.648 -161.6630
2956.989596 89.692 -162.0312
2978.417161 89.735 -162.4103
3000.000000 89.778 -162.8005
3021.739237 89.820 -163.2023
3043.636005 89.861 -163.6161
3065.691446 89.902 -164.0421
3087.906710 89.942 -164.4804
3110.282955 89.981 -164.9310
3132.821347 90.019 -165.3940
3155.523062 90.056 -165.8694
3178.389283 90.093 -166.3572
3201.421202 90.128 -166.8575
3224.620020 90.162 -167.3709
3247.986946 90.194 -167.8978
3271.523198 90.226 -168.4392
3295.230004 90.256 -168.9959
3319.108599 90.285 -169.5692
3343.160228 90.312 -170.1601
3367.386145 90.337 -170.7693
3391.787613 90.360 -171.3971
3416.365904 90.379 -172.0430
3441.122300 90.396 -172.7061
3466.058091 90.410 -173.3849
3491.174576 90.419 -174.0777
3516.473066 90.425 -174.7829
3541.954880 90.426 -175.4989
3567.621345 90.424 -176.2244
3593.473800 90.417 -176.9579
3619.513592 90.406 -177.6987
3645.742080 90.390 -178.4457
3672.160630 90.370 -179.1972
3698.770620 90.346 -179.9516
3725.573436 90.316 179.2932
3752.570477 90.282 178.5392
3779.763150 90.242 177.7887
3807.152872 90.197 177.0437
3834.741071 90.147 176.3062
3862.529185 90.093 175.5782
3890.518664 90.033 174.8612
3918.710966 89.968 174.1570
3947.107561 89.898 173.4676
3975.709929 89.824 172.7947
4004.519563 89.745 172.1404
4033.537962 89.661 171.5067
4062.766641 89.573 170.8955
4092.207123 89.481 170.3089
4121.860942 89.384 169.7489
4151.729646 89.284 169.2175
4181.814790 89.180 168.7164
4212.117944 89.072 168.2474
4242.640687 88.962 167.8115
4273.384610 88.849 167.4100
4304.351317 88.734 167.0436
4335.542421 88.618 166.7128
4366.959549 88.499 166.4178
4398.604338 88.380 166.1584
4430.478438 88.260 165.9340
4462.583511 88.140 165.7438
4494.921231 88.019 165.5872
4527.493283 87.899 165.4634
4560.301365 87.778 165.3716
4593.347189 87.659 165.3115
4626.632476 87.539 165.2828
4660.158962 87.421 165.2856
4693.928395 87.303 165.3199
4727.942535 87.187 165.3859
4762.203156 87.072 165.4838
4796.712043 86.959 165.6135
4831.470996 86.848 165.7747
4866.481826 86.740 165.9666
4901.746360 86.634 166.1879
4937.266434 86.532 166.4370
4973.043902 86.434 166.7118
5009.080628 86.339 167.0099
5045.378492 86.249 167.3285
5081.939384 86.163 167.6645
5118.765212 86.082 168.0145
5155.857894 86.005 168.3750
5193.219366 85.933 168.7423
5230.851574 85.865 169.1127
5268.756481 85.802 169.4829
5306.936062 85.742 169.8498
5345.392309 85.685 170.2114
5384.127225 85.630 170.5667
5423.142830 85.577 170.9159
5462.441159 85.526 171.2605
5502.024259 85.475 171.6030
5541.894195 85.424 171.9466
5582.053045 85.374 172.2949
5622.502902 85.322 172.6520
5663.245876 85.271 173.0225
5704.284090 85.219 173.4108
5745.619684 85.168 173.8207
5787.254813 85.117 174.2549
5829.191647 85.068 174.7150
5871.432373 85.021 175.2026
5913.979192 84.978 175.7191
5956.834323 84.938 176.2658
6000.000000 84.903 176.8432
6043.478473 84.872 177.4509
6087.272010 84.848 178.0876
6131.382892 84.830 178.7514
6175.813420 84.819 179.4399
6220.565910 84.816 -179.8499
6265.642695 84.821 -179.1210
6311.046124 84.836 -178.3774
6356.778566 84.860 -177.6230
6402.842404 84.895 -176.8623
6449.240040 84.940 -176.0999
6495.973891 84.997 -175.3410
6543.046396 85.065 -174.5914
6590.460007 85.147 -173.8572
6638.217197 85.241 -173.1452
6686.320456 85.350 -172.4626
6734.772290 85.474 -171.8177
6783.575226 85.612 -171.2196
6832.731809 85.767 -170.6785
6882.244600 85.938 -170.2063
6932.116181 86.125 -169.8158
6982.349153 86.328 -169.5212
7032.946133 86.547 -169.3389
7083.909760 86.781 -169.2879
7135.242690 87.030 -169.3900
7186.947600 87.292 -169.6686
7239.027185 87.565 -170.1483
7291.484160 87.848 -170.8539
7344.321260 88.135 -171.8099
7397.541239 88.423 -173.0378
7451.146872 88.705 -174.5554
7505.140954 88.975 -176.3739
7559.526299 89.223 -178.4969
7614.305743 89.443 179.0820
7669.482141 89.626 176.3810
7725.058371 89.763 173.4300
7781.037328 89.847 170.2715
7837.421932 89.871 166.9590
7894.215122 89.831 163.5554
7951.419859 89.725 160.1292
8009.039125 89.552 156.7510
8067.075924 89.314 153.4890
8125.533282 89.016 150.4059
8184.414245 88.664 147.5553
8243.721885 88.264 144.9799
8303.459292 87.825 142.7106
8363.629581 87.355 140.7659
8424.235888 86.863 139.1536
8485.281374 86.356 137.8711
8546.769221 85.842 136.9084
8608.702634 85.326 136.2495
8671.084842 84.813 135.8741
8733.919097 84.308 135.7599
8797.208675 83.814 135.8838
8860.956876 83.333 136.2221
8925.167022 82.868 136.7519
8989.842461 82.421 137.4518
9054.986566 81.991 138.3022
9120.602731 81.580 139.2854
9186.694378 81.188 140.3851
9253.264952 80.813 141.5870
9320.317925 80.456 142.8781
9387.856790 80.116 144.2469
9455.885071 79.793 145.6841
9524.406312 79.485 147.1809
9593.424086 79.192 148.7297
9662.941992 78.915 150.3235
9732.963653 78.651 151.9559
9803.492719 78.402 153.6210
9874.532869 78.166 155.3134
9946.087805 77.944 157.0283
10018.161257 77.733 158.7613
10090.756983 77.535 160.5090
10163.878768 77.349 162.2682
10237.530423 77.173 164.0359
10311.715789 77.009 165.8094
10386.438732 76.856 167.5868
10461.703149 76.713 169.3668
10537.512962 76.579 171.1486
10613.872125 76.456 172.9323
10690.784618 76.342 174.7182
10768.254450 76.237 176.5077
10846.285661 76.142 178.3024
10924.882318 76.056 -179.8954
11004.048518 75.979 -178.0839
11083.788390 75.912 -176.2618
11164.106090 75.856 -174.4293
11245.005805 75.812 -172.5875
11326.491752 75.780 -170.7396
11408.568180 75.761 -168.8903
11491.239368 75.756 -167.0459
11574.509626 75.766 -165.2134
11658.383294 75.791 -163.4003
11742.864745 75.831 -161.6133
11827.958384 75.887 -159.8585
11913.668646 75.958 -158.1409
12000.000000 76.044 -156.4651
12086.956947 76.147 -154.8356
12174.544019 76.266 -153.2574
12262.765784 76.402 -151.7375
12351.626840 76.555 -150.2844
12441.131819 76.724 -148.9086
12531.285389 76.911 -147.6222
12622.092249 77.113 -146.4379
12713.557132 77.331 -145.3683
12805.684808 77.563 -144.4262
12898.480079 77.806 -143.6238
12991.947783 78.060 -142.9728
13086.092792 78.322 -142.4835
13180.920015 78.589 -142.1646
13276.434395 78.859 -142.0214
13372.640911 79.129 -142.0563
13469.544580 79.395 -142.2683
13567.150452 79.654 -142.6525
13665.463617 79.905 -143.2001
13764.489200 80.144 -143.8984
13864.232362 80.370 -144.7319
13964.698305 80.582 -145.6832
14065.892266 80.781 -146.7355
14167.819519 80.966 -147.8746
14270.485380 81.141 -149.0917
14373.895200 81.306 -150.3856
14478.054370 81.464 -151.7642
14582.968320 81.617 -153.2433
14688.642520 81.765 -154.8460
14795.082478 81.907 -156.6006
14902.293745 82.041 -158.5381
15010.281908 82.162 -160.6890
15119.052599 82.265 -163.0790
15228.611486 82.342 -165.7242
15338.964283 82.383 -168.6270
15450.116741 82.376 -171.7714
15562.074656 82.311 -175.1211
15674.843864 82.178 -178.6190
15788.430244 81.968 177.8105
15902.839718 81.677 174.2570
16018.078250 81.303 170.8167
16134.151848 80.847 167.5854
16251.066563 80.316 164.6511
16368.828491 79.717 162.0873
16487.443769 79.062 159.9492
16606.918584 78.364 158.2721
16727.259161 77.635 157.0698
16848.471777 76.890 156.3361
16970.562748 76.141 156.0460
17093.538442 75.401 156.1583
17217.405268 74.681 156.6174
17342.169684 73.990 157.3562
17467.838194 73.336 158.2991
17594.417350 72.721 159.3651
17721.913751 72.149 160.4725
17850.334044 71.618 161.5443
17979.684923 71.121 162.5140
18109.973131 70.652 163.3323
18241.205462 70.200 163.9729
18373.388756 69.752 164.4370
18506.529905 69.297 164.7563
18640.635849 68.823 164.9926
18775.713581 68.321 165.2335
18911.770141 67.785 165.5846
19048.812624 67.215 166.1550
19186.848172 66.616 167.0397
19325.883983 66.002 168.2946
19465.927305 65.392 169.9095
19606.985439 64.816 171.7799
19749.065738 64.316 173.6857
19892.175609 63.941 175.2962
20036.322514 63.739 176.2363
