* Measurement data measured by REW V5.31.3
* Source: Headset (2- CX31993 HIFI AUDIO), MICROPHONE (Master Volume), R, volume: 0.250
* Format: 256k Log Swept Sine, 1 sweep at -12.0 dBFS with no timing reference
* Dated: 10 28, 24 11:19:55 AM
* REW Settings:
*  C-weighting compensation: Off
*  Target level: 75.0 dB
* Note: ; 
* Measurement: Tanchjim Origin R
* Smoothing: 1/12 octave
* Frequency Step: 96 ppo
* Start Frequency: 0.36621094 Hz
*
* Freq(Hz) SPL(dB) Phase(degrees)
0.366211 32.380 8.2769
0.368865 32.411 8.3948
0.371538 32.456 8.5695
0.374230 32.511 8.7855
0.376942 32.574 9.0295
0.379673 32.640 9.2919
0.382424 32.710 9.5665
0.385196 32.781 9.8494
0.387987 32.854 10.1383
0.390798 32.927 10.4322
0.393630 33.001 10.7302
0.396483 33.076 11.0320
0.399356 33.151 11.3375
0.402250 33.226 11.6465
0.405165 33.303 11.9589
0.408101 33.380 12.2748
0.411058 33.457 12.5940
0.414037 33.535 12.9165
0.417037 33.614 13.2423
0.420059 33.693 13.5713
0.423103 33.773 13.9034
0.426169 33.853 14.2385
0.429257 33.934 14.5767
0.432368 34.015 14.9177
0.435501 34.097 15.2615
0.438656 34.180 15.6081
0.441835 34.263 15.9572
0.445037 34.347 16.3089
0.448262 34.432 16.6629
0.451510 34.517 17.0191
0.454782 34.602 17.3775
0.458077 34.689 17.7378
0.461397 34.776 18.0999
0.464740 34.863 18.4637
0.468108 34.952 18.8290
0.471500 35.040 19.1956
0.474917 35.130 19.5633
0.478358 35.220 19.9320
0.481825 35.311 20.3014
0.485316 35.402 20.6713
0.488833 35.494 21.0416
0.492375 35.587 21.4120
0.495943 35.681 21.7823
0.499537 35.775 22.1523
0.503157 35.870 22.5217
0.506803 35.965 22.8903
0.510475 36.061 23.2579
0.514175 36.158 23.6241
0.517900 36.256 23.9888
0.521653 36.354 24.3517
0.525434 36.453 24.7125
0.529241 36.553 25.0710
0.533076 36.654 25.4269
0.536939 36.755 25.7800
0.540830 36.857 26.1299
0.544749 36.959 26.4764
0.548696 37.063 26.8192
0.552673 37.167 27.1581
0.556677 37.272 27.4929
0.560711 37.378 27.8232
0.564774 37.484 28.1487
0.568867 37.591 28.4693
0.572989 37.699 28.7847
0.577141 37.808 29.0947
0.581324 37.918 29.3989
0.585536 38.028 29.6971
0.589779 38.139 29.9892
0.594053 38.251 30.2750
0.598358 38.364 30.5540
0.602694 38.478 30.8263
0.607061 38.592 31.0915
0.611460 38.708 31.3496
0.615891 38.824 31.6002
0.620354 38.941 31.8433
0.624849 39.058 32.0786
0.629377 39.177 32.3060
0.633938 39.297 32.5254
0.638532 39.417 32.7366
0.643159 39.538 32.9395
0.647819 39.661 33.1340
0.652514 39.784 33.3200
0.657242 39.907 33.4973
0.662005 40.032 33.6660
0.666802 40.158 33.8260
0.671634 40.285 33.9771
0.676501 40.412 34.1193
0.681403 40.541 34.2527
0.686341 40.670 34.3772
0.691314 40.801 34.4927
0.696324 40.932 34.5995
0.701370 41.064 34.6975
0.706452 41.197 34.7870
0.711571 41.332 34.8683
0.716728 41.467 34.9421
0.721921 41.603 35.0092
0.727153 41.741 35.0709
0.732422 41.879 35.1288
0.737729 42.019 35.1850
0.743075 42.160 35.2411
0.748460 42.302 35.2985
0.753883 42.446 35.3579
0.759346 42.591 35.4196
0.764849 42.738 35.4836
0.770391 42.886 35.5497
0.775974 43.036 35.6174
0.781597 43.187 35.6864
0.787261 43.340 35.7561
0.792966 43.494 35.8261
0.798712 43.649 35.8960
0.804500 43.806 35.9652
0.810329 43.964 36.0332
0.816201 44.124 36.0998
0.822116 44.285 36.1644
0.828073 44.447 36.2267
0.834074 44.611 36.2862
0.840118 44.776 36.3426
0.846206 44.942 36.3955
0.852338 45.109 36.4445
0.858514 45.278 36.4894
0.864735 45.447 36.5298
0.871001 45.618 36.5654
0.877313 45.790 36.5958
0.883670 45.963 36.6209
0.890074 46.137 36.6403
0.896524 46.312 36.6538
0.903020 46.488 36.6611
0.909564 46.665 36.6620
0.916155 46.842 36.6562
0.922794 47.021 36.6436
0.929481 47.200 36.6238
0.936216 47.380 36.5968
0.943000 47.560 36.5622
0.949834 47.741 36.5200
0.956717 47.923 36.4699
0.963649 48.105 36.4119
0.970632 48.288 36.3456
0.977666 48.470 36.2710
0.984750 48.653 36.1879
0.991886 48.837 36.0963
0.999074 49.020 35.9958
1.006314 49.203 35.8866
1.013606 49.387 35.7683
1.020951 49.570 35.6410
1.028349 49.753 35.5045
1.035801 49.935 35.3587
1.043307 50.117 35.2037
1.050867 50.299 35.0395
1.058482 50.480 34.8661
1.066152 50.660 34.6838
1.073878 50.840 34.4930
1.081660 51.019 34.2944
1.089498 51.197 34.0893
1.097393 51.374 33.8790
1.105345 51.551 33.6654
1.113355 51.727 33.4504
1.121423 51.902 33.2352
1.129549 52.077 33.0209
1.137734 52.251 32.8080
1.145979 52.425 32.5965
1.154283 52.599 32.3865
1.162647 52.772 32.1777
1.171072 52.944 31.9699
1.179558 53.116 31.7627
1.188106 53.288 31.5558
1.196715 53.459 31.3488
1.205387 53.630 31.1414
1.214122 53.801 30.9333
1.222920 53.971 30.7242
1.231782 54.141 30.5136
1.240708 54.310 30.3014
1.249699 54.480 30.0871
1.258754 54.648 29.8705
1.267876 54.817 29.6512
1.277063 54.985 29.4291
1.286318 55.153 29.2037
1.295639 55.321 28.9747
1.305027 55.489 28.7420
1.314484 55.657 28.5053
1.324009 55.824 28.2642
1.333604 55.991 28.0185
1.343268 56.159 27.7679
1.353002 56.326 27.5122
1.362806 56.493 27.2511
1.372681 56.660 26.9844
1.382628 56.828 26.7118
1.392647 56.995 26.4332
1.402739 57.163 26.1483
1.412904 57.330 25.8571
1.423142 57.498 25.5595
1.433455 57.666 25.2558
1.443843 57.835 24.9464
1.454305 58.003 24.6320
1.464844 58.171 24.3137
1.475459 58.339 23.9927
1.486150 58.507 23.6703
1.496920 58.674 23.3475
1.507767 58.840 23.0247
1.518693 59.006 22.7024
1.529698 59.171 22.3805
1.540783 59.336 22.0589
1.551948 59.500 21.7372
1.563194 59.663 21.4153
1.574521 59.826 21.0927
1.585931 59.988 20.7692
1.597423 60.149 20.4444
1.608999 60.310 20.1178
1.620658 60.470 19.7892
1.632402 60.630 19.4582
1.644232 60.790 19.1244
1.656146 60.949 18.7875
1.668147 61.107 18.4471
1.680235 61.266 18.1028
1.692411 61.424 17.7544
1.704675 61.581 17.4015
1.717028 61.739 17.0436
1.729470 61.896 16.6806
1.742003 62.053 16.3121
1.754626 62.210 15.9378
1.767341 62.367 15.5574
1.780147 62.524 15.1707
1.793047 62.681 14.7778
1.806040 62.837 14.3786
1.819128 62.994 13.9736
1.832310 63.150 13.5632
1.845587 63.306 13.1483
1.858961 63.462 12.7296
1.872432 63.617 12.3078
1.886001 63.771 11.8835
1.899667 63.924 11.4571
1.913433 64.077 11.0288
1.927299 64.229 10.5987
1.941265 64.380 10.1671
1.955332 64.530 9.7339
1.969501 64.680 9.2992
1.983773 64.829 8.8629
1.998148 64.978 8.4249
2.012627 65.126 7.9852
2.027212 65.273 7.5437
2.041902 65.420 7.1003
2.056698 65.566 6.6549
2.071602 65.712 6.2072
2.086614 65.858 5.7572
2.101734 66.003 5.3046
2.116964 66.148 4.8492
2.132304 66.293 4.3908
2.147756 66.437 3.9293
2.163320 66.581 3.4644
2.178996 66.725 2.9960
2.194786 66.868 2.5241
2.210690 67.011 2.0486
2.226710 67.153 1.5697
2.242845 67.295 1.0877
2.259098 67.435 0.6028
2.275468 67.575 0.1153
2.291957 67.714 -0.3745
2.308566 67.852 -0.8663
2.325295 67.990 -1.3599
2.342145 68.126 -1.8551
2.359117 68.262 -2.3517
2.376212 68.397 -2.8494
2.393431 68.532 -3.3483
2.410775 68.666 -3.8481
2.428244 68.799 -4.3487
2.445840 68.932 -4.8503
2.463564 69.064 -5.3527
2.481416 69.196 -5.8560
2.499397 69.327 -6.3604
2.517509 69.458 -6.8660
2.535752 69.588 -7.3730
2.554127 69.718 -7.8819
2.572635 69.847 -8.3929
2.591277 69.976 -8.9064
2.610055 70.104 -9.4226
2.628968 70.231 -9.9414
2.648019 70.357 -10.4627
2.667208 70.482 -10.9862
2.686535 70.606 -11.5115
2.706003 70.729 -12.0382
2.725612 70.852 -12.5660
2.745363 70.974 -13.0946
2.765257 71.095 -13.6234
2.785295 71.215 -14.1523
2.805478 71.335 -14.6810
2.825808 71.454 -15.2092
2.846285 71.573 -15.7368
2.866910 71.691 -16.2637
2.887685 71.809 -16.7902
2.908611 71.926 -17.3164
2.929688 72.042 -17.8429
2.950917 72.158 -18.3701
2.972301 72.273 -18.8984
2.993839 72.387 -19.4283
3.015534 72.500 -19.9596
3.037386 72.612 -20.4921
3.059396 72.724 -21.0257
3.081565 72.835 -21.5598
3.103896 72.944 -22.0941
3.126388 73.053 -22.6281
3.149043 73.162 -23.1613
3.171862 73.270 -23.6935
3.194847 73.377 -24.2241
3.217998 73.484 -24.7530
3.241317 73.590 -25.2802
3.264805 73.696 -25.8056
3.288463 73.801 -26.3296
3.312293 73.905 -26.8527
3.336295 74.009 -27.3753
3.360471 74.112 -27.8977
3.384822 74.214 -28.4203
3.409350 74.316 -28.9428
3.434056 74.417 -29.4651
3.458940 74.517 -29.9869
3.484005 74.616 -30.5079
3.509252 74.715 -31.0277
3.534681 74.813 -31.5458
3.560295 74.911 -32.0620
3.586094 75.008 -32.5761
3.612081 75.105 -33.0878
3.638255 75.202 -33.5973
3.664620 75.298 -34.1048
3.691175 75.393 -34.6105
3.717923 75.488 -35.1149
3.744864 75.583 -35.6182
3.772001 75.676 -36.1205
3.799335 75.770 -36.6218
3.826866 75.862 -37.1219
3.854597 75.955 -37.6208
3.882529 76.046 -38.1181
3.910664 76.138 -38.6137
3.939002 76.229 -39.1073
3.967546 76.320 -39.5990
3.996296 76.411 -40.0886
4.025255 76.501 -40.5762
4.054423 76.591 -41.0620
4.083804 76.681 -41.5461
4.113396 76.770 -42.0288
4.143204 76.859 -42.5102
4.173227 76.947 -42.9905
4.203468 77.036 -43.4695
4.233928 77.124 -43.9475
4.264609 77.211 -44.4243
4.295512 77.299 -44.9000
4.326639 77.386 -45.3746
4.357992 77.473 -45.8480
4.389572 77.560 -46.3203
4.421380 77.647 -46.7917
4.453419 77.734 -47.2622
4.485691 77.820 -47.7319
4.518196 77.907 -48.2010
4.550936 77.993 -48.6696
4.583914 78.078 -49.1378
4.617131 78.164 -49.6057
4.650589 78.250 -50.0734
4.684289 78.335 -50.5411
4.718233 78.420 -51.0087
4.752424 78.505 -51.4765
4.786862 78.590 -51.9445
4.821549 78.675 -52.4128
4.856488 78.759 -52.8814
4.891680 78.843 -53.3503
4.927127 78.927 -53.8198
4.962831 79.011 -54.2898
4.998794 79.095 -54.7604
5.035017 79.178 -55.2318
5.071503 79.261 -55.7040
5.108253 79.344 -56.1772
5.145270 79.427 -56.6515
5.182555 79.509 -57.1270
5.220110 79.591 -57.6037
5.257937 79.673 -58.0816
5.296038 79.755 -58.5607
5.334415 79.836 -59.0408
5.373071 79.917 -59.5220
5.412006 79.997 -60.0042
5.451224 80.077 -60.4876
5.490725 80.157 -60.9722
5.530514 80.236 -61.4581
5.570590 80.315 -61.9453
5.610957 80.393 -62.4339
5.651616 80.471 -62.9236
5.692570 80.548 -63.4144
5.733821 80.625 -63.9060
5.775370 80.701 -64.3982
5.817221 80.777 -64.8911
5.859375 80.852 -65.3845
5.901834 80.927 -65.8786
5.944602 81.001 -66.3735
5.987679 81.075 -66.8689
6.031068 81.148 -67.3649
6.074771 81.220 -67.8610
6.118792 81.292 -68.3570
6.163131 81.363 -68.8527
6.207792 81.434 -69.3480
6.252776 81.504 -69.8429
6.298086 81.573 -70.3374
6.343725 81.642 -70.8314
6.389694 81.711 -71.3250
6.435996 81.778 -71.8177
6.482634 81.846 -72.3095
6.529610 81.912 -72.8000
6.576926 81.978 -73.2891
6.624585 82.044 -73.7769
6.672590 82.109 -74.2632
6.720942 82.174 -74.7483
6.769645 82.238 -75.2319
6.818700 82.302 -75.7141
6.868111 82.365 -76.1946
6.917881 82.428 -76.6735
6.968010 82.491 -77.1506
7.018504 82.553 -77.6261
7.069362 82.615 -78.0999
7.120590 82.677 -78.5723
7.172189 82.738 -79.0432
7.224161 82.799 -79.5127
7.276511 82.860 -79.9809
7.329239 82.921 -80.4478
7.382350 82.981 -80.9136
7.435845 83.041 -81.3783
7.489729 83.101 -81.8421
7.544002 83.161 -82.3050
7.598669 83.220 -82.7674
7.653732 83.279 -83.2292
7.709194 83.338 -83.6907
7.765058 83.397 -84.1518
7.821327 83.455 -84.6128
7.878004 83.514 -85.0735
7.935091 83.571 -85.5341
7.992592 83.629 -85.9946
8.050510 83.686 -86.4551
8.108847 83.742 -86.9155
8.167607 83.798 -87.3758
8.226793 83.854 -87.8359
8.286408 83.909 -88.2956
8.346454 83.964 -88.7546
8.406936 84.018 -89.2128
8.467856 84.071 -89.6699
8.529218 84.124 -90.1259
8.591024 84.176 -90.5803
8.653278 84.228 -91.0328
8.715983 84.278 -91.4829
8.779143 84.329 -91.9302
8.842760 84.378 -92.3744
8.906839 84.427 -92.8152
8.971381 84.476 -93.2523
9.036392 84.524 -93.6852
9.101873 84.571 -94.1135
9.167829 84.618 -94.5370
9.234263 84.665 -94.9553
9.301178 84.712 -95.3685
9.368578 84.758 -95.7765
9.436467 84.805 -96.1792
9.504847 84.851 -96.5768
9.573723 84.898 -96.9693
9.643099 84.945 -97.3570
9.712976 84.992 -97.7403
9.783361 85.040 -98.1200
9.854255 85.089 -98.4967
9.925663 85.138 -98.8708
9.997588 85.187 -99.2433
10.070035 85.238 -99.6149
10.143007 85.289 -99.9867
10.216507 85.340 -100.3597
10.290540 85.393 -100.7348
10.365109 85.446 -101.1129
10.440219 85.499 -101.4949
10.515873 85.553 -101.8815
10.592076 85.607 -102.2736
10.668830 85.661 -102.6718
10.746141 85.715 -103.0765
10.824012 85.769 -103.4880
10.902447 85.822 -103.9062
10.981451 85.875 -104.3311
11.061027 85.927 -104.7626
11.141180 85.977 -105.2000
11.221913 86.027 -105.6427
11.303232 86.075 -106.0897
11.385140 86.121 -106.5400
11.467641 86.166 -106.9925
11.550741 86.210 -107.4459
11.634442 86.251 -107.8989
11.718750 86.291 -108.3500
11.803669 86.330 -108.7978
11.889203 86.366 -109.2412
11.975357 86.401 -109.6788
12.062136 86.435 -110.1096
12.149543 86.468 -110.5326
12.237583 86.500 -110.9472
12.326262 86.531 -111.3529
12.415583 86.562 -111.7496
12.505552 86.592 -112.1372
12.596172 86.622 -112.5163
12.687449 86.653 -112.8874
12.779387 86.684 -113.2514
12.871992 86.715 -113.6095
12.965268 86.747 -113.9628
13.059220 86.780 -114.3128
13.153852 86.814 -114.6609
13.249170 86.848 -115.0086
13.345179 86.883 -115.3571
13.441884 86.919 -115.7078
13.539289 86.954 -116.0617
13.637401 86.991 -116.4197
13.736223 87.027 -116.7823
13.835761 87.063 -117.1499
13.936021 87.098 -117.5224
14.037007 87.133 -117.8996
14.138725 87.168 -118.2810
14.241180 87.201 -118.6659
14.344377 87.234 -119.0533
14.448323 87.265 -119.4422
14.553021 87.295 -119.8315
14.658478 87.324 -120.2199
14.764700 87.352 -120.6065
14.871691 87.379 -120.9901
14.979457 87.405 -121.3697
15.088005 87.430 -121.7446
15.197339 87.455 -122.1143
15.307465 87.479 -122.4783
15.418389 87.502 -122.8364
15.530117 87.526 -123.1888
15.642655 87.550 -123.5356
15.756008 87.574 -123.8773
15.870182 87.598 -124.2145
15.985184 87.622 -124.5479
16.101019 87.647 -124.8783
16.217694 87.673 -125.2066
16.335214 87.699 -125.5337
16.453586 87.726 -125.8605
16.572815 87.753 -126.1878
16.692909 87.780 -126.5162
16.813872 87.808 -126.8465
16.935713 87.836 -127.1789
17.058436 87.864 -127.5138
17.182048 87.892 -127.8511
17.306556 87.920 -128.1906
17.431967 87.947 -128.5320
17.558286 87.974 -128.8745
17.685521 88.001 -129.2176
17.813677 88.027 -129.5604
17.942762 88.052 -129.9021
18.072783 88.078 -130.2418
18.203746 88.102 -130.5790
18.335658 88.127 -130.9133
18.468526 88.152 -131.2447
18.602356 88.176 -131.5733
18.737156 88.201 -131.8999
18.872934 88.227 -132.2252
19.009695 88.252 -132.5503
19.147447 88.278 -132.8764
19.286197 88.304 -133.2046
19.425953 88.330 -133.5357
19.566721 88.355 -133.8700
19.708510 88.380 -134.2075
19.851326 88.404 -134.5474
19.995177 88.428 -134.8882
20.140070 88.449 -135.2281
20.286013 88.470 -135.5649
20.433014 88.489 -135.8961
20.581080 88.508 -136.2197
20.730219 88.525 -136.5342
20.880439 88.543 -136.8388
21.031747 88.561 -137.1340
21.184152 88.580 -137.4214
21.337661 88.601 -137.7039
21.492282 88.623 -137.9853
21.648024 88.646 -138.2697
21.804895 88.671 -138.5614
21.962902 88.697 -138.8641
22.122054 88.722 -139.1803
22.282360 88.747 -139.5106
22.443827 88.770 -139.8540
22.606464 88.791 -140.2076
22.770280 88.809 -140.5666
22.935283 88.824 -140.9253
23.101481 88.835 -141.2774
23.268884 88.844 -141.6170
23.437500 88.850 -141.9395
23.607338 88.856 -142.2420
23.778406 88.861 -142.5241
23.950714 88.868 -142.7879
24.124271 88.877 -143.0375
24.299086 88.888 -143.2787
24.475167 88.901 -143.5180
24.652524 88.918 -143.7616
24.831166 88.935 -144.0142
25.011103 88.954 -144.2787
25.192344 88.973 -144.5557
25.374898 88.991 -144.8435
25.558775 89.007 -145.1389
25.743984 89.022 -145.4375
25.930536 89.035 -145.7350
26.118439 89.047 -146.0278
26.307704 89.058 -146.3138
26.498341 89.069 -146.5925
26.690359 89.081 -146.8651
26.883768 89.093 -147.1337
27.078579 89.106 -147.4012
27.274801 89.120 -147.6699
27.472446 89.134 -147.9417
27.671522 89.148 -148.2168
27.872042 89.161 -148.4947
28.074014 89.174 -148.7737
28.277450 89.185 -149.0519
28.482360 89.197 -149.3275
28.688755 89.207 -149.5992
28.896645 89.218 -149.8669
29.106042 89.229 -150.1311
29.316957 89.240 -150.3932
29.529400 89.251 -150.6547
29.743382 89.263 -150.9169
29.958915 89.274 -151.1808
30.176009 89.286 -151.4467
30.394677 89.296 -151.7143
30.614929 89.307 -151.9832
30.836778 89.317 -152.2526
31.060234 89.326 -152.5220
31.285309 89.334 -152.7910
31.512015 89.342 -153.0589
31.740364 89.349 -153.3250
31.970368 89.356 -153.5885
32.202039 89.361 -153.8481
32.435388 89.367 -154.1025
32.670428 89.372 -154.3510
32.907171 89.378 -154.5933
33.145630 89.383 -154.8306
33.385817 89.390 -155.0649
33.627745 89.398 -155.2991
33.871425 89.407 -155.5362
34.116871 89.416 -155.7787
34.364096 89.426 -156.0276
34.613113 89.435 -156.2826
34.863934 89.443 -156.5416
35.116572 89.450 -156.8015
35.371041 89.456 -157.0589
35.627354 89.461 -157.3113
35.885525 89.466 -157.5574
36.145566 89.471 -157.7975
36.407492 89.476 -158.0332
36.671316 89.482 -158.2665
36.937051 89.488 -158.4995
37.204712 89.495 -158.7332
37.474313 89.501 -158.9677
37.745867 89.507 -159.2021
38.019389 89.512 -159.4352
38.294893 89.517 -159.6659
38.572394 89.522 -159.8939
38.851905 89.526 -160.1194
39.133442 89.530 -160.3425
39.417019 89.534 -160.5633
39.702651 89.537 -160.7811
39.990353 89.540 -160.9947
40.280140 89.543 -161.2031
40.572026 89.546 -161.4061
40.866028 89.550 -161.6046
41.162160 89.554 -161.8013
41.460438 89.559 -161.9994
41.760877 89.565 -162.2015
42.063494 89.572 -162.4090
42.368303 89.578 -162.6214
42.675322 89.584 -162.8372
42.984565 89.589 -163.0547
43.296048 89.595 -163.2737
43.609789 89.600 -163.4952
43.925804 89.606 -163.7217
44.244108 89.612 -163.9551
44.564719 89.617 -164.1957
44.887654 89.621 -164.4409
45.212928 89.623 -164.6863
45.540560 89.624 -164.9268
45.870565 89.624 -165.1589
46.202962 89.624 -165.3813
46.537768 89.625 -165.5959
46.875000 89.626 -165.8062
47.214676 89.629 -166.0160
47.556813 89.633 -166.2281
47.901429 89.637 -166.4440
48.248542 89.641 -166.6633
48.598171 89.645 -166.8851
48.950334 89.648 -167.1075
49.305048 89.651 -167.3290
49.662333 89.653 -167.5479
50.022206 89.655 -167.7633
50.384688 89.657 -167.9751
50.749796 89.658 -168.1837
51.117550 89.660 -168.3900
51.487969 89.661 -168.5944
51.861072 89.662 -168.7970
52.236879 89.663 -168.9977
52.615409 89.663 -169.1965
52.996681 89.663 -169.3939
53.380717 89.663 -169.5902
53.767536 89.661 -169.7854
54.157158 89.659 -169.9790
54.549603 89.657 -170.1707
54.944892 89.654 -170.3612
55.343045 89.652 -170.5520
55.744084 89.649 -170.7451
56.148028 89.647 -170.9425
56.554900 89.645 -171.1454
56.964720 89.643 -171.3549
57.377510 89.641 -171.5717
57.793291 89.638 -171.7959
58.212085 89.635 -172.0259
58.633914 89.631 -172.2577
59.058799 89.626 -172.4861
59.486764 89.622 -172.7068
59.917829 89.618 -172.9185
60.352019 89.615 -173.1230
60.789354 89.614 -173.3242
61.229859 89.614 -173.5259
61.673556 89.614 -173.7292
62.120468 89.614 -173.9312
62.570618 89.612 -174.1253
63.024031 89.610 -174.3053
63.480729 89.608 -174.4706
63.940736 89.607 -174.6291
64.404077 89.609 -174.7952
64.870776 89.609 -174.9798
65.340856 89.607 -175.1821
65.814343 89.601 -175.3900
66.291261 89.591 -175.5899
66.771635 89.581 -175.7792
67.255489 89.572 -175.9685
67.742850 89.563 -176.1715
68.233743 89.554 -176.3927
68.728193 89.542 -176.6232
69.226226 89.529 -176.8486
69.727867 89.516 -177.0599
70.233144 89.505 -177.2563
70.742083 89.498 -177.4404
71.254709 89.493 -177.6136
71.771050 89.492 -177.7767
72.291132 89.496 -177.9356
72.814984 89.503 -178.1017
73.342631 89.512 -178.2869
73.874102 89.519 -178.4956
74.409424 89.520 -178.7184
74.948626 89.514 -178.9345
75.491734 89.500 -179.1197
76.038779 89.480 -179.2583
76.589787 89.459 -179.3495
77.144788 89.439 -179.4053
77.703811 89.421 -179.4439
78.266885 89.407 -179.4852
78.834039 89.398 -179.5500
79.405303 89.391 -179.6584
79.980706 89.385 -179.8214
80.560280 89.377 179.9669
81.144053 89.365 179.7268
81.732056 89.349 179.4818
82.324320 89.332 179.2479
82.920876 89.315 179.0322
83.521755 89.302 178.8359
84.126988 89.292 178.6553
84.736607 89.287 178.4810
85.350643 89.285 178.3006
85.969129 89.285 178.1050
86.592097 89.284 177.8924
87.219579 89.279 177.6694
87.851608 89.270 177.4484
88.488217 89.256 177.2427
89.129439 89.240 177.0584
89.775308 89.224 176.8904
90.425856 89.208 176.7271
91.081119 89.192 176.5577
91.741131 89.177 176.3766
92.405925 89.162 176.1827
93.075536 89.145 175.9796
93.750000 89.128 175.7737
94.429351 89.109 175.5717
95.113625 89.089 175.3785
95.802858 89.069 175.1975
96.497085 89.049 175.0310
97.196342 89.028 174.8793
97.900667 89.007 174.7400
98.610096 88.985 174.6088
99.324665 88.962 174.4819
100.044413 88.937 174.3568
100.769376 88.910 174.2328
101.499592 88.881 174.1099
102.235100 88.851 173.9878
102.975938 88.820 173.8649
103.722144 88.789 173.7411
104.473757 88.759 173.6200
105.230817 88.729 173.5077
105.993363 88.700 173.4138
106.761435 88.671 173.3490
107.535072 88.645 173.3185
108.314315 88.622 173.3184
109.099206 88.603 173.3372
109.889783 88.586 173.3577
110.686090 88.571 173.3620
111.488167 88.554 173.3410
112.296056 88.536 173.2970
113.109800 88.516 173.2375
113.929440 88.495 173.1698
114.755020 88.475 173.0961
115.586582 88.458 173.0176
116.424170 88.443 172.9437
117.267827 88.431 172.8892
118.117598 88.423 172.8672
118.973527 88.420 172.8832
119.835658 88.424 172.9269
120.704037 88.433 172.9730
121.578708 88.445 173.0011
122.459718 88.453 173.0064
123.347111 88.454 172.9933
124.240935 88.445 172.9736
125.141236 88.424 172.9717
126.048061 88.393 173.0126
126.961458 88.360 173.1025
127.881473 88.333 173.2134
128.808154 88.317 173.2756
129.741551 88.313 173.2076
130.681712 88.311 172.9781
131.628686 88.303 172.6457
132.582521 88.290 172.3234
133.543269 88.283 172.0744
134.510979 88.292 171.8715
135.485701 88.314 171.6649
136.467486 88.343 171.4345
137.456386 88.370 171.1832
138.452451 88.389 170.9233
139.455735 88.395 170.6714
140.466288 88.391 170.4425
141.484165 88.378 170.2399
142.509418 88.363 170.0541
143.542100 88.347 169.8722
144.582265 88.332 169.6870
145.629968 88.317 169.5005
146.685262 88.302 169.3185
147.748204 88.286 169.1444
148.818849 88.269 168.9791
149.897251 88.250 168.8215
150.983469 88.232 168.6689
152.077557 88.212 168.5181
153.179574 88.192 168.3685
154.289576 88.171 168.2228
155.407622 88.150 168.0839
156.533770 88.127 167.9523
157.668078 88.105 167.8251
158.810606 88.081 167.6982
159.961413 88.057 167.5685
161.120559 88.033 167.4367
162.288105 88.009 167.3069
163.464112 87.985 167.1846
164.648640 87.961 167.0739
165.841752 87.939 166.9749
167.043510 87.917 166.8840
168.253976 87.895 166.7977
169.473213 87.873 166.7160
170.701286 87.850 166.6427
171.938258 87.828 166.5806
173.184194 87.806 166.5235
174.439158 87.786 166.4554
175.703216 87.767 166.3551
176.976434 87.744 166.2096
178.258878 87.716 166.0265
179.550615 87.682 165.8307
180.851713 87.642 165.6506
182.162239 87.601 165.5027
183.482262 87.560 165.3889
184.811850 87.522 165.3026
186.151073 87.486 165.2352
187.500000 87.452 165.1779
188.858702 87.421 165.1205
190.227250 87.392 165.0525
191.605715 87.365 164.9658
192.994169 87.338 164.8618
194.392685 87.309 164.7556
195.801334 87.278 164.6666
197.220191 87.248 164.6064
198.649330 87.219 164.5741
200.088825 87.193 164.5590
201.538751 87.173 164.5471
202.999184 87.155 164.5351
204.470200 87.139 164.5314
205.951875 87.122 164.5457
207.444287 87.105 164.5785
208.947514 87.087 164.6226
210.461634 87.068 164.6677
211.986726 87.048 164.7053
213.522869 87.028 164.7321
215.070144 87.008 164.7474
216.628631 86.988 164.7498
218.198411 86.969 164.7340
219.779567 86.948 164.6933
221.372180 86.925 164.6285
222.976334 86.899 164.5503
224.592112 86.871 164.4708
226.219600 86.841 164.3982
227.858880 86.811 164.3359
229.510039 86.781 164.2837
231.173164 86.751 164.2391
232.848340 86.721 164.2002
234.535655 86.691 164.1673
236.235197 86.661 164.1415
237.947054 86.631 164.1227
239.671317 86.601 164.1087
241.408074 86.571 164.0960
243.157416 86.540 164.0814
244.919435 86.509 164.0624
246.694223 86.478 164.0388
248.481871 86.446 164.0129
250.282473 86.412 163.9885
252.096123 86.376 163.9710
253.922915 86.339 163.9650
255.762945 86.300 163.9715
257.616309 86.262 163.9879
259.483103 86.225 164.0103
261.363424 86.193 164.0322
263.257372 86.165 164.0450
265.165043 86.142 164.0469
267.086538 86.120 164.0440
269.021957 86.099 164.0443
270.971401 86.076 164.0514
272.934972 86.052 164.0649
274.912771 86.025 164.0840
276.904902 85.997 164.1081
278.911469 85.967 164.1347
280.932577 85.936 164.1614
282.968330 85.904 164.1879
285.018835 85.871 164.2157
287.084199 85.839 164.2459
289.164530 85.808 164.2769
291.259935 85.778 164.3069
293.370525 85.747 164.3365
295.496408 85.717 164.3692
297.637697 85.687 164.4081
299.794503 85.657 164.4538
301.966937 85.626 164.5040
304.155114 85.596 164.5565
306.359147 85.565 164.6110
308.579152 85.535 164.6675
310.815244 85.505 164.7242
313.067539 85.475 164.7786
315.336156 85.446 164.8300
317.621211 85.416 164.8804
319.922826 85.385 164.9332
322.241118 85.353 164.9932
324.576210 85.321 165.0636
326.928223 85.289 165.1457
329.297280 85.259 165.2393
331.683504 85.229 165.3442
334.087019 85.201 165.4590
336.507952 85.173 165.5800
338.946427 85.148 165.6982
341.402572 85.124 165.8022
343.876516 85.100 165.8839
346.368387 85.076 165.9402
348.878315 85.049 165.9758
351.406431 85.019 166.0051
353.952867 84.987 166.0460
356.517756 84.954 166.1091
359.101230 84.921 166.1959
361.703426 84.887 166.3025
364.324478 84.853 166.4222
366.964523 84.819 166.5482
369.623699 84.786 166.6747
372.302145 84.753 166.7977
375.000000 84.722 166.9123
377.717405 84.693 167.0124
380.454501 84.667 167.0934
383.211431 84.643 167.1566
385.988339 84.620 167.2112
388.785369 84.598 167.2729
391.602668 84.573 167.3619
394.440383 84.546 167.4948
397.298660 84.515 167.6683
400.177650 84.484 167.8591
403.077502 84.452 168.0429
405.998368 84.421 168.2080
408.940400 84.391 168.3545
411.903750 84.359 168.4881
414.888575 84.327 168.6151
417.895028 84.294 168.7401
420.923268 84.261 168.8670
423.973452 84.230 169.0010
427.045738 84.204 169.1466
430.140287 84.182 169.3079
433.257261 84.166 169.4867
436.396822 84.151 169.6761
439.559133 84.136 169.8657
442.744360 84.114 170.0499
445.952668 84.087 170.2296
449.184225 84.055 170.4125
452.439199 84.021 170.6090
455.717760 83.989 170.8246
459.020079 83.960 171.0530
462.346327 83.934 171.2796
465.696680 83.910 171.4928
469.071310 83.887 171.6904
472.470394 83.864 171.8782
475.894109 83.840 172.0631
479.342634 83.816 172.2496
482.816148 83.791 172.4405
486.314833 83.765 172.6377
489.838871 83.739 172.8411
493.388445 83.714 173.0485
496.963741 83.689 173.2569
500.564945 83.665 173.4658
504.192245 83.641 173.6780
507.845830 83.618 173.8989
511.525890 83.595 174.1348
515.232618 83.573 174.3897
518.966206 83.553 174.6599
522.726849 83.535 174.9300
526.514743 83.518 175.1782
530.330086 83.500 175.3941
534.173076 83.480 175.5888
538.043915 83.459 175.7802
541.942803 83.437 175.9799
545.869944 83.415 176.1927
549.825542 83.393 176.4187
553.809805 83.371 176.6561
557.822939 83.350 176.9025
561.865154 83.330 177.1561
565.936660 83.310 177.4154
570.037671 83.291 177.6792
574.168399 83.272 177.9454
578.329060 83.254 178.2109
582.519870 83.236 178.4732
586.741049 83.219 178.7327
590.992817 83.202 178.9921
595.275394 83.185 179.2540
599.589005 83.168 179.5204
603.933874 83.152 179.7927
608.310228 83.136 -179.9282
612.718295 83.121 -179.6425
617.158304 83.106 -179.3511
621.630488 83.091 -179.0568
626.135079 83.077 -178.7629
630.672311 83.062 -178.4722
635.242423 83.047 -178.1847
639.845651 83.033 -177.8993
644.482237 83.019 -177.6139
649.152421 83.006 -177.3261
653.856447 82.993 -177.0333
658.594560 82.981 -176.7317
663.367008 82.969 -176.4182
668.174039 82.957 -176.0936
673.015903 82.946 -175.7631
677.892854 82.935 -175.4323
682.805145 82.924 -175.1046
687.753032 82.914 -174.7814
692.736774 82.905 -174.4618
697.756631 82.896 -174.1421
702.812863 82.888 -173.8188
707.905735 82.881 -173.4910
713.035511 82.875 -173.1595
718.202461 82.869 -172.8255
723.406852 82.863 -172.4893
728.648956 82.857 -172.1498
733.929047 82.851 -171.8057
739.247399 82.846 -171.4567
744.604290 82.841 -171.1033
750.000000 82.836 -170.7463
755.434809 82.832 -170.3863
760.909001 82.828 -170.0235
766.422861 82.824 -169.6581
771.976677 82.821 -169.2908
777.570739 82.818 -168.9226
783.205337 82.816 -168.5521
788.880766 82.814 -168.1751
794.597321 82.812 -167.7873
800.355301 82.810 -167.3878
806.155005 82.808 -166.9780
811.996736 82.807 -166.5591
817.880799 82.806 -166.1319
823.807501 82.806 -165.6971
829.777150 82.807 -165.2565
835.790057 82.808 -164.8130
841.846536 82.810 -164.3696
847.946903 82.814 -163.9272
854.091476 82.818 -163.4837
860.280575 82.824 -163.0324
866.514523 82.831 -162.5646
872.793644 82.840 -162.0743
879.118267 82.852 -161.5605
885.488720 82.867 -161.0252
891.905336 82.885 -160.4734
898.368450 82.907 -159.9142
904.878398 82.931 -159.3582
911.435520 82.958 -158.8136
918.040157 82.986 -158.2825
924.692655 83.017 -157.7622
931.393359 83.051 -157.2482
938.142619 83.087 -156.7380
944.940787 83.126 -156.2321
951.788218 83.167 -155.7317
958.685268 83.211 -155.2381
965.632296 83.257 -154.7528
972.629666 83.305 -154.2768
979.677741 83.356 -153.8097
986.776890 83.409 -153.3514
993.927482 83.463 -152.9022
1001.129891 83.520 -152.4620
1008.384491 83.578 -152.0305
1015.691660 83.637 -151.6067
1023.051781 83.699 -151.1909
1030.465236 83.762 -150.7851
1037.932411 83.828 -150.3923
1045.453698 83.894 -150.0154
1053.029486 83.960 -149.6555
1060.660172 84.025 -149.3100
1068.346153 84.089 -148.9745
1076.087829 84.153 -148.6475
1083.885605 84.218 -148.3305
1091.739887 84.284 -148.0261
1099.651084 84.350 -147.7356
1107.619609 84.417 -147.4585
1115.645878 84.485 -147.1936
1123.730308 84.553 -146.9394
1131.873321 84.622 -146.6944
1140.075341 84.691 -146.4579
1148.336797 84.761 -146.2302
1156.658119 84.831 -146.0120
1165.039741 84.900 -145.8030
1173.482099 84.970 -145.6015
1181.985634 85.040 -145.4052
1190.550789 85.109 -145.2133
1199.178011 85.177 -145.0270
1207.867749 85.246 -144.8475
1216.620457 85.315 -144.6750
1225.436590 85.383 -144.5086
1234.316609 85.451 -144.3476
1243.260976 85.519 -144.1921
1252.270157 85.586 -144.0423
1261.344623 85.653 -143.8988
1270.484846 85.720 -143.7624
1279.691303 85.786 -143.6334
1288.964474 85.853 -143.5109
1298.304842 85.920 -143.3931
1307.712894 85.988 -143.2780
1317.189120 86.055 -143.1647
1326.734016 86.123 -143.0531
1336.348077 86.190 -142.9436
1346.031806 86.258 -142.8369
1355.785708 86.326 -142.7337
1365.610290 86.394 -142.6351
1375.506065 86.462 -142.5425
1385.473549 86.530 -142.4573
1395.513261 86.598 -142.3808
1405.625726 86.667 -142.3138
1415.811469 86.736 -142.2559
1426.071023 86.806 -142.2061
1436.404921 86.875 -142.1631
1446.813703 86.945 -142.1264
1457.297912 87.015 -142.0960
1467.858093 87.085 -142.0719
1478.494798 87.154 -142.0544
1489.208581 87.223 -142.0436
1500.000000 87.292 -142.0399
1510.869618 87.361 -142.0434
1521.818002 87.428 -142.0540
1532.845723 87.495 -142.0707
1543.953355 87.561 -142.0929
1555.141477 87.627 -142.1203
1566.410674 87.693 -142.1536
1577.761531 87.758 -142.1930
1589.194642 87.822 -142.2378
1600.710601 87.886 -142.2867
1612.310010 87.949 -142.3385
1623.993473 88.011 -142.3922
1635.761599 88.072 -142.4474
1647.615002 88.133 -142.5042
1659.554299 88.193 -142.5626
1671.580114 88.252 -142.6224
1683.693072 88.311 -142.6832
1695.893807 88.370 -142.7445
1708.182952 88.428 -142.8058
1720.561150 88.487 -142.8670
1733.029045 88.545 -142.9281
1745.587288 88.602 -142.9890
1758.236533 88.660 -143.0496
1770.977440 88.718 -143.1097
1783.810673 88.775 -143.1694
1796.736900 88.833 -143.2288
1809.756796 88.890 -143.2885
1822.871040 88.948 -143.3484
1836.080315 89.006 -143.4086
1849.385310 89.065 -143.4690
1862.786718 89.123 -143.5298
1876.285239 89.182 -143.5917
1889.881575 89.242 -143.6551
1903.576436 89.302 -143.7206
1917.370535 89.362 -143.7882
1931.264593 89.423 -143.8582
1945.259332 89.485 -143.9305
1959.355483 89.547 -144.0056
1973.553781 89.610 -144.0841
1987.854965 89.673 -144.1670
2002.259781 89.738 -144.2553
2016.768981 89.803 -144.3497
2031.383320 89.868 -144.4509
2046.103561 89.933 -144.5588
2060.930471 89.999 -144.6734
2075.864823 90.065 -144.7946
2090.907395 90.131 -144.9224
2106.058972 90.198 -145.0567
2121.320344 90.265 -145.1975
2136.692305 90.332 -145.3448
2152.175658 90.399 -145.4989
2167.771210 90.466 -145.6600
2183.479774 90.533 -145.8285
2199.302169 90.601 -146.0048
2215.239219 90.668 -146.1890
2231.291755 90.736 -146.3813
2247.460615 90.804 -146.5821
2263.746641 90.872 -146.7915
2280.150683 90.940 -147.0099
2296.673595 91.007 -147.2373
2313.316238 91.075 -147.4739
2330.079481 91.142 -147.7199
2346.964198 91.210 -147.9756
2363.971268 91.277 -148.2413
2381.101578 91.344 -148.5173
2398.356022 91.410 -148.8037
2415.735498 91.476 -149.1008
2433.240913 91.542 -149.4087
2450.873180 91.606 -149.7275
2468.633217 91.670 -150.0574
2486.521951 91.733 -150.3983
2504.540314 91.795 -150.7500
2522.689246 91.856 -151.1124
2540.969692 91.916 -151.4853
2559.382606 91.975 -151.8686
2577.928947 92.033 -152.2620
2596.609683 92.089 -152.6653
2615.425787 92.144 -153.0783
2634.378241 92.198 -153.5006
2653.468031 92.250 -153.9321
2672.696154 92.300 -154.3724
2692.063613 92.349 -154.8213
2711.571415 92.397 -155.2785
2731.220579 92.442 -155.7437
2751.012130 92.486 -156.2165
2770.947098 92.528 -156.6965
2791.026522 92.567 -157.1835
2811.251451 92.605 -157.6770
2831.622938 92.641 -158.1767
2852.142045 92.675 -158.6819
2872.809842 92.706 -159.1923
2893.627406 92.736 -159.7072
2914.595823 92.763 -160.2258
2935.716186 92.788 -160.7476
2956.989596 92.810 -161.2720
2978.417161 92.830 -161.7985
3000.000000 92.848 -162.3264
3021.739237 92.864 -162.8552
3043.636005 92.877 -163.3840
3065.691446 92.888 -163.9122
3087.906710 92.897 -164.4390
3110.282955 92.903 -164.9637
3132.821347 92.907 -165.4853
3155.523062 92.908 -166.0030
3178.389283 92.907 -166.5158
3201.421202 92.904 -167.0226
3224.620020 92.899 -167.5223
3247.986946 92.891 -168.0138
3271.523198 92.882 -168.4961
3295.230004 92.871 -168.9683
3319.108599 92.858 -169.4296
3343.160228 92.845 -169.8794
3367.386145 92.830 -170.3174
3391.787613 92.816 -170.7445
3416.365904 92.801 -171.1621
3441.122300 92.786 -171.5728
3466.058091 92.773 -171.9803
3491.174576 92.760 -172.3887
3516.473066 92.748 -172.8029
3541.954880 92.735 -173.2270
3567.621345 92.723 -173.6640
3593.473800 92.709 -174.1149
3619.513592 92.692 -174.5787
3645.742080 92.672 -175.0519
3672.160630 92.648 -175.5296
3698.770620 92.621 -176.0060
3725.573436 92.589 -176.4756
3752.570477 92.554 -176.9336
3779.763150 92.515 -177.3764
3807.152872 92.474 -177.8018
3834.741071 92.431 -178.2092
3862.529185 92.386 -178.5989
3890.518664 92.340 -178.9721
3918.710966 92.294 -179.3300
3947.107561 92.246 -179.6742
3975.709929 92.199 179.9940
4004.519563 92.150 179.6736
4033.537962 92.102 179.3635
4062.766641 92.053 179.0627
4092.207123 92.004 178.7703
4121.860942 91.955 178.4852
4151.729646 91.906 178.2062
4181.814790 91.856 177.9323
4212.117944 91.806 177.6625
4242.640687 91.756 177.3963
4273.384610 91.704 177.1336
4304.351317 91.652 176.8743
4335.542421 91.599 176.6186
4366.959549 91.545 176.3668
4398.604338 91.489 176.1196
4430.478438 91.432 175.8776
4462.583511 91.374 175.6417
4494.921231 91.314 175.4128
4527.493283 91.253 175.1920
4560.301365 91.190 174.9802
4593.347189 91.126 174.7783
4626.632476 91.061 174.5869
4660.158962 90.995 174.4063
4693.928395 90.928 174.2368
4727.942535 90.860 174.0785
4762.203156 90.791 173.9312
4796.712043 90.722 173.7949
4831.470996 90.651 173.6700
4866.481826 90.580 173.5571
4901.746360 90.508 173.4572
4937.266434 90.436 173.3713
4973.043902 90.363 173.3010
5009.080628 90.289 173.2474
5045.378492 90.215 173.2114
5081.939384 90.141 173.1932
5118.765212 90.068 173.1926
5155.857894 89.995 173.2089
5193.219366 89.923 173.2407
5230.851574 89.853 173.2866
5268.756481 89.783 173.3454
5306.936062 89.714 173.4163
5345.392309 89.646 173.4989
5384.127225 89.578 173.5936
5423.142830 89.511 173.7015
5462.441159 89.444 173.8241
5502.024259 89.378 173.9631
5541.894195 89.313 174.1202
5582.053045 89.249 174.2968
5622.502902 89.186 174.4938
5663.245876 89.124 174.7115
5704.284090 89.065 174.9497
5745.619684 89.008 175.2078
5787.254813 88.954 175.4849
5829.191647 88.903 175.7799
5871.432373 88.855 176.0918
5913.979192 88.809 176.4196
5956.834323 88.767 176.7623
6000.000000 88.729 177.1193
6043.478473 88.694 177.4900
6087.272010 88.662 177.8741
6131.382892 88.635 178.2712
6175.813420 88.611 178.6815
6220.565910 88.593 179.1049
6265.642695 88.578 179.5416
6311.046124 88.569 179.9918
6356.778566 88.565 -179.5448
6402.842404 88.567 -179.0686
6449.240040 88.576 -178.5808
6495.973891 88.593 -178.0836
6543.046396 88.618 -177.5803
6590.460007 88.651 -177.0753
6638.217197 88.695 -176.5738
6686.320456 88.748 -176.0819
6734.772290 88.812 -175.6056
6783.575226 88.887 -175.1509
6832.731809 88.972 -174.7239
6882.244600 89.070 -174.3307
6932.116181 89.178 -173.9777
6982.349153 89.299 -173.6722
7032.946133 89.432 -173.4228
7083.909760 89.577 -173.2396
7135.242690 89.735 -173.1344
7186.947600 89.906 -173.1210
7239.027185 90.089 -173.2145
7291.484160 90.284 -173.4315
7344.321260 90.488 -173.7889
7397.541239 90.702 -174.3040
7451.146872 90.921 -174.9939
7505.140954 91.144 -175.8749
7559.526299 91.366 -176.9622
7614.305743 91.585 -178.2683
7669.482141 91.795 -179.8026
7725.058371 91.990 178.4301
7781.037328 92.165 176.4313
7837.421932 92.314 174.2097
7894.215122 92.429 171.7828
7951.419859 92.506 169.1767
8009.039125 92.539 166.4265
8067.075924 92.523 163.5752
8125.533282 92.455 160.6722
8184.414245 92.334 157.7706
8243.721885 92.161 154.9244
8303.459292 91.935 152.1862
8363.629581 91.662 149.6035
8424.235888 91.346 147.2177
8485.281374 90.992 145.0613
8546.769221 90.607 143.1583
8608.702634 90.196 141.5235
8671.084842 89.767 140.1633
8733.919097 89.326 139.0767
8797.208675 88.878 138.2563
8860.956876 88.427 137.6901
8925.167022 87.978 137.3630
8989.842461 87.534 137.2581
9054.986566 87.098 137.3580
9120.602731 86.671 137.6459
9186.694378 86.254 138.1058
9253.264952 85.849 138.7231
9320.317925 85.456 139.4843
9387.856790 85.076 140.3768
9455.885071 84.708 141.3889
9524.406312 84.354 142.5095
9593.424086 84.013 143.7284
9662.941992 83.686 145.0358
9732.963653 83.373 146.4225
9803.492719 83.072 147.8796
9874.532869 82.785 149.3989
9946.087805 82.511 150.9728
10018.161257 82.250 152.5944
10090.756983 82.000 154.2572
10163.878768 81.763 155.9556
10237.530423 81.538 157.6844
10311.715789 81.324 159.4396
10386.438732 81.121 161.2177
10461.703149 80.928 163.0163
10537.512962 80.745 164.8333
10613.872125 80.572 166.6672
10690.784618 80.408 168.5169
10768.254450 80.253 170.3818
10846.285661 80.106 172.2624
10924.882318 79.968 174.1596
11004.048518 79.839 176.0749
11083.788390 79.718 178.0096
11164.106090 79.606 179.9649
11245.005805 79.503 -178.0579
11326.491752 79.411 -176.0580
11408.568180 79.330 -174.0343
11491.239368 79.261 -171.9871
11574.509626 79.205 -169.9176
11658.383294 79.163 -167.8288
11742.864745 79.138 -165.7253
11827.958384 79.130 -163.6126
11913.668646 79.141 -161.4971
12000.000000 79.171 -159.3859
12086.956947 79.223 -157.2868
12174.544019 79.297 -155.2082
12262.765784 79.395 -153.1592
12351.626840 79.517 -151.1503
12441.131819 79.665 -149.1934
12531.285389 79.839 -147.3023
12622.092249 80.042 -145.4927
12713.557132 80.274 -143.7833
12805.684808 80.535 -142.1960
12898.480079 80.827 -140.7562
12991.947783 81.148 -139.4932
13086.092792 81.498 -138.4394
13180.920015 81.874 -137.6296
13276.434395 82.275 -137.0992
13372.640911 82.694 -136.8828
13469.544580 83.126 -137.0119
13567.150452 83.563 -137.5119
13665.463617 83.996 -138.3991
13764.489200 84.416 -139.6780
13864.232362 84.811 -141.3389
13964.698305 85.171 -143.3555
14065.892266 85.487 -145.6853
14167.819519 85.751 -148.2706
14270.485380 85.955 -151.0421
14373.895200 86.098 -153.9227
14478.054370 86.178 -156.8331
14582.968320 86.197 -159.6961
14688.642520 86.160 -162.4419
14795.082478 86.075 -165.0121
14902.293745 85.949 -167.3638
15010.281908 85.793 -169.4713
15119.052599 85.616 -171.3270
15228.611486 85.427 -172.9398
15338.964283 85.234 -174.3325
15450.116741 85.043 -175.5377
15562.074656 84.859 -176.5950
15674.843864 84.682 -177.5464
15788.430244 84.512 -178.4328
15902.839718 84.347 -179.2905
16018.078250 84.184 179.8514
16134.151848 84.018 178.9731
16251.066563 83.843 178.0646
16368.828491 83.656 177.1255
16487.443769 83.452 176.1635
16606.918584 83.228 175.1923
16727.259161 82.982 174.2278
16848.471777 82.713 173.2853
16970.562748 82.423 172.3758
17093.538442 82.113 171.5046
17217.405268 81.784 170.6718
17342.169684 81.435 169.8771
17467.838194 81.066 169.1255
17594.417350 80.677 168.4322
17721.913751 80.268 167.8195
17850.334044 79.843 167.3050
17979.684923 79.407 166.8867
18109.973131 78.967 166.5364
18241.205462 78.525 166.2067
18373.388756 78.083 165.8497
18506.529905 77.633 165.4387
18640.635849 77.170 164.9809
18775.713581 76.686 164.5179
18911.770141 76.177 164.1135
19048.812624 75.643 163.8365
19186.848172 75.092 163.7432
19325.883983 74.535 163.8614
19465.927305 73.991 164.1796
19606.985439 73.485 164.6423
19749.065738 73.052 165.1549
19892.175609 72.729 165.5987
20036.322514 72.557 165.8577
