* Measurement data measured by REW V5.31.3
* Source: Headset (2- CX31993 HIFI AUDIO), MICROPHONE (Master Volume), R, volume: 0.250
* Format: 256k Log Swept Sine, 1 sweep at -12.0 dBFS with no timing reference
* Dated: 10 28, 24 11:21:14 AM
* REW Settings:
*  C-weighting compensation: Off
*  Target level: 75.0 dB
* Note: ; 
* Measurement: Tanchjim Origin L
* Smoothing: 1/12 octave
* Frequency Step: 96 ppo
* Start Frequency: 0.36621094 Hz
*
* Freq(Hz) SPL(dB) Phase(degrees)
0.366211 37.951 8.7708
0.368865 37.972 8.8276
0.371538 38.004 8.9120
0.374230 38.044 9.0166
0.376942 38.088 9.1353
0.379673 38.136 9.2635
0.382424 38.185 9.3982
0.385196 38.236 9.5377
0.387987 38.288 9.6807
0.390798 38.340 9.8269
0.393630 38.393 9.9757
0.396483 38.446 10.1272
0.399356 38.500 10.2811
0.402250 38.554 10.4374
0.405165 38.608 10.5962
0.408101 38.663 10.7573
0.411058 38.718 10.9208
0.414037 38.774 11.0867
0.417037 38.830 11.2548
0.420059 38.886 11.4253
0.423103 38.943 11.5981
0.426169 39.001 11.7732
0.429257 39.058 11.9505
0.432368 39.116 12.1300
0.435501 39.175 12.3118
0.438656 39.234 12.4956
0.441835 39.293 12.6816
0.445037 39.353 12.8697
0.448262 39.413 13.0598
0.451510 39.474 13.2520
0.454782 39.535 13.4461
0.458077 39.597 13.6420
0.461397 39.659 13.8399
0.464740 39.721 14.0395
0.468108 39.784 14.2409
0.471500 39.848 14.4439
0.474917 39.912 14.6485
0.478358 39.976 14.8547
0.481825 40.041 15.0624
0.485316 40.106 15.2714
0.488833 40.172 15.4817
0.492375 40.238 15.6933
0.495943 40.304 15.9060
0.499537 40.372 16.1197
0.503157 40.439 16.3344
0.506803 40.507 16.5499
0.510475 40.576 16.7663
0.514175 40.645 16.9832
0.517900 40.715 17.2007
0.521653 40.785 17.4186
0.525434 40.856 17.6369
0.529241 40.927 17.8554
0.533076 40.998 18.0739
0.536939 41.071 18.2924
0.540830 41.143 18.5108
0.544749 41.217 18.7288
0.548696 41.290 18.9465
0.552673 41.365 19.1635
0.556677 41.440 19.3799
0.560711 41.515 19.5955
0.564774 41.591 19.8101
0.568867 41.667 20.0236
0.572989 41.744 20.2359
0.577141 41.822 20.4467
0.581324 41.900 20.6561
0.585536 41.979 20.8637
0.589779 42.058 21.0696
0.594053 42.138 21.2734
0.598358 42.219 21.4751
0.602694 42.300 21.6746
0.607061 42.381 21.8717
0.611460 42.463 22.0662
0.615891 42.546 22.2580
0.620354 42.630 22.4470
0.624849 42.714 22.6329
0.629377 42.798 22.8158
0.633938 42.884 22.9954
0.638532 42.970 23.1716
0.643159 43.056 23.3443
0.647819 43.143 23.5132
0.652514 43.231 23.6784
0.657242 43.319 23.8397
0.662005 43.408 23.9970
0.666802 43.498 24.1501
0.671634 43.588 24.2989
0.676501 43.679 24.4433
0.681403 43.771 24.5832
0.686341 43.863 24.7186
0.691314 43.956 24.8493
0.696324 44.050 24.9754
0.701370 44.145 25.0966
0.706452 44.240 25.2132
0.711571 44.336 25.3252
0.716728 44.434 25.4329
0.721921 44.533 25.5367
0.727153 44.633 25.6373
0.732422 44.736 25.7357
0.737729 44.841 25.8331
0.743075 44.948 25.9304
0.748460 45.057 26.0284
0.753883 45.169 26.1276
0.759346 45.282 26.2281
0.764849 45.396 26.3300
0.770391 45.512 26.4331
0.775974 45.630 26.5371
0.781597 45.749 26.6418
0.787261 45.870 26.7468
0.792966 45.992 26.8517
0.798712 46.116 26.9564
0.804500 46.241 27.0604
0.810329 46.368 27.1635
0.816201 46.496 27.2653
0.822116 46.625 27.3654
0.828073 46.756 27.4637
0.834074 46.888 27.5599
0.840118 47.022 27.6535
0.846206 47.156 27.7444
0.852338 47.293 27.8322
0.858514 47.430 27.9168
0.864735 47.569 27.9978
0.871001 47.708 28.0749
0.877313 47.850 28.1480
0.883670 47.992 28.2168
0.890074 48.135 28.2810
0.896524 48.280 28.3404
0.903020 48.425 28.3948
0.909564 48.572 28.4440
0.916155 48.719 28.4878
0.922794 48.868 28.5260
0.929481 49.017 28.5583
0.936216 49.167 28.5845
0.943000 49.318 28.6046
0.949834 49.470 28.6183
0.956717 49.622 28.6254
0.963649 49.775 28.6258
0.970632 49.929 28.6193
0.977666 50.083 28.6058
0.984750 50.238 28.5851
0.991886 50.393 28.5570
0.999074 50.548 28.5215
1.006314 50.704 28.4784
1.013606 50.859 28.4276
1.020951 51.015 28.3690
1.028349 51.171 28.3024
1.035801 51.327 28.2278
1.043307 51.483 28.1451
1.050867 51.638 28.0544
1.058482 51.793 27.9556
1.066152 51.948 27.8489
1.073878 52.102 27.7346
1.081660 52.256 27.6133
1.089498 52.410 27.4859
1.097393 52.563 27.3535
1.105345 52.716 27.2176
1.113355 52.869 27.0796
1.121423 53.022 26.9406
1.129549 53.175 26.8014
1.137734 53.328 26.6623
1.145979 53.482 26.5236
1.154283 53.635 26.3850
1.162647 53.789 26.2465
1.171072 53.943 26.1077
1.179558 54.097 25.9685
1.188106 54.251 25.8286
1.196715 54.405 25.6876
1.205387 54.560 25.5454
1.214122 54.714 25.4015
1.222920 54.869 25.2558
1.231782 55.024 25.1080
1.240708 55.179 24.9578
1.249699 55.334 24.8050
1.258754 55.490 24.6492
1.267876 55.645 24.4903
1.277063 55.801 24.3280
1.286318 55.957 24.1620
1.295639 56.113 23.9922
1.305027 56.269 23.8182
1.314484 56.425 23.6400
1.324009 56.581 23.4571
1.333604 56.738 23.2695
1.343268 56.894 23.0769
1.353002 57.051 22.8790
1.362806 57.207 22.6758
1.372681 57.364 22.4669
1.382628 57.521 22.2521
1.392647 57.678 22.0314
1.402739 57.835 21.8046
1.412904 57.992 21.5716
1.423142 58.149 21.3325
1.433455 58.307 21.0873
1.443843 58.464 20.8365
1.454305 58.621 20.5808
1.464844 58.778 20.3211
1.475459 58.935 20.0586
1.486150 59.092 19.7943
1.496920 59.248 19.5292
1.507767 59.404 19.2636
1.518693 59.560 18.9979
1.529698 59.715 18.7320
1.540783 59.870 18.4658
1.551948 60.025 18.1991
1.563194 60.179 17.9315
1.574521 60.333 17.6627
1.585931 60.486 17.3925
1.597423 60.640 17.1205
1.608999 60.793 16.8463
1.620658 60.945 16.5697
1.632402 61.098 16.2903
1.644232 61.250 16.0078
1.656146 61.402 15.7218
1.668147 61.554 15.4321
1.680235 61.705 15.1384
1.692411 61.856 14.8402
1.704675 62.008 14.5374
1.717028 62.159 14.2296
1.729470 62.310 13.9165
1.742003 62.461 13.5978
1.754626 62.612 13.2734
1.767341 62.762 12.9429
1.780147 62.913 12.6063
1.793047 63.064 12.2635
1.806040 63.215 11.9146
1.819128 63.365 11.5601
1.832310 63.516 11.2004
1.845587 63.666 10.8363
1.858961 63.815 10.4686
1.872432 63.965 10.0979
1.886001 64.113 9.7248
1.899667 64.262 9.3495
1.913433 64.409 8.9723
1.927299 64.556 8.5931
1.941265 64.703 8.2122
1.955332 64.848 7.8294
1.969501 64.994 7.4447
1.983773 65.139 7.0581
1.998148 65.283 6.6695
2.012627 65.427 6.2787
2.027212 65.571 5.8857
2.041902 65.714 5.4903
2.056698 65.857 5.0924
2.071602 65.999 4.6919
2.086614 66.142 4.2884
2.101734 66.284 3.8820
2.116964 66.426 3.4723
2.132304 66.567 3.0593
2.147756 66.708 2.6428
2.163320 66.850 2.2226
2.178996 66.991 1.7988
2.194786 67.131 1.3713
2.210690 67.271 0.9404
2.226710 67.411 0.5063
2.242845 67.550 0.0692
2.259098 67.688 -0.3706
2.275468 67.826 -0.8128
2.291957 67.963 -1.2572
2.308566 68.099 -1.7037
2.325295 68.235 -2.1522
2.342145 68.370 -2.6024
2.359117 68.505 -3.0542
2.376212 68.638 -3.5078
2.393431 68.772 -3.9628
2.410775 68.905 -4.4195
2.428244 69.037 -4.8776
2.445840 69.169 -5.3374
2.463564 69.301 -5.7988
2.481416 69.432 -6.2618
2.499397 69.563 -6.7267
2.517509 69.693 -7.1935
2.535752 69.823 -7.6625
2.554127 69.953 -8.1337
2.572635 70.082 -8.6075
2.591277 70.211 -9.0838
2.610055 70.339 -9.5629
2.628968 70.466 -10.0445
2.648019 70.593 -10.5285
2.667208 70.718 -11.0148
2.686535 70.843 -11.5030
2.706003 70.968 -11.9929
2.725612 71.091 -12.4844
2.745363 71.214 -12.9771
2.765257 71.337 -13.4708
2.785295 71.459 -13.9655
2.805478 71.580 -14.4608
2.825808 71.701 -14.9569
2.846285 71.821 -15.4535
2.866910 71.941 -15.9507
2.887685 72.061 -16.4487
2.908611 72.180 -16.9476
2.929688 72.298 -17.4478
2.950917 72.416 -17.9496
2.972301 72.534 -18.4531
2.993839 72.650 -18.9587
3.015534 72.766 -19.4662
3.037386 72.881 -19.9755
3.059396 72.995 -20.4863
3.081565 73.109 -20.9984
3.103896 73.222 -21.5114
3.126388 73.334 -22.0251
3.149043 73.446 -22.5392
3.171862 73.557 -23.0534
3.194847 73.667 -23.5676
3.217998 73.777 -24.0817
3.241317 73.887 -24.5956
3.264805 73.996 -25.1094
3.288463 74.104 -25.6235
3.312293 74.212 -26.1381
3.336295 74.320 -26.6537
3.360471 74.426 -27.1705
3.384822 74.532 -27.6886
3.409350 74.637 -28.2077
3.434056 74.742 -28.7278
3.458940 74.845 -29.2486
3.484005 74.948 -29.7698
3.509252 75.051 -30.2910
3.534681 75.152 -30.8120
3.560295 75.254 -31.3325
3.586094 75.354 -31.8524
3.612081 75.455 -32.3716
3.638255 75.554 -32.8904
3.664620 75.654 -33.4090
3.691175 75.752 -33.9277
3.717923 75.850 -34.4468
3.744864 75.947 -34.9666
3.772001 76.044 -35.4869
3.799335 76.139 -36.0077
3.826866 76.234 -36.5287
3.854597 76.329 -37.0496
3.882529 76.423 -37.5700
3.910664 76.516 -38.0897
3.939002 76.609 -38.6085
3.967546 76.701 -39.1261
3.996296 76.793 -39.6428
4.025255 76.884 -40.1586
4.054423 76.974 -40.6739
4.083804 77.064 -41.1889
4.113396 77.153 -41.7039
4.143204 77.242 -42.2188
4.173227 77.330 -42.7335
4.203468 77.417 -43.2477
4.233928 77.504 -43.7612
4.264609 77.590 -44.2737
4.295512 77.675 -44.7848
4.326639 77.760 -45.2945
4.357992 77.845 -45.8026
4.389572 77.929 -46.3094
4.421380 78.012 -46.8149
4.453419 78.095 -47.3195
4.485691 78.177 -47.8233
4.518196 78.259 -48.3264
4.550936 78.340 -48.8286
4.583914 78.420 -49.3296
4.617131 78.500 -49.8292
4.650589 78.579 -50.3271
4.684289 78.658 -50.8231
4.718233 78.737 -51.3171
4.752424 78.815 -51.8091
4.786862 78.892 -52.2993
4.821549 78.970 -52.7878
4.856488 79.046 -53.2748
4.891680 79.122 -53.7603
4.927127 79.198 -54.2443
4.962831 79.273 -54.7266
4.998794 79.348 -55.2071
5.035017 79.422 -55.6856
5.071503 79.496 -56.1620
5.108253 79.570 -56.6362
5.145270 79.644 -57.1083
5.182555 79.717 -57.5784
5.220110 79.790 -58.0467
5.257937 79.863 -58.5133
5.296038 79.935 -58.9781
5.334415 80.007 -59.4414
5.373071 80.079 -59.9030
5.412006 80.150 -60.3630
5.451224 80.222 -60.8213
5.490725 80.293 -61.2781
5.530514 80.364 -61.7333
5.570590 80.435 -62.1871
5.610957 80.506 -62.6395
5.651616 80.577 -63.0909
5.692570 80.648 -63.5412
5.733821 80.718 -63.9908
5.775370 80.789 -64.4398
5.817221 80.859 -64.8882
5.859375 80.929 -65.3363
5.901834 81.000 -65.7840
5.944602 81.070 -66.2315
5.987679 81.140 -66.6788
6.031068 81.210 -67.1263
6.074771 81.280 -67.5739
6.118792 81.350 -68.0220
6.163131 81.419 -68.4706
6.207792 81.489 -68.9201
6.252776 81.559 -69.3704
6.298086 81.628 -69.8216
6.343725 81.697 -70.2739
6.389694 81.766 -70.7271
6.435996 81.835 -71.1814
6.482634 81.903 -71.6368
6.529610 81.971 -72.0934
6.576926 82.039 -72.5511
6.624585 82.107 -73.0102
6.672590 82.174 -73.4705
6.720942 82.241 -73.9321
6.769645 82.307 -74.3948
6.818700 82.373 -74.8585
6.868111 82.439 -75.3228
6.917881 82.504 -75.7878
6.968010 82.568 -76.2534
7.018504 82.633 -76.7195
7.069362 82.696 -77.1861
7.120590 82.759 -77.6529
7.172189 82.822 -78.1197
7.224161 82.884 -78.5862
7.276511 82.945 -79.0521
7.329239 83.006 -79.5172
7.382350 83.067 -79.9815
7.435845 83.127 -80.4449
7.489729 83.186 -80.9072
7.544002 83.245 -81.3682
7.598669 83.304 -81.8278
7.653732 83.362 -82.2856
7.709194 83.420 -82.7417
7.765058 83.477 -83.1960
7.821327 83.534 -83.6484
7.878004 83.591 -84.0991
7.935091 83.648 -84.5480
7.992592 83.704 -84.9951
8.050510 83.761 -85.4406
8.108847 83.817 -85.8843
8.167607 83.873 -86.3266
8.226793 83.929 -86.7674
8.286408 83.984 -87.2072
8.346454 84.040 -87.6461
8.406936 84.096 -88.0843
8.467856 84.151 -88.5219
8.529218 84.207 -88.9593
8.591024 84.262 -89.3965
8.653278 84.317 -89.8338
8.715983 84.373 -90.2714
8.779143 84.428 -90.7095
8.842760 84.482 -91.1483
8.906839 84.537 -91.5879
8.971381 84.591 -92.0282
9.036392 84.646 -92.4694
9.101873 84.699 -92.9113
9.167829 84.753 -93.3540
9.234263 84.806 -93.7973
9.301178 84.858 -94.2413
9.368578 84.910 -94.6855
9.436467 84.961 -95.1297
9.504847 85.012 -95.5737
9.573723 85.062 -96.0171
9.643099 85.112 -96.4597
9.712976 85.160 -96.9012
9.783361 85.209 -97.3411
9.854255 85.256 -97.7791
9.925663 85.304 -98.2149
9.997588 85.350 -98.6481
10.070035 85.396 -99.0785
10.143007 85.442 -99.5060
10.216507 85.487 -99.9302
10.290540 85.532 -100.3510
10.365109 85.576 -100.7684
10.440219 85.620 -101.1824
10.515873 85.665 -101.5932
10.592076 85.709 -102.0008
10.668830 85.752 -102.4054
10.746141 85.796 -102.8073
10.824012 85.840 -103.2068
10.902447 85.884 -103.6043
10.981451 85.928 -104.0002
11.061027 85.972 -104.3949
11.141180 86.016 -104.7888
11.221913 86.061 -105.1822
11.303232 86.105 -105.5756
11.385140 86.149 -105.9694
11.467641 86.193 -106.3637
11.550741 86.237 -106.7588
11.634442 86.280 -107.1548
11.718750 86.323 -107.5518
11.803669 86.366 -107.9498
11.889203 86.409 -108.3487
11.975357 86.451 -108.7482
12.062136 86.492 -109.1481
12.149543 86.533 -109.5482
12.237583 86.573 -109.9480
12.326262 86.613 -110.3471
12.415583 86.651 -110.7450
12.505552 86.689 -111.1414
12.596172 86.727 -111.5359
12.687449 86.764 -111.9279
12.779387 86.800 -112.3172
12.871992 86.835 -112.7034
12.965268 86.871 -113.0864
13.059220 86.906 -113.4660
13.153852 86.940 -113.8421
13.249170 86.974 -114.2148
13.345179 87.008 -114.5842
13.441884 87.042 -114.9506
13.539289 87.076 -115.3142
13.637401 87.110 -115.6753
13.736223 87.144 -116.0345
13.835761 87.178 -116.3921
13.936021 87.212 -116.7486
14.037007 87.246 -117.1044
14.138725 87.280 -117.4600
14.241180 87.314 -117.8156
14.344377 87.348 -118.1717
14.448323 87.381 -118.5285
14.553021 87.415 -118.8860
14.658478 87.448 -119.2443
14.764700 87.481 -119.6034
14.871691 87.514 -119.9631
14.979457 87.546 -120.3231
15.088005 87.578 -120.6833
15.197339 87.609 -121.0434
15.307465 87.640 -121.4029
15.418389 87.670 -121.7616
15.530117 87.700 -122.1191
15.642655 87.730 -122.4754
15.756008 87.759 -122.8301
15.870182 87.788 -123.1833
15.985184 87.817 -123.5350
16.101019 87.845 -123.8855
16.217694 87.874 -124.2348
16.335214 87.902 -124.5834
16.453586 87.931 -124.9316
16.572815 87.959 -125.2798
16.692909 87.987 -125.6282
16.813872 88.015 -125.9773
16.935713 88.043 -126.3271
17.058436 88.070 -126.6777
17.182048 88.097 -127.0291
17.306556 88.124 -127.3810
17.431967 88.150 -127.7331
17.558286 88.176 -128.0849
17.685521 88.202 -128.4359
17.813677 88.226 -128.7857
17.942762 88.251 -129.1338
18.072783 88.275 -129.4798
18.203746 88.298 -129.8236
18.335658 88.322 -130.1650
18.468526 88.345 -130.5042
18.602356 88.368 -130.8414
18.737156 88.392 -131.1771
18.872934 88.415 -131.5117
19.009695 88.438 -131.8455
19.147447 88.461 -132.1790
19.286197 88.484 -132.5124
19.425953 88.507 -132.8457
19.566721 88.529 -133.1786
19.708510 88.552 -133.5110
19.851326 88.573 -133.8423
19.995177 88.595 -134.1720
20.140070 88.616 -134.4998
20.286013 88.637 -134.8253
20.433014 88.658 -135.1487
20.581080 88.679 -135.4702
20.730219 88.701 -135.7906
20.880439 88.722 -136.1108
21.031747 88.744 -136.4319
21.184152 88.765 -136.7550
21.337661 88.787 -137.0809
21.492282 88.808 -137.4101
21.648024 88.828 -137.7424
21.804895 88.848 -138.0771
21.962902 88.866 -138.4125
22.122054 88.883 -138.7465
22.282360 88.898 -139.0766
22.443827 88.912 -139.4001
22.606464 88.925 -139.7147
22.770280 88.937 -140.0185
22.935283 88.949 -140.3106
23.101481 88.962 -140.5913
23.268884 88.975 -140.8618
23.437500 88.989 -141.1245
23.607338 89.005 -141.3826
23.778406 89.022 -141.6396
23.950714 89.041 -141.8987
24.124271 89.061 -142.1628
24.299086 89.082 -142.4338
24.475167 89.102 -142.7125
24.652524 89.122 -142.9985
24.831166 89.142 -143.2907
25.011103 89.160 -143.5872
25.192344 89.178 -143.8860
25.374898 89.194 -144.1850
25.558775 89.210 -144.4828
25.743984 89.224 -144.7785
25.930536 89.238 -145.0717
26.118439 89.252 -145.3626
26.307704 89.265 -145.6515
26.498341 89.278 -145.9384
26.690359 89.290 -146.2234
26.883768 89.302 -146.5060
27.078579 89.314 -146.7856
27.274801 89.325 -147.0614
27.472446 89.336 -147.3332
27.671522 89.347 -147.6010
27.872042 89.358 -147.8656
28.074014 89.369 -148.1284
28.277450 89.382 -148.3911
28.482360 89.394 -148.6558
28.688755 89.407 -148.9237
28.896645 89.420 -149.1955
29.106042 89.432 -149.4707
29.316957 89.443 -149.7480
29.529400 89.454 -150.0252
29.743382 89.463 -150.2999
29.958915 89.472 -150.5703
30.176009 89.481 -150.8353
30.394677 89.490 -151.0950
30.614929 89.500 -151.3508
30.836778 89.510 -151.6048
31.060234 89.521 -151.8598
31.285309 89.533 -152.1178
31.512015 89.545 -152.3803
31.740364 89.556 -152.6473
31.970368 89.567 -152.9179
32.202039 89.577 -153.1897
32.435388 89.585 -153.4603
32.670428 89.593 -153.7270
32.907171 89.601 -153.9882
33.145630 89.608 -154.2430
33.385817 89.615 -154.4916
33.627745 89.622 -154.7353
33.871425 89.630 -154.9758
34.116871 89.638 -155.2149
34.364096 89.647 -155.4539
34.613113 89.656 -155.6937
34.863934 89.665 -155.9344
35.116572 89.673 -156.1755
35.371041 89.682 -156.4163
35.627354 89.690 -156.6561
35.885525 89.697 -156.8944
36.145566 89.705 -157.1311
36.407492 89.713 -157.3667
36.671316 89.721 -157.6015
36.937051 89.729 -157.8364
37.204712 89.736 -158.0719
37.474313 89.744 -158.3086
37.745867 89.752 -158.5465
38.019389 89.759 -158.7856
38.294893 89.766 -159.0256
38.572394 89.773 -159.2658
38.851905 89.779 -159.5058
39.133442 89.785 -159.7449
39.417019 89.790 -159.9828
39.702651 89.795 -160.2193
39.990353 89.801 -160.4543
40.280140 89.806 -160.6881
40.572026 89.811 -160.9209
40.866028 89.815 -161.1526
41.162160 89.820 -161.3832
41.460438 89.824 -161.6124
41.760877 89.829 -161.8402
42.063494 89.833 -162.0669
42.368303 89.838 -162.2934
42.675322 89.842 -162.5203
42.984565 89.846 -162.7481
43.296048 89.850 -162.9764
43.609789 89.854 -163.2038
43.925804 89.856 -163.4284
44.244108 89.859 -163.6485
44.564719 89.862 -163.8639
44.887654 89.865 -164.0765
45.212928 89.869 -164.2896
45.540560 89.874 -164.5068
45.870565 89.879 -164.7307
46.202962 89.884 -164.9616
46.537768 89.887 -165.1971
46.875000 89.889 -165.4331
47.214676 89.890 -165.6653
47.556813 89.890 -165.8906
47.901429 89.889 -166.1078
48.248542 89.889 -166.3178
48.598171 89.888 -166.5221
48.950334 89.889 -166.7225
49.305048 89.889 -166.9203
49.662333 89.890 -167.1166
50.022206 89.891 -167.3126
50.384688 89.893 -167.5098
50.749796 89.894 -167.7094
51.117550 89.895 -167.9121
51.487969 89.895 -168.1172
51.861072 89.895 -168.3235
52.236879 89.893 -168.5299
52.615409 89.891 -168.7358
52.996681 89.889 -168.9413
53.380717 89.885 -169.1457
53.767536 89.881 -169.3471
54.157158 89.877 -169.5423
54.549603 89.872 -169.7293
54.944892 89.869 -169.9090
55.343045 89.868 -170.0866
55.744084 89.868 -170.2698
56.148028 89.871 -170.4651
56.554900 89.874 -170.6744
56.964720 89.876 -170.8947
57.377510 89.876 -171.1198
57.793291 89.876 -171.3443
58.212085 89.876 -171.5653
58.633914 89.875 -171.7829
59.058799 89.875 -171.9991
59.486764 89.875 -172.2159
59.917829 89.874 -172.4344
60.352019 89.873 -172.6544
60.789354 89.871 -172.8737
61.229859 89.868 -173.0892
61.673556 89.864 -173.2989
62.120468 89.860 -173.5024
62.570618 89.856 -173.7014
63.024031 89.852 -173.8979
63.480729 89.849 -174.0930
63.940736 89.846 -174.2872
64.404077 89.843 -174.4816
64.870776 89.842 -174.6778
65.340856 89.840 -174.8767
65.814343 89.839 -175.0774
66.291261 89.839 -175.2788
66.771635 89.838 -175.4815
67.255489 89.838 -175.6883
67.742850 89.838 -175.9017
68.233743 89.837 -176.1204
68.728193 89.833 -176.3394
69.226226 89.828 -176.5526
69.727867 89.820 -176.7552
70.233144 89.812 -176.9447
70.742083 89.802 -177.1204
71.254709 89.793 -177.2843
71.771050 89.784 -177.4411
72.291132 89.776 -177.5951
72.814984 89.768 -177.7480
73.342631 89.760 -177.9003
73.874102 89.752 -178.0553
74.409424 89.745 -178.2175
74.948626 89.738 -178.3881
75.491734 89.730 -178.5629
76.038779 89.722 -178.7390
76.589787 89.714 -178.9198
77.144788 89.706 -179.1094
77.703811 89.697 -179.3041
78.266885 89.688 -179.4956
78.834039 89.678 -179.6821
79.405303 89.670 -179.8694
79.980706 89.661 179.9401
80.560280 89.651 179.7525
81.144053 89.641 179.5732
81.732056 89.632 179.3981
82.324320 89.623 179.2215
82.920876 89.613 179.0439
83.521755 89.602 178.8690
84.126988 89.592 178.6961
84.736607 89.581 178.5218
85.350643 89.569 178.3455
85.969129 89.557 178.1687
86.592097 89.545 177.9911
87.219579 89.533 177.8116
87.851608 89.520 177.6313
88.488217 89.508 177.4521
89.129439 89.495 177.2758
89.775308 89.483 177.1042
90.425856 89.470 176.9393
91.081119 89.457 176.7811
91.741131 89.445 176.6263
92.405925 89.433 176.4696
93.075536 89.420 176.3069
93.750000 89.406 176.1372
94.429351 89.391 175.9620
95.113625 89.376 175.7824
95.802858 89.361 175.5985
96.497085 89.346 175.4101
97.196342 89.332 175.2189
97.900667 89.319 175.0300
98.610096 89.305 174.8513
99.324665 89.291 174.6902
100.044413 89.277 174.5492
100.769376 89.263 174.4228
101.499592 89.249 174.2991
102.235100 89.234 174.1682
102.975938 89.215 174.0279
103.722144 89.196 173.8812
104.473757 89.180 173.7300
105.230817 89.170 173.5660
105.993363 89.172 173.3626
106.761435 89.187 173.0866
107.535072 89.209 172.7170
108.314315 89.231 172.2557
109.099206 89.242 171.7413
109.889783 89.234 171.2569
110.686090 89.204 170.8954
111.488167 89.159 170.7109
112.296056 89.105 170.7056
113.109800 89.048 170.8409
113.929440 88.990 171.0575
114.755020 88.934 171.2982
115.586582 88.879 171.5168
116.424170 88.826 171.6801
117.267827 88.777 171.7765
118.117598 88.733 171.8127
118.973527 88.698 171.8029
119.835658 88.674 171.7595
120.704037 88.660 171.6919
121.578708 88.654 171.6125
122.459718 88.653 171.5416
123.347111 88.653 171.4994
124.240935 88.653 171.4944
125.141236 88.652 171.5198
126.048061 88.649 171.5613
126.961458 88.645 171.6068
127.881473 88.638 171.6490
128.808154 88.630 171.6847
129.741551 88.624 171.7105
130.681712 88.621 171.7198
131.628686 88.623 171.7054
132.582521 88.630 171.6623
133.543269 88.640 171.5866
134.510979 88.653 171.4763
135.485701 88.666 171.3319
136.467486 88.676 171.1576
137.456386 88.682 170.9578
138.452451 88.683 170.7349
139.455735 88.677 170.4948
140.466288 88.665 170.2491
141.484165 88.648 170.0088
142.509418 88.629 169.7787
143.542100 88.609 169.5603
144.582265 88.589 169.3547
145.629968 88.569 169.1634
146.685262 88.549 168.9867
147.748204 88.529 168.8236
148.818849 88.509 168.6713
149.897251 88.489 168.5269
150.983469 88.468 168.3874
152.077557 88.448 168.2505
153.179574 88.427 168.1145
154.289576 88.407 167.9793
155.407622 88.386 167.8453
156.533770 88.365 167.7125
157.668078 88.344 167.5788
158.810606 88.321 167.4406
159.961413 88.299 167.2931
161.120559 88.276 167.1330
162.288105 88.252 166.9617
163.464112 88.226 166.7886
164.648640 88.197 166.6300
165.841752 88.164 166.5036
167.043510 88.130 166.4174
168.253976 88.096 166.3636
169.473213 88.064 166.3228
170.701286 88.034 166.2748
171.938258 88.006 166.2082
173.184194 87.979 166.1224
174.439158 87.953 166.0238
175.703216 87.928 165.9197
176.976434 87.903 165.8153
178.258878 87.878 165.7120
179.550615 87.852 165.6098
180.851713 87.826 165.5098
182.162239 87.800 165.4150
183.482262 87.774 165.3273
184.811850 87.748 165.2444
186.151073 87.723 165.1587
187.500000 87.699 165.0602
188.858702 87.677 164.9404
190.227250 87.657 164.7971
191.605715 87.639 164.6364
192.994169 87.621 164.4737
194.392685 87.601 164.3302
195.801334 87.576 164.2296
197.220191 87.544 164.1870
198.649330 87.506 164.1976
200.088825 87.466 164.2376
201.538751 87.425 164.2812
202.999184 87.386 164.3111
204.470200 87.349 164.3199
205.951875 87.314 164.3088
207.444287 87.280 164.2817
208.947514 87.247 164.2452
210.461634 87.212 164.2059
211.986726 87.174 164.1687
213.522869 87.132 164.1349
215.070144 87.084 164.1008
216.628631 87.034 164.0643
218.198411 86.985 164.0283
219.779567 86.944 163.9950
221.372180 86.913 163.9647
222.976334 86.892 163.9420
224.592112 86.875 163.9348
226.219600 86.859 163.9457
227.858880 86.841 163.9692
229.510039 86.820 163.9988
231.173164 86.797 164.0342
232.848340 86.773 164.0800
234.535655 86.748 164.1395
236.235197 86.722 164.2082
237.947054 86.697 164.2754
239.671317 86.675 164.3318
241.408074 86.656 164.3750
243.157416 86.638 164.4073
244.919435 86.620 164.4275
246.694223 86.600 164.4279
248.481871 86.577 164.3997
250.282473 86.552 164.3388
252.096123 86.520 164.2370
253.922915 86.482 164.0728
255.762945 86.436 163.8193
257.616309 86.389 163.4761
259.483103 86.348 163.1074
261.363424 86.318 162.8358
263.257372 86.303 162.7664
265.165043 86.298 162.9067
267.086538 86.293 163.1748
269.021957 86.281 163.4686
270.971401 86.261 163.7185
272.934972 86.235 163.9030
274.912771 86.206 164.0333
276.904902 86.175 164.1277
278.911469 86.143 164.1977
280.932577 86.111 164.2490
282.968330 86.080 164.2872
285.018835 86.049 164.3183
287.084199 86.018 164.3458
289.164530 85.986 164.3712
291.259935 85.955 164.3965
293.370525 85.925 164.4240
295.496408 85.895 164.4557
297.637697 85.864 164.4926
299.794503 85.833 164.5352
301.966937 85.802 164.5846
304.155114 85.770 164.6412
306.359147 85.739 164.7039
308.579152 85.708 164.7688
310.815244 85.677 164.8316
313.067539 85.646 164.8897
315.336156 85.614 164.9442
317.621211 85.581 164.9977
319.922826 85.546 165.0516
322.241118 85.510 165.1055
324.576210 85.473 165.1575
326.928223 85.438 165.2079
329.297280 85.405 165.2601
331.683504 85.375 165.3184
334.087019 85.348 165.3863
336.507952 85.322 165.4651
338.946427 85.295 165.5527
341.402572 85.267 165.6458
343.876516 85.238 165.7420
346.368387 85.209 165.8399
348.878315 85.180 165.9391
351.406431 85.151 166.0399
353.952867 85.123 166.1426
356.517756 85.094 166.2469
359.101230 85.065 166.3526
361.703426 85.036 166.4598
364.324478 85.006 166.5690
366.964523 84.976 166.6797
369.623699 84.947 166.7911
372.302145 84.917 166.9036
375.000000 84.888 167.0189
377.717405 84.858 167.1389
380.454501 84.828 167.2626
383.211431 84.796 167.3851
385.988339 84.763 167.5001
388.785369 84.731 167.6058
391.602668 84.700 167.7104
394.440383 84.672 167.8303
397.298660 84.646 167.9768
400.177650 84.620 168.1460
403.077502 84.593 168.3249
405.998368 84.565 168.5030
408.940400 84.536 168.6761
411.903750 84.507 168.8430
414.888575 84.477 169.0037
417.895028 84.446 169.1606
420.923268 84.414 169.3170
423.973452 84.379 169.4767
427.045738 84.343 169.6428
430.140287 84.304 169.8184
433.257261 84.263 170.0038
436.396822 84.223 170.1956
439.559133 84.188 170.3855
442.744360 84.162 170.5642
445.952668 84.142 170.7294
449.184225 84.127 170.8885
452.439199 84.113 171.0509
455.717760 84.098 171.2214
459.020079 84.080 171.4010
462.346327 84.061 171.5886
465.696680 84.039 171.7821
469.071310 84.016 171.9791
472.470394 83.992 172.1776
475.894109 83.967 172.3767
479.342634 83.942 172.5763
482.816148 83.916 172.7766
486.314833 83.890 172.9781
489.838871 83.865 173.1821
493.388445 83.840 173.3904
496.963741 83.815 173.6033
500.564945 83.791 173.8177
504.192245 83.766 174.0287
507.845830 83.741 174.2339
511.525890 83.716 174.4345
515.232618 83.691 174.6343
518.966206 83.666 174.8383
522.726849 83.642 175.0533
526.514743 83.619 175.2867
530.330086 83.598 175.5404
534.173076 83.579 175.8097
538.043915 83.559 176.0864
541.942803 83.540 176.3638
545.869944 83.520 176.6386
549.825542 83.499 176.9102
553.809805 83.479 177.1790
557.822939 83.458 177.4460
561.865154 83.439 177.7113
565.936660 83.420 177.9749
570.037671 83.401 178.2377
574.168399 83.383 178.5016
578.329060 83.364 178.7684
582.519870 83.346 179.0391
586.741049 83.328 179.3147
590.992817 83.310 179.5967
595.275394 83.291 179.8857
599.589005 83.273 -179.8187
603.933874 83.256 -179.5184
608.310228 83.238 -179.2154
612.718295 83.222 -178.9109
617.158304 83.205 -178.6048
621.630488 83.189 -178.2967
626.135079 83.174 -177.9863
630.672311 83.159 -177.6739
635.242423 83.143 -177.3598
639.845651 83.127 -177.0437
644.482237 83.110 -176.7250
649.152421 83.093 -176.4027
653.856447 83.076 -176.0752
658.594560 83.061 -175.7408
663.367008 83.050 -175.3995
668.174039 83.041 -175.0535
673.015903 83.034 -174.7058
677.892854 83.028 -174.3583
682.805145 83.022 -174.0105
687.753032 83.015 -173.6607
692.736774 83.008 -173.3071
697.756631 83.001 -172.9488
702.812863 82.995 -172.5862
707.905735 82.989 -172.2205
713.035511 82.984 -171.8527
718.202461 82.978 -171.4824
723.406852 82.974 -171.1087
728.648956 82.969 -170.7299
733.929047 82.965 -170.3448
739.247399 82.962 -169.9540
744.604290 82.960 -169.5594
750.000000 82.959 -169.1630
755.434809 82.959 -168.7664
760.909001 82.959 -168.3695
766.422861 82.960 -167.9712
771.976677 82.961 -167.5700
777.570739 82.963 -167.1650
783.205337 82.966 -166.7565
788.880766 82.971 -166.3456
794.597321 82.978 -165.9336
800.355301 82.987 -165.5208
806.155005 82.996 -165.1074
811.996736 83.007 -164.6913
817.880799 83.017 -164.2685
823.807501 83.027 -163.8334
829.777150 83.037 -163.3823
835.790057 83.048 -162.9157
841.846536 83.060 -162.4373
847.946903 83.075 -161.9512
854.091476 83.092 -161.4583
860.280575 83.111 -160.9569
866.514523 83.130 -160.4461
872.793644 83.151 -159.9305
879.118267 83.173 -159.4235
885.488720 83.197 -158.9422
891.905336 83.223 -158.4928
898.368450 83.252 -158.0644
904.878398 83.283 -157.6431
911.435520 83.316 -157.2207
918.040157 83.351 -156.7957
924.692655 83.387 -156.3686
931.393359 83.423 -155.9378
938.142619 83.461 -155.5013
944.940787 83.501 -155.0607
951.788218 83.542 -154.6220
958.685268 83.585 -154.1886
965.632296 83.629 -153.7619
972.629666 83.675 -153.3424
979.677741 83.722 -152.9299
986.776890 83.771 -152.5228
993.927482 83.820 -152.1201
1001.129891 83.871 -151.7226
1008.384491 83.923 -151.3320
1015.691660 83.977 -150.9502
1023.051781 84.032 -150.5781
1030.465236 84.089 -150.2166
1037.932411 84.146 -149.8662
1045.453698 84.205 -149.5265
1053.029486 84.264 -149.1962
1060.660172 84.325 -148.8744
1068.346153 84.386 -148.5606
1076.087829 84.447 -148.2549
1083.885605 84.510 -147.9576
1091.739887 84.572 -147.6695
1099.651084 84.635 -147.3911
1107.619609 84.699 -147.1219
1115.645878 84.763 -146.8615
1123.730308 84.827 -146.6101
1131.873321 84.892 -146.3678
1140.075341 84.957 -146.1346
1148.336797 85.021 -145.9096
1156.658119 85.086 -145.6929
1165.039741 85.150 -145.4850
1173.482099 85.213 -145.2861
1181.985634 85.277 -145.0954
1190.550789 85.340 -144.9113
1199.178011 85.403 -144.7317
1207.867749 85.465 -144.5555
1216.620457 85.528 -144.3829
1225.436590 85.589 -144.2147
1234.316609 85.651 -144.0517
1243.260976 85.712 -143.8941
1252.270157 85.772 -143.7411
1261.344623 85.833 -143.5909
1270.484846 85.894 -143.4415
1279.691303 85.955 -143.2913
1288.964474 86.016 -143.1407
1298.304842 86.077 -142.9918
1307.712894 86.138 -142.8480
1317.189120 86.199 -142.7133
1326.734016 86.260 -142.5897
1336.348077 86.320 -142.4740
1346.031806 86.379 -142.3568
1355.785708 86.439 -142.2303
1365.610290 86.498 -142.0940
1375.506065 86.559 -141.9517
1385.473549 86.620 -141.8078
1395.513261 86.682 -141.6661
1405.625726 86.745 -141.5295
1415.811469 86.809 -141.3988
1426.071023 86.874 -141.2731
1436.404921 86.940 -141.1512
1446.813703 87.007 -141.0330
1457.297912 87.074 -140.9192
1467.858093 87.143 -140.8112
1478.494798 87.212 -140.7100
1489.208581 87.282 -140.6165
1500.000000 87.353 -140.5313
1510.869618 87.424 -140.4551
1521.818002 87.496 -140.3886
1532.845723 87.568 -140.3321
1543.953355 87.641 -140.2855
1555.141477 87.714 -140.2492
1566.410674 87.787 -140.2236
1577.761531 87.860 -140.2092
1589.194642 87.932 -140.2058
1600.710601 88.005 -140.2129
1612.310010 88.076 -140.2299
1623.993473 88.147 -140.2561
1635.761599 88.217 -140.2906
1647.615002 88.287 -140.3329
1659.554299 88.355 -140.3822
1671.580114 88.422 -140.4377
1683.693072 88.488 -140.4982
1695.893807 88.554 -140.5624
1708.182952 88.618 -140.6291
1720.561150 88.682 -140.6970
1733.029045 88.744 -140.7654
1745.587288 88.806 -140.8338
1758.236533 88.867 -140.9020
1770.977440 88.928 -140.9693
1783.810673 88.987 -141.0345
1796.736900 89.047 -141.0970
1809.756796 89.106 -141.1568
1822.871040 89.166 -141.2146
1836.080315 89.227 -141.2712
1849.385310 89.288 -141.3277
1862.786718 89.349 -141.3852
1876.285239 89.412 -141.4452
1889.881575 89.475 -141.5090
1903.576436 89.538 -141.5777
1917.370535 89.602 -141.6517
1931.264593 89.666 -141.7312
1945.259332 89.730 -141.8159
1959.355483 89.794 -141.9055
1973.553781 89.857 -141.9992
1987.854965 89.921 -142.0965
2002.259781 89.985 -142.1970
2016.768981 90.049 -142.3005
2031.383320 90.113 -142.4069
2046.103561 90.178 -142.5165
2060.930471 90.242 -142.6296
2075.864823 90.307 -142.7466
2090.907395 90.372 -142.8680
2106.058972 90.438 -142.9944
2121.320344 90.504 -143.1262
2136.692305 90.570 -143.2638
2152.175658 90.636 -143.4076
2167.771210 90.703 -143.5579
2183.479774 90.770 -143.7152
2199.302169 90.838 -143.8799
2215.239219 90.905 -144.0523
2231.291755 90.973 -144.2328
2247.460615 91.041 -144.4217
2263.746641 91.109 -144.6193
2280.150683 91.177 -144.8258
2296.673595 91.244 -145.0414
2313.316238 91.312 -145.2663
2330.079481 91.379 -145.5008
2346.964198 91.447 -145.7451
2363.971268 91.514 -145.9993
2381.101578 91.580 -146.2636
2398.356022 91.646 -146.5378
2415.735498 91.712 -146.8221
2433.240913 91.776 -147.1163
2450.873180 91.841 -147.4207
2468.633217 91.904 -147.7351
2486.521951 91.967 -148.0597
2504.540314 92.029 -148.3945
2522.689246 92.090 -148.7398
2540.969692 92.150 -149.0958
2559.382606 92.209 -149.4626
2577.928947 92.267 -149.8403
2596.609683 92.323 -150.2290
2615.425787 92.379 -150.6287
2634.378241 92.432 -151.0389
2653.468031 92.484 -151.4592
2672.696154 92.534 -151.8889
2692.063613 92.582 -152.3273
2711.571415 92.628 -152.7737
2731.220579 92.671 -153.2272
2751.012130 92.713 -153.6870
2770.947098 92.752 -154.1518
2791.026522 92.788 -154.6205
2811.251451 92.822 -155.0921
2831.622938 92.854 -155.5649
2852.142045 92.883 -156.0376
2872.809842 92.909 -156.5085
2893.627406 92.933 -156.9758
2914.595823 92.955 -157.4377
2935.716186 92.975 -157.8923
2956.989596 92.993 -158.3378
2978.417161 93.010 -158.7728
3000.000000 93.026 -159.1967
3021.739237 93.042 -159.6099
3043.636005 93.059 -160.0145
3065.691446 93.076 -160.4140
3087.906710 93.095 -160.8136
3110.282955 93.116 -161.2194
3132.821347 93.138 -161.6378
3155.523062 93.160 -162.0747
3178.389283 93.183 -162.5341
3201.421202 93.204 -163.0171
3224.620020 93.222 -163.5226
3247.986946 93.237 -164.0473
3271.523198 93.248 -164.5864
3295.230004 93.254 -165.1341
3319.108599 93.256 -165.6848
3343.160228 93.254 -166.2338
3367.386145 93.248 -166.7772
3391.787613 93.238 -167.3120
3416.365904 93.224 -167.8362
3441.122300 93.208 -168.3488
3466.058091 93.190 -168.8494
3491.174576 93.169 -169.3378
3516.473066 93.146 -169.8141
3541.954880 93.122 -170.2789
3567.621345 93.097 -170.7329
3593.473800 93.070 -171.1769
3619.513592 93.041 -171.6117
3645.742080 93.012 -172.0383
3672.160630 92.982 -172.4576
3698.770620 92.950 -172.8707
3725.573436 92.918 -173.2784
3752.570477 92.884 -173.6814
3779.763150 92.848 -174.0801
3807.152872 92.811 -174.4743
3834.741071 92.772 -174.8635
3862.529185 92.730 -175.2462
3890.518664 92.687 -175.6205
3918.710966 92.641 -175.9839
3947.107561 92.593 -176.3334
3975.709929 92.543 -176.6666
4004.519563 92.491 -176.9811
4033.537962 92.438 -177.2761
4062.766641 92.385 -177.5517
4092.207123 92.331 -177.8094
4121.860942 92.278 -178.0519
4151.729646 92.226 -178.2825
4181.814790 92.174 -178.5052
4212.117944 92.123 -178.7233
4242.640687 92.073 -178.9392
4273.384610 92.021 -179.1541
4304.351317 91.969 -179.3678
4335.542421 91.916 -179.5789
4366.959549 91.861 -179.7850
4398.604338 91.805 -179.9832
4430.478438 91.747 179.8294
4462.583511 91.688 179.6556
4494.921231 91.627 179.4974
4527.493283 91.566 179.3552
4560.301365 91.505 179.2288
4593.347189 91.444 179.1166
4626.632476 91.384 179.0169
4660.158962 91.324 178.9276
4693.928395 91.265 178.8466
4727.942535 91.206 178.7723
4762.203156 91.149 178.7036
4796.712043 91.091 178.6394
4831.470996 91.034 178.5790
4866.481826 90.977 178.5221
4901.746360 90.919 178.4684
4937.266434 90.862 178.4182
4973.043902 90.804 178.3720
5009.080628 90.745 178.3309
5045.378492 90.685 178.2963
5081.939384 90.625 178.2700
5118.765212 90.564 178.2539
5155.857894 90.502 178.2500
5193.219366 90.440 178.2596
5230.851574 90.377 178.2842
5268.756481 90.314 178.3245
5306.936062 90.252 178.3811
5345.392309 90.190 178.4539
5384.127225 90.128 178.5424
5423.142830 90.068 178.6464
5462.441159 90.008 178.7651
5502.024259 89.950 178.8979
5541.894195 89.892 179.0445
5582.053045 89.836 179.2048
5622.502902 89.780 179.3792
5663.245876 89.726 179.5683
5704.284090 89.672 179.7729
5745.619684 89.619 179.9943
5787.254813 89.568 -179.7660
5829.191647 89.518 -179.5067
5871.432373 89.470 -179.2262
5913.979192 89.423 -178.9233
5956.834323 89.379 -178.5970
6000.000000 89.338 -178.2466
6043.478473 89.300 -177.8721
6087.272010 89.267 -177.4743
6131.382892 89.237 -177.0543
6175.813420 89.213 -176.6140
6220.565910 89.195 -176.1560
6265.642695 89.182 -175.6831
6311.046124 89.176 -175.1984
6356.778566 89.177 -174.7053
6402.842404 89.185 -174.2071
6449.240040 89.200 -173.7070
6495.973891 89.222 -173.2078
6543.046396 89.253 -172.7121
6590.460007 89.291 -172.2227
6638.217197 89.337 -171.7420
6686.320456 89.392 -171.2727
6734.772290 89.455 -170.8179
6783.575226 89.528 -170.3812
6832.731809 89.611 -169.9666
6882.244600 89.704 -169.5793
6932.116181 89.809 -169.2255
6982.349153 89.924 -168.9128
7032.946133 90.052 -168.6506
7083.909760 90.192 -168.4493
7135.242690 90.344 -168.3210
7186.947600 90.508 -168.2791
7239.027185 90.684 -168.3379
7291.484160 90.870 -168.5127
7344.321260 91.066 -168.8190
7397.541239 91.271 -169.2728
7451.146872 91.481 -169.8895
7505.140954 91.694 -170.6836
7559.526299 91.908 -171.6686
7614.305743 92.118 -172.8563
7669.482141 92.319 -174.2547
7725.058371 92.508 -175.8678
7781.037328 92.678 -177.6937
7837.421932 92.824 -179.7239
7894.215122 92.941 178.0577
7951.419859 93.023 175.6753
8009.039125 93.065 173.1601
8067.075924 93.064 170.5503
8125.533282 93.018 167.8884
8184.414245 92.924 165.2194
8243.721885 92.785 162.5886
8303.459292 92.600 160.0389
8363.629581 92.372 157.6090
8424.235888 92.107 155.3323
8485.281374 91.806 153.2358
8546.769221 91.476 151.3401
8608.702634 91.121 149.6598
8671.084842 90.746 148.2039
8733.919097 90.355 146.9766
8797.208675 89.952 145.9784
8860.956876 89.542 145.2060
8925.167022 89.128 144.6539
8989.842461 88.713 144.3147
9054.986566 88.299 144.1796
9120.602731 87.889 144.2386
9186.694378 87.485 144.4807
9253.264952 87.089 144.8940
9320.317925 86.703 145.4661
9387.856790 86.327 146.1844
9455.885071 85.963 147.0362
9524.406312 85.612 148.0093
9593.424086 85.274 149.0918
9662.941992 84.948 150.2719
9732.963653 84.637 151.5385
9803.492719 84.339 152.8809
9874.532869 84.054 154.2897
9946.087805 83.783 155.7557
10018.161257 83.524 157.2708
10090.756983 83.278 158.8275
10163.878768 83.045 160.4191
10237.530423 82.822 162.0403
10311.715789 82.611 163.6865
10386.438732 82.410 165.3546
10461.703149 82.220 167.0426
10537.512962 82.038 168.7495
10613.872125 81.865 170.4751
10690.784618 81.701 172.2202
10768.254450 81.544 173.9860
10846.285661 81.395 175.7749
10924.882318 81.254 177.5905
11004.048518 81.120 179.4371
11083.788390 80.994 -178.6808
11164.106090 80.878 -176.7587
11245.005805 80.771 -174.7932
11326.491752 80.675 -172.7811
11408.568180 80.592 -170.7206
11491.239368 80.524 -168.6110
11574.509626 80.471 -166.4527
11658.383294 80.437 -164.2475
11742.864745 80.424 -161.9987
11827.958384 80.435 -159.7115
11913.668646 80.471 -157.3931
12000.000000 80.537 -155.0536
12086.956947 80.634 -152.7057
12174.544019 80.767 -150.3654
12262.765784 80.939 -148.0517
12351.626840 81.152 -145.7881
12441.131819 81.410 -143.6036
12531.285389 81.716 -141.5336
12622.092249 82.073 -139.6213
12713.557132 82.483 -137.9192
12805.684808 82.947 -136.4898
12898.480079 83.463 -135.4058
12991.947783 84.027 -134.7480
13086.092792 84.632 -134.6017
13180.920015 85.266 -135.0501
13276.434395 85.912 -136.1665
13372.640911 86.549 -138.0047
13469.544580 87.154 -140.5888
13567.150452 87.700 -143.9042
13665.463617 88.161 -147.8903
13764.489200 88.514 -152.4373
13864.232362 88.737 -157.3875
13964.698305 88.820 -162.5457
14065.892266 88.757 -167.6964
14167.819519 88.555 -172.6271
14270.485380 88.228 -177.1505
14373.895200 87.797 178.8805
14478.054370 87.288 175.5637
14582.968320 86.725 172.9481
14688.642520 86.135 171.0378
14795.082478 85.541 169.7999
14902.293745 84.963 169.1741
15010.281908 84.416 169.0816
15119.052599 83.911 169.4352
15228.611486 83.455 170.1458
15338.964283 83.052 171.1288
15450.116741 82.702 172.3066
15562.074656 82.403 173.6103
15674.843864 82.154 174.9798
15788.430244 81.950 176.3623
15902.839718 81.788 177.7108
16018.078250 81.662 178.9828
16134.151848 81.569 -179.8607
16251.066563 81.503 -178.8553
16368.828491 81.457 -178.0323
16487.443769 81.426 -177.4164
16606.918584 81.404 -177.0234
16727.259161 81.384 -176.8606
16848.471777 81.361 -176.9300
16970.562748 81.332 -177.2313
17093.538442 81.293 -177.7634
17217.405268 81.241 -178.5247
17342.169684 81.175 -179.5144
17467.838194 81.091 179.2657
17594.417350 80.990 177.8090
17721.913751 80.868 176.1033
17850.334044 80.723 174.1327
17979.684923 80.551 171.8826
18109.973131 80.344 169.3451
18241.205462 80.097 166.5244
18373.388756 79.800 163.4384
18506.529905 79.445 160.1204
18640.635849 79.023 156.6234
18775.713581 78.525 153.0229
18911.770141 77.945 149.4160
19048.812624 77.280 145.9142
19186.848172 76.531 142.6351
19325.883983 75.707 139.6919
19465.927305 74.828 137.1857
19606.985439 73.934 135.1944
19749.065738 73.095 133.7569
19892.175609 72.419 132.8588
20036.322514 72.035 132.4397
