* Measurement data measured by REW V5.31.3
* Source: Headset (CX31993 HIFI AUDIO), MICROPHONE (Master Volume), R, volume: 0.400
* Format: 256k Log Swept Sine, 1 sweep at -11.9 dBFS with no timing reference
* Dated: 07 7, 25 10:22:13 AM
* REW Settings:
*  C-weighting compensation: Off
*  Target level: 75.0 dB
* Note: ; 
* Measurement: Truthear PURE taped R
* Smoothing: 1/12 octave
* Frequency Step: 96 ppo
* Start Frequency: 0.36621094 Hz
*
* Freq(Hz) SPL(dB) Phase(degrees)
0.366211 47.634 -31.9860
0.368865 47.632 -32.0301
0.371538 47.629 -32.0959
0.374230 47.626 -32.1784
0.376942 47.622 -32.2732
0.379673 47.618 -32.3770
0.382424 47.614 -32.4877
0.385196 47.610 -32.6039
0.387987 47.606 -32.7251
0.390798 47.601 -32.8506
0.393630 47.597 -32.9804
0.396483 47.593 -33.1143
0.399356 47.588 -33.2524
0.402250 47.584 -33.3945
0.405165 47.579 -33.5408
0.408101 47.575 -33.6913
0.411058 47.570 -33.8460
0.414037 47.566 -34.0049
0.417037 47.561 -34.1681
0.420059 47.556 -34.3356
0.423103 47.552 -34.5074
0.426169 47.547 -34.6836
0.429257 47.542 -34.8641
0.432368 47.537 -35.0491
0.435501 47.532 -35.2385
0.438656 47.528 -35.4325
0.441835 47.523 -35.6309
0.445037 47.518 -35.8338
0.448262 47.513 -36.0414
0.451510 47.508 -36.2535
0.454782 47.503 -36.4702
0.458077 47.497 -36.6915
0.461397 47.492 -36.9175
0.464740 47.487 -37.1482
0.468108 47.482 -37.3835
0.471500 47.477 -37.6235
0.474917 47.471 -37.8683
0.478358 47.466 -38.1178
0.481825 47.461 -38.3721
0.485316 47.455 -38.6311
0.488833 47.450 -38.8949
0.492375 47.444 -39.1635
0.495943 47.439 -39.4368
0.499537 47.433 -39.7150
0.503157 47.428 -39.9980
0.506803 47.422 -40.2857
0.510475 47.416 -40.5783
0.514175 47.411 -40.8757
0.517900 47.405 -41.1779
0.521653 47.399 -41.4849
0.525434 47.393 -41.7968
0.529241 47.387 -42.1134
0.533076 47.382 -42.4349
0.536939 47.376 -42.7611
0.540830 47.370 -43.0921
0.544749 47.363 -43.4279
0.548696 47.357 -43.7685
0.552673 47.351 -44.1139
0.556677 47.345 -44.4639
0.560711 47.339 -44.8188
0.564774 47.333 -45.1783
0.568867 47.326 -45.5426
0.572989 47.320 -45.9115
0.577141 47.313 -46.2852
0.581324 47.307 -46.6635
0.585536 47.300 -47.0465
0.589779 47.294 -47.4341
0.594053 47.287 -47.8263
0.598358 47.281 -48.2232
0.602694 47.274 -48.6246
0.607061 47.267 -49.0307
0.611460 47.260 -49.4413
0.615891 47.254 -49.8564
0.620354 47.247 -50.2762
0.624849 47.240 -50.7004
0.629377 47.233 -51.1293
0.633938 47.226 -51.5626
0.638532 47.219 -52.0005
0.643159 47.211 -52.4429
0.647819 47.204 -52.8899
0.652514 47.197 -53.3415
0.657242 47.190 -53.7976
0.662005 47.182 -54.2583
0.666802 47.175 -54.7236
0.671634 47.167 -55.1936
0.676501 47.160 -55.6683
0.681403 47.152 -56.1476
0.686341 47.145 -56.6318
0.691314 47.137 -57.1209
0.696324 47.129 -57.6149
0.701370 47.121 -58.1140
0.706452 47.113 -58.6185
0.711571 47.105 -59.1285
0.716728 47.097 -59.6446
0.721921 47.089 -60.1673
0.727153 47.080 -60.6975
0.732422 47.070 -61.2365
0.737729 47.060 -61.7854
0.743075 47.050 -62.3456
0.748460 47.038 -62.9181
0.753883 47.026 -63.5038
0.759346 47.012 -64.1032
0.764849 46.998 -64.7166
0.770391 46.982 -65.3442
0.775974 46.966 -65.9861
0.781597 46.949 -66.6423
0.787261 46.931 -67.3130
0.792966 46.912 -67.9981
0.798712 46.893 -68.6976
0.804500 46.873 -69.4114
0.810329 46.852 -70.1396
0.816201 46.830 -70.8821
0.822116 46.808 -71.6389
0.828073 46.786 -72.4099
0.834074 46.763 -73.1951
0.840118 46.739 -73.9945
0.846206 46.715 -74.8079
0.852338 46.691 -75.6354
0.858514 46.667 -76.4769
0.864735 46.642 -77.3324
0.871001 46.618 -78.2017
0.877313 46.593 -79.0850
0.883670 46.569 -79.9821
0.890074 46.545 -80.8931
0.896524 46.521 -81.8180
0.903020 46.497 -82.7567
0.909564 46.474 -83.7093
0.916155 46.451 -84.6759
0.922794 46.429 -85.6564
0.929481 46.408 -86.6511
0.936216 46.387 -87.6599
0.943000 46.368 -88.6832
0.949834 46.349 -89.7209
0.956717 46.332 -90.7734
0.963649 46.316 -91.8409
0.970632 46.302 -92.9236
0.977666 46.289 -94.0219
0.984750 46.278 -95.1362
0.991886 46.269 -96.2669
0.999074 46.262 -97.4145
1.006314 46.257 -98.5794
1.013606 46.255 -99.7623
1.020951 46.255 -100.9638
1.028349 46.258 -102.1847
1.035801 46.264 -103.4256
1.043307 46.273 -104.6876
1.050867 46.285 -105.9714
1.058482 46.301 -107.2782
1.066152 46.320 -108.6090
1.073878 46.344 -109.9650
1.081660 46.371 -111.3474
1.089498 46.402 -112.7572
1.097393 46.438 -114.1954
1.105345 46.477 -115.6625
1.113355 46.520 -117.1588
1.121423 46.567 -118.6839
1.129549 46.618 -120.2368
1.137734 46.673 -121.8165
1.145979 46.731 -123.4216
1.154283 46.793 -125.0503
1.162647 46.858 -126.7011
1.171072 46.927 -128.3720
1.179558 47.000 -130.0613
1.188106 47.076 -131.7669
1.196715 47.156 -133.4868
1.205387 47.239 -135.2190
1.214122 47.326 -136.9615
1.222920 47.416 -138.7123
1.231782 47.510 -140.4694
1.240708 47.607 -142.2308
1.249699 47.708 -143.9946
1.258754 47.812 -145.7591
1.267876 47.919 -147.5226
1.277063 48.030 -149.2834
1.286318 48.144 -151.0399
1.295639 48.261 -152.7909
1.305027 48.381 -154.5351
1.314484 48.504 -156.2714
1.324009 48.631 -157.9986
1.333604 48.760 -159.7160
1.343268 48.893 -161.4229
1.353002 49.028 -163.1184
1.362806 49.166 -164.8022
1.372681 49.306 -166.4738
1.382628 49.449 -168.1328
1.392647 49.595 -169.7791
1.402739 49.743 -171.4122
1.412904 49.894 -173.0319
1.423142 50.047 -174.6376
1.433455 50.203 -176.2285
1.443843 50.361 -177.8032
1.454305 50.523 -179.3596
1.464844 50.688 179.1052
1.475459 50.858 177.5946
1.486150 51.032 176.1118
1.496920 51.212 174.6595
1.507767 51.397 173.2390
1.518693 51.587 171.8508
1.529698 51.783 170.4946
1.540783 51.984 169.1694
1.551948 52.191 167.8740
1.563194 52.402 166.6068
1.574521 52.618 165.3660
1.585931 52.838 164.1498
1.597423 53.063 162.9562
1.608999 53.291 161.7833
1.620658 53.523 160.6292
1.632402 53.758 159.4918
1.644232 53.996 158.3694
1.656146 54.236 157.2601
1.668147 54.478 156.1620
1.680235 54.722 155.0734
1.692411 54.967 153.9927
1.704675 55.214 152.9182
1.717028 55.460 151.8484
1.729470 55.707 150.7820
1.742003 55.953 149.7175
1.754626 56.198 148.6541
1.767341 56.441 147.5907
1.780147 56.683 146.5270
1.793047 56.924 145.4632
1.806040 57.162 144.4002
1.819128 57.398 143.3398
1.832310 57.632 142.2850
1.845587 57.865 141.2391
1.858961 58.097 140.2054
1.872432 58.329 139.1864
1.886001 58.560 138.1832
1.899667 58.792 137.1965
1.913433 59.023 136.2257
1.927299 59.254 135.2702
1.941265 59.486 134.3289
1.955332 59.717 133.4003
1.969501 59.949 132.4832
1.983773 60.180 131.5762
1.998148 60.412 130.6777
2.012627 60.643 129.7863
2.027212 60.874 128.9006
2.041902 61.106 128.0192
2.056698 61.337 127.1406
2.071602 61.568 126.2636
2.086614 61.798 125.3870
2.101734 62.029 124.5095
2.116964 62.259 123.6302
2.132304 62.489 122.7485
2.147756 62.718 121.8639
2.163320 62.947 120.9768
2.178996 63.176 120.0880
2.194786 63.404 119.1995
2.210690 63.631 118.3134
2.226710 63.857 117.4324
2.242845 64.083 116.5582
2.259098 64.308 115.6920
2.275468 64.532 114.8343
2.291957 64.756 113.9846
2.308566 64.979 113.1424
2.325295 65.201 112.3067
2.342145 65.422 111.4765
2.359117 65.643 110.6505
2.376212 65.863 109.8275
2.393431 66.082 109.0062
2.410775 66.301 108.1854
2.428244 66.520 107.3638
2.445840 66.738 106.5403
2.463564 66.956 105.7137
2.481416 67.174 104.8831
2.499397 67.391 104.0479
2.517509 67.608 103.2077
2.535752 67.824 102.3628
2.554127 68.040 101.5141
2.572635 68.256 100.6631
2.591277 68.471 99.8117
2.610055 68.685 98.9616
2.628968 68.899 98.1139
2.648019 69.111 97.2692
2.667208 69.323 96.4277
2.686535 69.534 95.5891
2.706003 69.744 94.7528
2.725612 69.954 93.9181
2.745363 70.162 93.0841
2.765257 70.370 92.2499
2.785295 70.578 91.4146
2.805478 70.784 90.5771
2.825808 70.991 89.7365
2.846285 71.196 88.8919
2.866910 71.402 88.0427
2.887685 71.606 87.1886
2.908611 71.810 86.3295
2.929688 72.014 85.4660
2.950917 72.217 84.5992
2.972301 72.419 83.7301
2.993839 72.620 82.8600
3.015534 72.820 81.9895
3.037386 73.019 81.1191
3.059396 73.218 80.2491
3.081565 73.415 79.3792
3.103896 73.611 78.5092
3.126388 73.807 77.6386
3.149043 74.002 76.7670
3.171862 74.196 75.8936
3.194847 74.389 75.0178
3.217998 74.582 74.1388
3.241317 74.774 73.2562
3.264805 74.965 72.3695
3.288463 75.156 71.4785
3.312293 75.345 70.5834
3.336295 75.534 69.6848
3.360471 75.721 68.7834
3.384822 75.908 67.8796
3.409350 76.093 66.9742
3.434056 76.278 66.0677
3.458940 76.461 65.1602
3.484005 76.643 64.2520
3.509252 76.824 63.3429
3.534681 77.005 62.4329
3.560295 77.184 61.5215
3.586094 77.363 60.6083
3.612081 77.540 59.6928
3.638255 77.717 58.7745
3.664620 77.893 57.8531
3.691175 78.067 56.9281
3.717923 78.241 55.9998
3.744864 78.413 55.0684
3.772001 78.584 54.1346
3.799335 78.754 53.1990
3.826866 78.923 52.2621
3.854597 79.090 51.3246
3.882529 79.257 50.3868
3.910664 79.422 49.4489
3.939002 79.586 48.5109
3.967546 79.749 47.5724
3.996296 79.911 46.6331
4.025255 80.072 45.6924
4.054423 80.232 44.7495
4.083804 80.391 43.8040
4.113396 80.548 42.8562
4.143204 80.704 41.9064
4.173227 80.859 40.9551
4.203468 81.012 40.0033
4.233928 81.165 39.0515
4.264609 81.316 38.1005
4.295512 81.466 37.1506
4.326639 81.614 36.2019
4.357992 81.762 35.2542
4.389572 81.909 34.3068
4.421380 82.054 33.3591
4.453419 82.198 32.4105
4.485691 82.341 31.4609
4.518196 82.482 30.5104
4.550936 82.622 29.5598
4.583914 82.761 28.6097
4.617131 82.899 27.6610
4.650589 83.035 26.7143
4.684289 83.171 25.7700
4.718233 83.305 24.8281
4.752424 83.438 23.8883
4.786862 83.571 22.9500
4.821549 83.702 22.0124
4.856488 83.831 21.0754
4.891680 83.960 20.1392
4.927127 84.087 19.2039
4.962831 84.213 18.2705
4.998794 84.339 17.3395
5.035017 84.463 16.4116
5.071503 84.586 15.4868
5.108253 84.708 14.5653
5.145270 84.830 13.6465
5.182555 84.950 12.7300
5.220110 85.069 11.8154
5.257937 85.187 10.9025
5.296038 85.305 9.9917
5.334415 85.421 9.0834
5.373071 85.536 8.1779
5.412006 85.651 7.2757
5.451224 85.765 6.3770
5.490725 85.878 5.4814
5.530514 85.990 4.5889
5.570590 86.102 3.6989
5.610957 86.212 2.8112
5.651616 86.322 1.9257
5.692570 86.432 1.0427
5.733821 86.540 0.1624
5.775370 86.648 -0.7152
5.817221 86.755 -1.5898
5.859375 86.862 -2.4618
5.901834 86.968 -3.3312
5.944602 87.073 -4.1985
5.987679 87.178 -5.0638
6.031068 87.282 -5.9271
6.074771 87.386 -6.7886
6.118792 87.489 -7.6479
6.163131 87.591 -8.5053
6.207792 87.693 -9.3608
6.252776 87.794 -10.2145
6.298086 87.895 -11.0668
6.343725 87.995 -11.9178
6.389694 88.095 -12.7676
6.435996 88.194 -13.6161
6.482634 88.292 -14.4634
6.529610 88.390 -15.3093
6.576926 88.487 -16.1542
6.624585 88.584 -16.9980
6.672590 88.680 -17.8411
6.720942 88.776 -18.6835
6.769645 88.870 -19.5250
6.818700 88.964 -20.3658
6.868111 89.058 -21.2056
6.917881 89.151 -22.0443
6.968010 89.243 -22.8821
7.018504 89.334 -23.7191
7.069362 89.425 -24.5554
7.120590 89.515 -25.3909
7.172189 89.604 -26.2253
7.224161 89.692 -27.0586
7.276511 89.780 -27.8904
7.329239 89.866 -28.7207
7.382350 89.952 -29.5497
7.435845 90.037 -30.3772
7.489729 90.122 -31.2033
7.544002 90.205 -32.0276
7.598669 90.288 -32.8500
7.653732 90.370 -33.6700
7.709194 90.451 -34.4877
7.765058 90.531 -35.3031
7.821327 90.610 -36.1161
7.878004 90.689 -36.9268
7.935091 90.767 -37.7346
7.992592 90.844 -38.5396
8.050510 90.920 -39.3414
8.108847 90.996 -40.1401
8.167607 91.071 -40.9357
8.226793 91.145 -41.7283
8.286408 91.219 -42.5176
8.346454 91.291 -43.3036
8.406936 91.364 -44.0861
8.467856 91.435 -44.8652
8.529218 91.507 -45.6411
8.591024 91.577 -46.4136
8.653278 91.647 -47.1829
8.715983 91.717 -47.9489
8.779143 91.786 -48.7117
8.842760 91.854 -49.4713
8.906839 91.922 -50.2280
8.971381 91.990 -50.9818
9.036392 92.057 -51.7328
9.101873 92.124 -52.4811
9.167829 92.191 -53.2269
9.234263 92.257 -53.9702
9.301178 92.322 -54.7112
9.368578 92.387 -55.4501
9.436467 92.452 -56.1870
9.504847 92.517 -56.9220
9.573723 92.580 -57.6552
9.643099 92.644 -58.3867
9.712976 92.707 -59.1168
9.783361 92.770 -59.8455
9.854255 92.832 -60.5728
9.925663 92.894 -61.2988
9.997588 92.955 -62.0237
10.070035 93.016 -62.7476
10.143007 93.076 -63.4705
10.216507 93.135 -64.1923
10.290540 93.194 -64.9132
10.365109 93.253 -65.6331
10.440219 93.311 -66.3522
10.515873 93.368 -67.0702
10.592076 93.425 -67.7873
10.668830 93.481 -68.5033
10.746141 93.536 -69.2183
10.824012 93.591 -69.9321
10.902447 93.645 -70.6447
10.981451 93.698 -71.3558
11.061027 93.750 -72.0656
11.141180 93.802 -72.7737
11.221913 93.853 -73.4802
11.303232 93.903 -74.1849
11.385140 93.953 -74.8876
11.467641 94.002 -75.5883
11.550741 94.050 -76.2867
11.634442 94.098 -76.9829
11.718750 94.145 -77.6766
11.803669 94.191 -78.3680
11.889203 94.237 -79.0568
11.975357 94.282 -79.7431
12.062136 94.326 -80.4269
12.149543 94.370 -81.1082
12.237583 94.414 -81.7871
12.326262 94.457 -82.4637
12.415583 94.500 -83.1382
12.505552 94.542 -83.8105
12.596172 94.584 -84.4810
12.687449 94.625 -85.1498
12.779387 94.666 -85.8170
12.871992 94.707 -86.4827
12.965268 94.747 -87.1472
13.059220 94.787 -87.8104
13.153852 94.826 -88.4724
13.249170 94.865 -89.1332
13.345179 94.903 -89.7927
13.441884 94.941 -90.4507
13.539289 94.978 -91.1071
13.637401 95.015 -91.7614
13.736223 95.051 -92.4135
13.835761 95.086 -93.0629
13.936021 95.121 -93.7093
14.037007 95.155 -94.3523
14.138725 95.189 -94.9916
14.241180 95.222 -95.6269
14.344377 95.256 -96.2580
14.448323 95.289 -96.8849
14.553021 95.322 -97.5076
14.658478 95.355 -98.1264
14.764700 95.388 -98.7416
14.871691 95.421 -99.3539
14.979457 95.455 -99.9640
15.088005 95.489 -100.5725
15.197339 95.523 -101.1805
15.307465 95.558 -101.7889
15.418389 95.593 -102.3986
15.530117 95.628 -103.0103
15.642655 95.663 -103.6248
15.756008 95.698 -104.2423
15.870182 95.732 -104.8633
15.985184 95.766 -105.4873
16.101019 95.798 -106.1140
16.217694 95.830 -106.7426
16.335214 95.860 -107.3718
16.453586 95.889 -108.0002
16.572815 95.917 -108.6263
16.692909 95.943 -109.2483
16.813872 95.968 -109.8644
16.935713 95.991 -110.4729
17.058436 96.013 -111.0723
17.182048 96.034 -111.6615
17.306556 96.055 -112.2397
17.431967 96.075 -112.8066
17.558286 96.095 -113.3624
17.685521 96.116 -113.9078
17.813677 96.137 -114.4439
17.942762 96.159 -114.9724
18.072783 96.182 -115.4951
18.203746 96.205 -116.0138
18.335658 96.229 -116.5305
18.468526 96.254 -117.0471
18.602356 96.280 -117.5649
18.737156 96.305 -118.0850
18.872934 96.331 -118.6079
19.009695 96.356 -119.1338
19.147447 96.380 -119.6622
19.286197 96.404 -120.1925
19.425953 96.426 -120.7235
19.566721 96.448 -121.2540
19.708510 96.468 -121.7830
19.851326 96.488 -122.3094
19.995177 96.506 -122.8323
20.140070 96.524 -123.3513
20.286013 96.541 -123.8662
20.433014 96.557 -124.3772
20.581080 96.573 -124.8846
20.730219 96.589 -125.3892
20.880439 96.604 -125.8914
21.031747 96.618 -126.3917
21.184152 96.633 -126.8907
21.337661 96.646 -127.3883
21.492282 96.659 -127.8846
21.648024 96.672 -128.3794
21.804895 96.684 -128.8722
21.962902 96.695 -129.3627
22.122054 96.705 -129.8505
22.282360 96.715 -130.3354
22.443827 96.725 -130.8177
22.606464 96.735 -131.2975
22.770280 96.744 -131.7753
22.935283 96.753 -132.2518
23.101481 96.762 -132.7275
23.268884 96.770 -133.2028
23.437500 96.778 -133.6778
23.607338 96.786 -134.1523
23.778406 96.793 -134.6258
23.950714 96.800 -135.0974
24.124271 96.806 -135.5662
24.299086 96.811 -136.0311
24.475167 96.816 -136.4915
24.652524 96.821 -136.9466
24.831166 96.825 -137.3967
25.011103 96.830 -137.8423
25.192344 96.836 -138.2844
25.374898 96.842 -138.7241
25.558775 96.848 -139.1630
25.743984 96.855 -139.6021
25.930536 96.861 -140.0424
26.118439 96.868 -140.4842
26.307704 96.874 -140.9276
26.498341 96.880 -141.3717
26.690359 96.885 -141.8157
26.883768 96.889 -142.2582
27.078579 96.893 -142.6981
27.274801 96.896 -143.1344
27.472446 96.898 -143.5663
27.671522 96.900 -143.9938
27.872042 96.902 -144.4167
28.074014 96.903 -144.8355
28.277450 96.904 -145.2506
28.482360 96.904 -145.6626
28.688755 96.905 -146.0717
28.896645 96.905 -146.4781
29.106042 96.905 -146.8819
29.316957 96.904 -147.2828
29.529400 96.903 -147.6805
29.743382 96.901 -148.0750
29.958915 96.899 -148.4657
30.176009 96.897 -148.8528
30.394677 96.895 -149.2364
30.614929 96.892 -149.6168
30.836778 96.889 -149.9944
31.060234 96.887 -150.3701
31.285309 96.884 -150.7443
31.512015 96.882 -151.1181
31.740364 96.879 -151.4919
31.970368 96.877 -151.8663
32.202039 96.874 -152.2411
32.435388 96.870 -152.6161
32.670428 96.866 -152.9904
32.907171 96.861 -153.3629
33.145630 96.856 -153.7327
33.385817 96.851 -154.0989
33.627745 96.845 -154.4609
33.871425 96.839 -154.8190
34.116871 96.833 -155.1736
34.364096 96.827 -155.5254
34.613113 96.822 -155.8754
34.863934 96.816 -156.2241
35.116572 96.810 -156.5718
35.371041 96.804 -156.9183
35.627354 96.797 -157.2629
35.885525 96.790 -157.6050
36.145566 96.783 -157.9442
36.407492 96.775 -158.2800
36.671316 96.767 -158.6126
36.937051 96.758 -158.9422
37.204712 96.750 -159.2689
37.474313 96.740 -159.5926
37.745867 96.731 -159.9131
38.019389 96.721 -160.2302
38.294893 96.711 -160.5435
38.572394 96.700 -160.8531
38.851905 96.690 -161.1595
39.133442 96.679 -161.4636
39.417019 96.668 -161.7659
39.702651 96.658 -162.0670
39.990353 96.647 -162.3670
40.280140 96.635 -162.6654
40.572026 96.624 -162.9615
40.866028 96.612 -163.2543
41.162160 96.599 -163.5433
41.460438 96.587 -163.8280
41.760877 96.575 -164.1083
42.063494 96.563 -164.3844
42.368303 96.552 -164.6565
42.675322 96.541 -164.9248
42.984565 96.530 -165.1899
43.296048 96.520 -165.4529
43.609789 96.511 -165.7147
43.925804 96.502 -165.9769
44.244108 96.493 -166.2400
44.564719 96.485 -166.5044
44.887654 96.476 -166.7695
45.212928 96.467 -167.0341
45.540560 96.458 -167.2971
45.870565 96.449 -167.5580
46.202962 96.439 -167.8171
46.537768 96.430 -168.0756
46.875000 96.421 -168.3348
47.214676 96.411 -168.5958
47.556813 96.401 -168.8588
47.901429 96.390 -169.1226
48.248542 96.378 -169.3857
48.598171 96.365 -169.6465
48.950334 96.352 -169.9040
49.305048 96.338 -170.1577
49.662333 96.324 -170.4083
50.022206 96.310 -170.6564
50.384688 96.296 -170.9027
50.749796 96.281 -171.1471
51.117550 96.266 -171.3895
51.487969 96.251 -171.6293
51.861072 96.236 -171.8666
52.236879 96.221 -172.1011
52.615409 96.206 -172.3334
52.996681 96.191 -172.5636
53.380717 96.176 -172.7921
53.767536 96.160 -173.0190
54.157158 96.145 -173.2441
54.549603 96.130 -173.4675
54.944892 96.115 -173.6891
55.343045 96.099 -173.9087
55.744084 96.084 -174.1265
56.148028 96.068 -174.3427
56.554900 96.052 -174.5573
56.964720 96.036 -174.7697
57.377510 96.019 -174.9791
57.793291 96.002 -175.1839
58.212085 95.985 -175.3832
58.633914 95.968 -175.5772
59.058799 95.951 -175.7668
59.486764 95.934 -175.9537
59.917829 95.918 -176.1393
60.352019 95.902 -176.3245
60.789354 95.887 -176.5092
61.229859 95.871 -176.6933
61.673556 95.855 -176.8765
62.120468 95.838 -177.0583
62.570618 95.822 -177.2385
63.024031 95.806 -177.4170
63.480729 95.789 -177.5936
63.940736 95.773 -177.7684
64.404077 95.756 -177.9418
64.870776 95.739 -178.1136
65.340856 95.722 -178.2842
65.814343 95.705 -178.4531
66.291261 95.688 -178.6202
66.771635 95.671 -178.7856
67.255489 95.654 -178.9493
67.742850 95.637 -179.1115
68.233743 95.620 -179.2719
68.728193 95.603 -179.4306
69.226226 95.586 -179.5874
69.727867 95.568 -179.7423
70.233144 95.551 -179.8952
70.742083 95.534 179.9538
71.254709 95.517 179.8046
71.771050 95.499 179.6573
72.291132 95.482 179.5120
72.814984 95.465 179.3685
73.342631 95.447 179.2271
73.874102 95.430 179.0879
74.409424 95.413 178.9509
74.948626 95.395 178.8160
75.491734 95.378 178.6832
76.038779 95.360 178.5521
76.589787 95.343 178.4226
77.144788 95.326 178.2944
77.703811 95.308 178.1672
78.266885 95.291 178.0409
78.834039 95.274 177.9156
79.405303 95.256 177.7916
79.980706 95.239 177.6689
80.560280 95.221 177.5479
81.144053 95.204 177.4282
81.732056 95.186 177.3097
82.324320 95.169 177.1921
82.920876 95.152 177.0753
83.521755 95.135 176.9592
84.126988 95.118 176.8441
84.736607 95.100 176.7306
85.350643 95.083 176.6185
85.969129 95.066 176.5081
86.592097 95.049 176.3991
87.219579 95.032 176.2916
87.851608 95.015 176.1857
88.488217 94.998 176.0814
89.129439 94.981 175.9787
89.775308 94.963 175.8774
90.425856 94.946 175.7773
91.081119 94.929 175.6784
91.741131 94.912 175.5808
92.405925 94.895 175.4846
93.075536 94.877 175.3895
93.750000 94.860 175.2955
94.429351 94.843 175.2026
95.113625 94.826 175.1110
95.802858 94.809 175.0203
96.497085 94.792 174.9303
97.196342 94.775 174.8412
97.900667 94.758 174.7535
98.610096 94.741 174.6678
99.324665 94.724 174.5844
100.044413 94.707 174.5025
100.769376 94.691 174.4220
101.499592 94.674 174.3428
102.235100 94.658 174.2649
102.975938 94.641 174.1885
103.722144 94.624 174.1141
104.473757 94.608 174.0419
105.230817 94.591 173.9720
105.993363 94.575 173.9042
106.761435 94.558 173.8376
107.535072 94.543 173.7708
108.314315 94.527 173.7025
109.099206 94.511 173.6323
109.889783 94.495 173.5609
110.686090 94.479 173.4896
111.488167 94.462 173.4199
112.296056 94.445 173.3527
113.109800 94.428 173.2883
113.929440 94.411 173.2263
114.755020 94.394 173.1661
115.586582 94.377 173.1068
116.424170 94.360 173.0474
117.267827 94.343 172.9871
118.117598 94.327 172.9262
118.973527 94.310 172.8656
119.835658 94.294 172.8063
120.704037 94.277 172.7485
121.578708 94.261 172.6918
122.459718 94.246 172.6360
123.347111 94.230 172.5811
124.240935 94.215 172.5275
125.141236 94.199 172.4754
126.048061 94.183 172.4254
126.961458 94.166 172.3777
127.881473 94.150 172.3324
128.808154 94.133 172.2897
129.741551 94.116 172.2491
130.681712 94.100 172.2091
131.628686 94.085 172.1672
132.582521 94.070 172.1221
133.543269 94.055 172.0745
134.510979 94.041 172.0261
135.485701 94.026 171.9790
136.467486 94.011 171.9345
137.456386 93.995 171.8933
138.452451 93.980 171.8551
139.455735 93.964 171.8188
140.466288 93.948 171.7836
141.484165 93.932 171.7489
142.509418 93.917 171.7144
143.542100 93.901 171.6805
144.582265 93.886 171.6478
145.629968 93.871 171.6166
146.685262 93.856 171.5871
147.748204 93.842 171.5585
148.818849 93.827 171.5297
149.897251 93.812 171.4998
150.983469 93.798 171.4678
152.077557 93.784 171.4340
153.179574 93.769 171.3991
154.289576 93.755 171.3638
155.407622 93.740 171.3286
156.533770 93.725 171.2943
157.668078 93.709 171.2616
158.810606 93.693 171.2302
159.961413 93.676 171.1993
161.120559 93.659 171.1693
162.288105 93.642 171.1415
163.464112 93.625 171.1177
164.648640 93.609 171.0971
165.841752 93.594 171.0775
167.043510 93.579 171.0573
168.253976 93.564 171.0366
169.473213 93.547 171.0173
170.701286 93.531 171.0010
171.938258 93.513 170.9883
173.184194 93.496 170.9793
174.439158 93.478 170.9738
175.703216 93.459 170.9714
176.976434 93.441 170.9700
178.258878 93.423 170.9672
179.550615 93.405 170.9620
180.851713 93.388 170.9564
182.162239 93.371 170.9534
183.482262 93.354 170.9547
184.811850 93.336 170.9589
186.151073 93.319 170.9637
187.500000 93.300 170.9686
188.858702 93.282 170.9740
190.227250 93.264 170.9824
191.605715 93.247 170.9979
192.994169 93.229 171.0252
194.392685 93.212 171.0657
195.801334 93.195 171.1163
197.220191 93.177 171.1727
198.649330 93.159 171.2321
200.088825 93.142 171.2938
201.538751 93.125 171.3597
202.999184 93.109 171.4334
204.470200 93.095 171.5193
205.951875 93.081 171.6208
207.444287 93.069 171.7389
208.947514 93.059 171.8720
210.461634 93.051 172.0171
211.986726 93.047 172.1686
213.522869 93.047 172.3188
215.070144 93.051 172.4595
216.628631 93.060 172.5853
218.198411 93.074 172.6938
219.779567 93.091 172.7817
221.372180 93.111 172.8412
222.976334 93.132 172.8613
224.592112 93.153 172.8336
226.219600 93.173 172.7598
227.858880 93.190 172.6509
229.510039 93.204 172.5213
231.173164 93.215 172.3846
232.848340 93.222 172.2507
234.535655 93.225 172.1251
236.235197 93.224 172.0096
237.947054 93.219 171.9039
239.671317 93.211 171.8041
241.408074 93.200 171.7033
243.157416 93.187 171.5953
244.919435 93.172 171.4797
246.694223 93.156 171.3630
248.481871 93.140 171.2528
250.282473 93.124 171.1498
252.096123 93.109 171.0500
253.922915 93.093 170.9514
255.762945 93.077 170.8599
257.616309 93.060 170.7870
259.483103 93.042 170.7418
261.363424 93.024 170.7245
263.257372 93.006 170.7253
265.165043 92.989 170.7297
267.086538 92.973 170.7263
269.021957 92.958 170.7094
270.971401 92.944 170.6786
272.934972 92.930 170.6369
274.912771 92.915 170.5881
276.904902 92.900 170.5369
278.911469 92.884 170.4886
280.932577 92.869 170.4482
282.968330 92.853 170.4181
285.018835 92.838 170.3982
287.084199 92.823 170.3859
289.164530 92.808 170.3775
291.259935 92.793 170.3703
293.370525 92.777 170.3628
295.496408 92.762 170.3550
297.637697 92.746 170.3467
299.794503 92.731 170.3377
301.966937 92.715 170.3282
304.155114 92.700 170.3188
306.359147 92.684 170.3104
308.579152 92.669 170.3035
310.815244 92.653 170.2984
313.067539 92.637 170.2950
315.336156 92.621 170.2934
317.621211 92.605 170.2931
319.922826 92.589 170.2938
322.241118 92.574 170.2952
324.576210 92.558 170.2969
326.928223 92.542 170.2987
329.297280 92.527 170.3008
331.683504 92.511 170.3033
334.087019 92.495 170.3069
336.507952 92.479 170.3115
338.946427 92.463 170.3173
341.402572 92.447 170.3243
343.876516 92.431 170.3325
346.368387 92.415 170.3419
348.878315 92.399 170.3522
351.406431 92.383 170.3632
353.952867 92.367 170.3748
356.517756 92.351 170.3868
359.101230 92.335 170.3997
361.703426 92.319 170.4131
364.324478 92.303 170.4270
366.964523 92.288 170.4410
369.623699 92.272 170.4551
372.302145 92.256 170.4689
375.000000 92.240 170.4825
377.717405 92.223 170.4964
380.454501 92.207 170.5109
383.211431 92.190 170.5265
385.988339 92.174 170.5439
388.785369 92.157 170.5631
391.602668 92.140 170.5839
394.440383 92.123 170.6060
397.298660 92.106 170.6293
400.177650 92.089 170.6536
403.077502 92.071 170.6789
405.998368 92.054 170.7053
408.940400 92.036 170.7330
411.903750 92.019 170.7619
414.888575 92.001 170.7920
417.895028 91.983 170.8232
420.923268 91.965 170.8557
423.973452 91.947 170.8893
427.045738 91.930 170.9239
430.140287 91.912 170.9595
433.257261 91.894 170.9962
436.396822 91.876 171.0341
439.559133 91.858 171.0737
442.744360 91.840 171.1147
445.952668 91.822 171.1574
449.184225 91.804 171.2014
452.439199 91.786 171.2466
455.717760 91.768 171.2930
459.020079 91.750 171.3403
462.346327 91.732 171.3883
465.696680 91.714 171.4365
469.071310 91.696 171.4846
472.470394 91.678 171.5326
475.894109 91.660 171.5804
479.342634 91.642 171.6283
482.816148 91.623 171.6761
486.314833 91.605 171.7241
489.838871 91.586 171.7726
493.388445 91.567 171.8221
496.963741 91.547 171.8728
500.564945 91.527 171.9252
504.192245 91.507 171.9794
507.845830 91.487 172.0355
511.525890 91.466 172.0938
515.232618 91.445 172.1540
518.966206 91.424 172.2163
522.726849 91.402 172.2809
526.514743 91.381 172.3478
530.330086 91.359 172.4174
534.173076 91.337 172.4899
538.043915 91.315 172.5656
541.942803 91.292 172.6445
545.869944 91.269 172.7271
549.825542 91.246 172.8134
553.809805 91.223 172.9033
557.822939 91.200 172.9968
561.865154 91.176 173.0939
565.936660 91.153 173.1943
570.037671 91.130 173.2980
574.168399 91.106 173.4050
578.329060 91.083 173.5154
582.519870 91.060 173.6295
586.741049 91.036 173.7474
590.992817 91.013 173.8691
595.275394 90.990 173.9948
599.589005 90.967 174.1241
603.933874 90.943 174.2569
608.310228 90.920 174.3931
612.718295 90.897 174.5328
617.158304 90.874 174.6759
621.630488 90.851 174.8224
626.135079 90.828 174.9724
630.672311 90.806 175.1262
635.242423 90.783 175.2842
639.845651 90.760 175.4467
644.482237 90.738 175.6135
649.152421 90.715 175.7848
653.856447 90.693 175.9604
658.594560 90.671 176.1405
663.367008 90.649 176.3250
668.174039 90.628 176.5139
673.015903 90.606 176.7072
677.892854 90.585 176.9049
682.805145 90.564 177.1071
687.753032 90.544 177.3138
692.736774 90.524 177.5251
697.756631 90.504 177.7410
702.812863 90.484 177.9615
707.905735 90.465 178.1869
713.035511 90.446 178.4171
718.202461 90.428 178.6526
723.406852 90.410 178.8933
728.648956 90.392 179.1393
733.929047 90.375 179.3904
739.247399 90.359 179.6462
744.604290 90.343 179.9066
750.000000 90.328 -179.8285
755.434809 90.313 -179.5591
760.909001 90.299 -179.2851
766.422861 90.286 -179.0062
771.976677 90.274 -178.7222
777.570739 90.262 -178.4330
783.205337 90.251 -178.1387
788.880766 90.241 -177.8396
794.597321 90.232 -177.5359
800.355301 90.224 -177.2281
806.155005 90.217 -176.9164
811.996736 90.211 -176.6012
817.880799 90.206 -176.2823
823.807501 90.202 -175.9599
829.777150 90.199 -175.6340
835.790057 90.198 -175.3048
841.846536 90.197 -174.9726
847.946903 90.198 -174.6376
854.091476 90.200 -174.3000
860.280575 90.204 -173.9604
866.514523 90.209 -173.6193
872.793644 90.215 -173.2772
879.118267 90.223 -172.9344
885.488720 90.232 -172.5914
891.905336 90.243 -172.2483
898.368450 90.255 -171.9054
904.878398 90.269 -171.5630
911.435520 90.284 -171.2218
918.040157 90.301 -170.8822
924.692655 90.319 -170.5449
931.393359 90.339 -170.2103
938.142619 90.360 -169.8789
944.940787 90.383 -169.5513
951.788218 90.407 -169.2280
958.685268 90.433 -168.9094
965.632296 90.460 -168.5963
972.629666 90.489 -168.2892
979.677741 90.519 -167.9888
986.776890 90.550 -167.6955
993.927482 90.582 -167.4097
1001.129891 90.616 -167.1315
1008.384491 90.651 -166.8616
1015.691660 90.686 -166.6003
1023.051781 90.723 -166.3480
1030.465236 90.761 -166.1052
1037.932411 90.799 -165.8719
1045.453698 90.838 -165.6486
1053.029486 90.878 -165.4354
1060.660172 90.918 -165.2322
1068.346153 90.959 -165.0391
1076.087829 91.000 -164.8561
1083.885605 91.041 -164.6833
1091.739887 91.083 -164.5208
1099.651084 91.124 -164.3683
1107.619609 91.165 -164.2257
1115.645878 91.206 -164.0929
1123.730308 91.247 -163.9698
1131.873321 91.288 -163.8563
1140.075341 91.328 -163.7521
1148.336797 91.368 -163.6569
1156.658119 91.407 -163.5698
1165.039741 91.445 -163.4905
1173.482099 91.483 -163.4183
1181.985634 91.521 -163.3528
1190.550789 91.557 -163.2935
1199.178011 91.593 -163.2399
1207.867749 91.628 -163.1917
1216.620457 91.662 -163.1481
1225.436590 91.695 -163.1088
1234.316609 91.727 -163.0734
1243.260976 91.759 -163.0411
1252.270157 91.789 -163.0117
1261.344623 91.819 -162.9845
1270.484846 91.848 -162.9592
1279.691303 91.875 -162.9352
1288.964474 91.902 -162.9119
1298.304842 91.928 -162.8889
1307.712894 91.954 -162.8659
1317.189120 91.978 -162.8423
1326.734016 92.002 -162.8179
1336.348077 92.025 -162.7921
1346.031806 92.048 -162.7645
1355.785708 92.070 -162.7350
1365.610290 92.091 -162.7032
1375.506065 92.112 -162.6689
1385.473549 92.132 -162.6323
1395.513261 92.152 -162.5930
1405.625726 92.172 -162.5508
1415.811469 92.191 -162.5057
1426.071023 92.210 -162.4575
1436.404921 92.229 -162.4058
1446.813703 92.248 -162.3507
1457.297912 92.266 -162.2920
1467.858093 92.285 -162.2297
1478.494798 92.303 -162.1638
1489.208581 92.321 -162.0941
1500.000000 92.340 -162.0209
1510.869618 92.359 -161.9443
1521.818002 92.378 -161.8644
1532.845723 92.397 -161.7811
1543.953355 92.417 -161.6946
1555.141477 92.436 -161.6047
1566.410674 92.457 -161.5115
1577.761531 92.477 -161.4152
1589.194642 92.498 -161.3158
1600.710601 92.520 -161.2133
1612.310010 92.542 -161.1078
1623.993473 92.565 -160.9995
1635.761599 92.588 -160.8884
1647.615002 92.612 -160.7750
1659.554299 92.636 -160.6595
1671.580114 92.662 -160.5422
1683.693072 92.688 -160.4233
1695.893807 92.715 -160.3030
1708.182952 92.743 -160.1813
1720.561150 92.771 -160.0584
1733.029045 92.801 -159.9346
1745.587288 92.831 -159.8102
1758.236533 92.862 -159.6851
1770.977440 92.895 -159.5597
1783.810673 92.928 -159.4342
1796.736900 92.962 -159.3089
1809.756796 92.997 -159.1841
1822.871040 93.033 -159.0601
1836.080315 93.071 -158.9373
1849.385310 93.109 -158.8158
1862.786718 93.149 -158.6960
1876.285239 93.189 -158.5784
1889.881575 93.231 -158.4631
1903.576436 93.274 -158.3505
1917.370535 93.318 -158.2410
1931.264593 93.363 -158.1350
1945.259332 93.409 -158.0328
1959.355483 93.457 -157.9344
1973.553781 93.506 -157.8400
1987.854965 93.556 -157.7497
2002.259781 93.608 -157.6644
2016.768981 93.661 -157.5848
2031.383320 93.715 -157.5118
2046.103561 93.771 -157.4456
2060.930471 93.827 -157.3867
2075.864823 93.885 -157.3355
2090.907395 93.944 -157.2924
2106.058972 94.004 -157.2576
2121.320344 94.065 -157.2317
2136.692305 94.127 -157.2153
2152.175658 94.191 -157.2090
2167.771210 94.256 -157.2133
2183.479774 94.321 -157.2287
2199.302169 94.388 -157.2557
2215.239219 94.456 -157.2948
2231.291755 94.525 -157.3465
2247.460615 94.594 -157.4113
2263.746641 94.664 -157.4897
2280.150683 94.736 -157.5824
2296.673595 94.807 -157.6897
2313.316238 94.880 -157.8118
2330.079481 94.952 -157.9491
2346.964198 95.026 -158.1020
2363.971268 95.099 -158.2709
2381.101578 95.173 -158.4565
2398.356022 95.247 -158.6593
2415.735498 95.321 -158.8796
2433.240913 95.396 -159.1179
2450.873180 95.469 -159.3743
2468.633217 95.543 -159.6490
2486.521951 95.616 -159.9421
2504.540314 95.689 -160.2534
2522.689246 95.762 -160.5830
2540.969692 95.833 -160.9312
2559.382606 95.905 -161.2981
2577.928947 95.975 -161.6843
2596.609683 96.045 -162.0905
2615.425787 96.114 -162.5172
2634.378241 96.183 -162.9653
2653.468031 96.250 -163.4360
2672.696154 96.317 -163.9301
2692.063613 96.382 -164.4490
2711.571415 96.445 -164.9939
2731.220579 96.507 -165.5659
2751.012130 96.566 -166.1662
2770.947098 96.624 -166.7954
2791.026522 96.678 -167.4539
2811.251451 96.728 -168.1417
2831.622938 96.775 -168.8580
2852.142045 96.816 -169.6019
2872.809842 96.853 -170.3716
2893.627406 96.885 -171.1649
2914.595823 96.910 -171.9792
2935.716186 96.929 -172.8116
2956.989596 96.941 -173.6586
2978.417161 96.947 -174.5165
3000.000000 96.945 -175.3814
3021.739237 96.936 -176.2492
3043.636005 96.920 -177.1156
3065.691446 96.897 -177.9763
3087.906710 96.866 -178.8271
3110.282955 96.829 -179.6639
3132.821347 96.785 179.5171
3155.523062 96.735 178.7192
3178.389283 96.679 177.9455
3201.421202 96.618 177.1981
3224.620020 96.552 176.4789
3247.986946 96.483 175.7890
3271.523198 96.409 175.1290
3295.230004 96.333 174.4989
3319.108599 96.254 173.8979
3343.160228 96.173 173.3253
3367.386145 96.090 172.7797
3391.787613 96.006 172.2599
3416.365904 95.919 171.7651
3441.122300 95.832 171.2943
3466.058091 95.742 170.8471
3491.174576 95.651 170.4236
3516.473066 95.559 170.0244
3541.954880 95.466 169.6499
3567.621345 95.371 169.3013
3593.473800 95.274 168.9796
3619.513592 95.177 168.6858
3645.742080 95.079 168.4211
3672.160630 94.981 168.1864
3698.770620 94.883 167.9825
3725.573436 94.785 167.8093
3752.570477 94.688 167.6663
3779.763150 94.592 167.5522
3807.152872 94.499 167.4650
3834.741071 94.408 167.4020
3862.529185 94.319 167.3596
3890.518664 94.234 167.3341
3918.710966 94.151 167.3210
3947.107561 94.071 167.3160
3975.709929 93.994 167.3156
4004.519563 93.920 167.3168
4033.537962 93.847 167.3181
4062.766641 93.775 167.3189
4092.207123 93.704 167.3194
4121.860942 93.634 167.3202
4151.729646 93.565 167.3222
4181.814790 93.495 167.3262
4212.117944 93.427 167.3325
4242.640687 93.358 167.3417
4273.384610 93.290 167.3533
4304.351317 93.223 167.3671
4335.542421 93.156 167.3823
4366.959549 93.089 167.3979
4398.604338 93.022 167.4128
4430.478438 92.956 167.4261
4462.583511 92.889 167.4370
4494.921231 92.822 167.4447
4527.493283 92.755 167.4492
4560.301365 92.686 167.4506
4593.347189 92.616 167.4499
4626.632476 92.544 167.4489
4660.158962 92.470 167.4497
4693.928395 92.394 167.4554
4727.942535 92.315 167.4692
4762.203156 92.234 167.4948
4796.712043 92.151 167.5350
4831.470996 92.066 167.5927
4866.481826 91.979 167.6697
4901.746360 91.891 167.7670
4937.266434 91.803 167.8853
4973.043902 91.713 168.0244
5009.080628 91.624 168.1844
5045.378492 91.534 168.3651
5081.939384 91.444 168.5668
5118.765212 91.353 168.7906
5155.857894 91.263 169.0381
5193.219366 91.172 169.3112
5230.851574 91.082 169.6119
5268.756481 90.993 169.9423
5306.936062 90.905 170.3041
5345.392309 90.819 170.6982
5384.127225 90.735 171.1248
5423.142830 90.655 171.5826
5462.441159 90.578 172.0690
5502.024259 90.507 172.5799
5541.894195 90.440 173.1097
5582.053045 90.380 173.6516
5622.502902 90.324 174.1985
5663.245876 90.275 174.7429
5704.284090 90.230 175.2780
5745.619684 90.189 175.7982
5787.254813 90.151 176.2998
5829.191647 90.114 176.7815
5871.432373 90.078 177.2442
5913.979192 90.041 177.6912
5956.834323 90.003 178.1277
6000.000000 89.962 178.5612
6043.478473 89.918 178.9995
6087.272010 89.870 179.4513
6131.382892 89.821 179.9247
6175.813420 89.769 -179.5725
6220.565910 89.715 -179.0337
6265.642695 89.661 -178.4536
6311.046124 89.607 -177.8280
6356.778566 89.554 -177.1541
6402.842404 89.505 -176.4301
6449.240040 89.459 -175.6553
6495.973891 89.418 -174.8300
6543.046396 89.383 -173.9554
6590.460007 89.355 -173.0337
6638.217197 89.336 -172.0674
6686.320456 89.326 -171.0603
6734.772290 89.327 -170.0168
6783.575226 89.340 -168.9417
6832.731809 89.367 -167.8401
6882.244600 89.407 -166.7172
6932.116181 89.461 -165.5792
6982.349153 89.531 -164.4331
7032.946133 89.617 -163.2874
7083.909760 89.720 -162.1505
7135.242690 89.840 -161.0305
7186.947600 89.978 -159.9341
7239.027185 90.135 -158.8666
7291.484160 90.313 -157.8354
7344.321260 90.514 -156.8533
7397.541239 90.741 -155.9420
7451.146872 90.993 -155.1292
7505.140954 91.272 -154.4456
7559.526299 91.577 -153.9223
7614.305743 91.907 -153.5913
7669.482141 92.260 -153.4869
7725.058371 92.633 -153.6453
7781.037328 93.023 -154.1035
7837.421932 93.422 -154.8964
7894.215122 93.824 -156.0524
7951.419859 94.219 -157.5892
8009.039125 94.599 -159.5096
8067.075924 94.957 -161.7994
8125.533282 95.286 -164.4313
8184.414245 95.584 -167.3771
8243.721885 95.854 -170.6296
8303.459292 96.089 -174.2213
8363.629581 96.272 -178.2084
8424.235888 96.372 177.4026
8485.281374 96.351 172.7385
8546.769221 96.191 168.0427
8608.702634 95.894 163.5776
8671.084842 95.481 159.5536
8733.919097 94.978 156.1073
8797.208675 94.418 153.3039
8860.956876 93.831 151.1423
8925.167022 93.247 149.5591
8989.842461 92.688 148.4388
9054.986566 92.165 147.6379
9120.602731 91.682 147.0241
9186.694378 91.228 146.5111
9253.264952 90.794 146.0692
9320.317925 90.367 145.7096
9387.856790 89.944 145.4594
9455.885071 89.521 145.3425
9524.406312 89.100 145.3732
9593.424086 88.683 145.5570
9662.941992 88.270 145.8975
9732.963653 87.863 146.4007
9803.492719 87.464 147.0766
9874.532869 87.076 147.9360
9946.087805 86.706 148.9832
10018.161257 86.358 150.2070
10090.756983 86.041 151.5750
10163.878768 85.759 153.0323
10237.530423 85.516 154.5095
10311.715789 85.310 155.9343
10386.438732 85.137 157.2447
10461.703149 84.988 158.3973
10537.512962 84.856 159.3710
10613.872125 84.730 160.1655
10690.784618 84.602 160.7974
10768.254450 84.465 161.2964
10846.285661 84.314 161.7006
10924.882318 84.144 162.0526
11004.048518 83.954 162.3973
11083.788390 83.743 162.7781
11164.106090 83.513 163.2355
11245.005805 83.267 163.8045
11326.491752 83.007 164.5131
11408.568180 82.737 165.3816
11491.239368 82.464 166.4219
11574.509626 82.190 167.6378
11658.383294 81.922 169.0256
11742.864745 81.662 170.5750
11827.958384 81.416 172.2704
11913.668646 81.186 174.0931
12000.000000 80.975 176.0233
12086.956947 80.783 178.0422
12174.544019 80.611 -179.8661
12262.765784 80.459 -177.7138
12351.626840 80.326 -175.5090
12441.131819 80.214 -173.2574
12531.285389 80.122 -170.9662
12622.092249 80.051 -168.6473
12713.557132 80.003 -166.3165
12805.684808 79.977 -163.9913
12898.480079 79.972 -161.6864
12991.947783 79.987 -159.4128
13086.092792 80.022 -157.1777
13180.920015 80.077 -154.9869
13276.434395 80.152 -152.8463
13372.640911 80.249 -150.7630
13469.544580 80.367 -148.7471
13567.150452 80.510 -146.8108
13665.463617 80.678 -144.9674
13764.489200 80.872 -143.2306
13864.232362 81.094 -141.6157
13964.698305 81.345 -140.1418
14065.892266 81.627 -138.8336
14167.819519 81.942 -137.7230
14270.485380 82.292 -136.8500
14373.895200 82.676 -136.2618
14478.054370 83.093 -136.0123
14582.968320 83.540 -136.1594
14688.642520 84.009 -136.7620
14795.082478 84.492 -137.8765
14902.293745 84.978 -139.5524
15010.281908 85.452 -141.8257
15119.052599 85.896 -144.7125
15228.611486 86.291 -148.2018
15338.964283 86.617 -152.2497
15450.116741 86.854 -156.7764
15562.074656 86.986 -161.6666
15674.843864 87.001 -166.7759
15788.430244 86.893 -171.9411
15902.839718 86.663 -176.9942
16018.078250 86.317 178.2225
16134.151848 85.868 173.8438
16251.066563 85.332 169.9734
16368.828491 84.727 166.6808
16487.443769 84.073 164.0016
16606.918584 83.389 161.9413
16727.259161 82.691 160.4805
16848.471777 81.993 159.5811
16970.562748 81.306 159.1948
17093.538442 80.640 159.2709
17217.405268 79.999 159.7670
17342.169684 79.388 160.6591
17467.838194 78.809 161.9465
17594.417350 78.272 163.6404
17721.913751 77.791 165.7208
17850.334044 77.389 168.0636
17979.684923 77.079 170.3963
18109.973131 76.856 172.3716
18241.205462 76.686 173.7442
18373.388756 76.526 174.4756
18506.529905 76.339 174.6829
18640.635849 76.102 174.5306
18775.713581 75.807 174.1614
18911.770141 75.451 173.6778
19048.812624 75.034 173.1492
19186.848172 74.561 172.6224
19325.883983 74.037 172.1292
19465.927305 73.476 171.6924
19606.985439 72.906 171.3309
19749.065738 72.372 171.0602
19892.175609 71.946 170.8883
20036.322514 71.706 170.8090
