* Measurement data measured by REW V5.31.3
* Source: Headset (CX31993 HIFI AUDIO), MICROPHONE (Master Volume), R, volume: 0.400
* Format: 256k Log Swept Sine, 1 sweep at -11.9 dBFS with no timing reference
* Dated: 06 25, 25 11:52:04 AM
* REW Settings:
*  C-weighting compensation: Off
*  Target level: 75.0 dB
* Note: ; 
* Measurement: Xiaomi Buds 6 Play R
* Smoothing: 1/12 octave
* Frequency Step: 96 ppo
* Start Frequency: 0.36621094 Hz
*
* Freq(Hz) SPL(dB) Phase(degrees)
0.366211 42.826 1.0677
0.368865 42.832 1.0842
0.371538 42.841 1.1087
0.374230 42.852 1.1392
0.376942 42.864 1.1739
0.379673 42.877 1.2114
0.382424 42.891 1.2510
0.385196 42.905 1.2921
0.387987 42.920 1.3344
0.390798 42.934 1.3778
0.393630 42.949 1.4221
0.396483 42.964 1.4674
0.399356 42.979 1.5135
0.402250 42.994 1.5606
0.405165 43.009 1.6086
0.408101 43.025 1.6576
0.411058 43.040 1.7074
0.414037 43.056 1.7582
0.417037 43.071 1.8100
0.420059 43.087 1.8628
0.423103 43.103 1.9165
0.426169 43.119 1.9713
0.429257 43.135 2.0270
0.432368 43.151 2.0838
0.435501 43.168 2.1416
0.438656 43.184 2.2004
0.441835 43.201 2.2603
0.445037 43.218 2.3212
0.448262 43.234 2.3833
0.451510 43.251 2.4464
0.454782 43.268 2.5106
0.458077 43.286 2.5759
0.461397 43.303 2.6424
0.464740 43.320 2.7099
0.468108 43.338 2.7786
0.471500 43.356 2.8485
0.474917 43.374 2.9195
0.478358 43.392 2.9917
0.481825 43.410 3.0651
0.485316 43.428 3.1396
0.488833 43.446 3.2154
0.492375 43.465 3.2923
0.495943 43.483 3.3705
0.499537 43.502 3.4499
0.503157 43.521 3.5305
0.506803 43.540 3.6123
0.510475 43.559 3.6953
0.514175 43.579 3.7796
0.517900 43.598 3.8652
0.521653 43.618 3.9519
0.525434 43.637 4.0400
0.529241 43.657 4.1293
0.533076 43.677 4.2198
0.536939 43.698 4.3116
0.540830 43.718 4.4046
0.544749 43.738 4.4989
0.548696 43.759 4.5945
0.552673 43.780 4.6913
0.556677 43.801 4.7893
0.560711 43.822 4.8886
0.564774 43.843 4.9891
0.568867 43.864 5.0908
0.572989 43.886 5.1938
0.577141 43.907 5.2979
0.581324 43.929 5.4033
0.585536 43.951 5.5099
0.589779 43.973 5.6176
0.594053 43.996 5.7265
0.598358 44.018 5.8365
0.602694 44.041 5.9476
0.607061 44.064 6.0599
0.611460 44.087 6.1733
0.615891 44.110 6.2877
0.620354 44.133 6.4031
0.624849 44.157 6.5196
0.629377 44.180 6.6371
0.633938 44.204 6.7555
0.638532 44.228 6.8749
0.643159 44.252 6.9952
0.647819 44.277 7.1163
0.652514 44.301 7.2383
0.657242 44.326 7.3611
0.662005 44.351 7.4846
0.666802 44.376 7.6089
0.671634 44.401 7.7338
0.676501 44.426 7.8594
0.681403 44.452 7.9855
0.686341 44.478 8.1122
0.691314 44.504 8.2394
0.696324 44.530 8.3671
0.701370 44.557 8.4952
0.706452 44.584 8.6237
0.711571 44.612 8.7526
0.716728 44.641 8.8819
0.721921 44.671 9.0118
0.727153 44.704 9.1425
0.732422 44.739 9.2742
0.737729 44.777 9.4073
0.743075 44.818 9.5420
0.748460 44.862 9.6787
0.753883 44.908 9.8173
0.759346 44.955 9.9581
0.764849 45.004 10.1010
0.770391 45.054 10.2458
0.775974 45.106 10.3926
0.781597 45.159 10.5411
0.787261 45.213 10.6912
0.792966 45.268 10.8428
0.798712 45.324 10.9958
0.804500 45.382 11.1499
0.810329 45.440 11.3050
0.816201 45.500 11.4610
0.822116 45.561 11.6176
0.828073 45.623 11.7747
0.834074 45.686 11.9322
0.840118 45.750 12.0898
0.846206 45.815 12.2473
0.852338 45.882 12.4047
0.858514 45.949 12.5616
0.864735 46.018 12.7179
0.871001 46.087 12.8734
0.877313 46.158 13.0280
0.883670 46.230 13.1813
0.890074 46.303 13.3333
0.896524 46.377 13.4837
0.903020 46.451 13.6323
0.909564 46.527 13.7789
0.916155 46.604 13.9234
0.922794 46.682 14.0654
0.929481 46.761 14.2049
0.936216 46.841 14.3416
0.943000 46.921 14.4752
0.949834 47.003 14.6057
0.956717 47.086 14.7328
0.963649 47.169 14.8562
0.970632 47.253 14.9758
0.977666 47.338 15.0915
0.984750 47.424 15.2029
0.991886 47.510 15.3099
0.999074 47.597 15.4123
1.006314 47.685 15.5099
1.013606 47.774 15.6025
1.020951 47.863 15.6899
1.028349 47.953 15.7719
1.035801 48.043 15.8485
1.043307 48.134 15.9193
1.050867 48.225 15.9843
1.058482 48.316 16.0434
1.066152 48.409 16.0965
1.073878 48.501 16.1438
1.081660 48.594 16.1855
1.089498 48.687 16.2220
1.097393 48.782 16.2541
1.105345 48.876 16.2824
1.113355 48.972 16.3079
1.121423 49.069 16.3313
1.129549 49.167 16.3530
1.137734 49.267 16.3731
1.145979 49.367 16.3918
1.154283 49.469 16.4090
1.162647 49.572 16.4245
1.171072 49.677 16.4382
1.179558 49.782 16.4499
1.188106 49.889 16.4594
1.196715 49.997 16.4664
1.205387 50.106 16.4707
1.214122 50.216 16.4722
1.222920 50.327 16.4705
1.231782 50.440 16.4656
1.240708 50.553 16.4572
1.249699 50.667 16.4451
1.258754 50.782 16.4291
1.267876 50.899 16.4090
1.277063 51.016 16.3846
1.286318 51.133 16.3557
1.295639 51.252 16.3222
1.305027 51.371 16.2838
1.314484 51.491 16.2403
1.324009 51.612 16.1916
1.333604 51.733 16.1375
1.343268 51.855 16.0778
1.353002 51.977 16.0124
1.362806 52.099 15.9410
1.372681 52.222 15.8635
1.382628 52.345 15.7798
1.392647 52.469 15.6896
1.402739 52.592 15.5930
1.412904 52.715 15.4897
1.423142 52.839 15.3799
1.433455 52.962 15.2636
1.443843 53.085 15.1410
1.454305 53.209 15.0127
1.464844 53.332 14.8792
1.475459 53.456 14.7415
1.486150 53.579 14.6003
1.496920 53.703 14.4563
1.507767 53.828 14.3098
1.518693 53.952 14.1610
1.529698 54.077 14.0100
1.540783 54.203 13.8566
1.551948 54.329 13.7009
1.563194 54.455 13.5425
1.574521 54.582 13.3813
1.585931 54.709 13.2172
1.597423 54.836 13.0499
1.608999 54.964 12.8791
1.620658 55.092 12.7048
1.632402 55.220 12.5267
1.644232 55.349 12.3446
1.656146 55.477 12.1583
1.668147 55.606 11.9676
1.680235 55.736 11.7724
1.692411 55.865 11.5723
1.704675 55.995 11.3673
1.717028 56.124 11.1570
1.729470 56.254 10.9415
1.742003 56.384 10.7204
1.754626 56.514 10.4936
1.767341 56.645 10.2610
1.780147 56.775 10.0225
1.793047 56.905 9.7782
1.806040 57.035 9.5281
1.819128 57.165 9.2724
1.832310 57.295 9.0117
1.845587 57.425 8.7465
1.858961 57.555 8.4772
1.872432 57.685 8.2045
1.886001 57.815 7.9286
1.899667 57.944 7.6497
1.913433 58.074 7.3681
1.927299 58.203 7.0837
1.941265 58.332 6.7966
1.955332 58.461 6.5069
1.969501 58.591 6.2145
1.983773 58.720 5.9195
1.998148 58.849 5.6216
2.012627 58.977 5.3211
2.027212 59.106 5.0177
2.041902 59.235 4.7114
2.056698 59.364 4.4022
2.071602 59.493 4.0900
2.086614 59.621 3.7747
2.101734 59.750 3.4563
2.116964 59.879 3.1346
2.132304 60.008 2.8097
2.147756 60.137 2.4815
2.163320 60.265 2.1500
2.178996 60.394 1.8153
2.194786 60.523 1.4775
2.210690 60.652 1.1369
2.226710 60.780 0.7936
2.242845 60.908 0.4480
2.259098 61.036 0.1001
2.275468 61.164 -0.2499
2.291957 61.291 -0.6019
2.308566 61.418 -0.9558
2.325295 61.545 -1.3117
2.342145 61.672 -1.6695
2.359117 61.798 -2.0292
2.376212 61.925 -2.3909
2.393431 62.051 -2.7546
2.410775 62.177 -3.1202
2.428244 62.303 -3.4879
2.445840 62.429 -3.8576
2.463564 62.555 -4.2295
2.481416 62.681 -4.6034
2.499397 62.807 -4.9796
2.517509 62.933 -5.3579
2.535752 63.059 -5.7383
2.554127 63.185 -6.1208
2.572635 63.311 -6.5051
2.591277 63.436 -6.8913
2.610055 63.562 -7.2790
2.628968 63.687 -7.6682
2.648019 63.812 -8.0590
2.667208 63.937 -8.4511
2.686535 64.062 -8.8448
2.706003 64.186 -9.2401
2.725612 64.310 -9.6369
2.745363 64.434 -10.0355
2.765257 64.558 -10.4359
2.785295 64.682 -10.8381
2.805478 64.806 -11.2423
2.825808 64.930 -11.6486
2.846285 65.054 -12.0571
2.866910 65.177 -12.4677
2.887685 65.301 -12.8805
2.908611 65.425 -13.2955
2.929688 65.549 -13.7125
2.950917 65.672 -14.1313
2.972301 65.796 -14.5518
2.993839 65.920 -14.9739
3.015534 66.043 -15.3975
3.037386 66.166 -15.8226
3.059396 66.289 -16.2494
3.081565 66.412 -16.6779
3.103896 66.534 -17.1083
3.126388 66.657 -17.5408
3.149043 66.779 -17.9755
3.171862 66.902 -18.4127
3.194847 67.024 -18.8524
3.217998 67.146 -19.2949
3.241317 67.268 -19.7403
3.264805 67.390 -20.1885
3.288463 67.512 -20.6397
3.312293 67.633 -21.0936
3.336295 67.755 -21.5502
3.360471 67.876 -22.0093
3.384822 67.998 -22.4707
3.409350 68.119 -22.9345
3.434056 68.239 -23.4006
3.458940 68.360 -23.8690
3.484005 68.480 -24.3399
3.509252 68.600 -24.8134
3.534681 68.720 -25.2896
3.560295 68.839 -25.7687
3.586094 68.958 -26.2508
3.612081 69.077 -26.7361
3.638255 69.196 -27.2248
3.664620 69.314 -27.7170
3.691175 69.432 -28.2127
3.717923 69.549 -28.7119
3.744864 69.666 -29.2144
3.772001 69.783 -29.7201
3.799335 69.899 -30.2287
3.826866 70.015 -30.7399
3.854597 70.130 -31.2536
3.882529 70.245 -31.7697
3.910664 70.359 -32.2880
3.939002 70.472 -32.8084
3.967546 70.585 -33.3312
3.996296 70.697 -33.8565
4.025255 70.809 -34.3844
4.054423 70.920 -34.9154
4.083804 71.030 -35.4495
4.113396 71.140 -35.9867
4.143204 71.249 -36.5267
4.173227 71.357 -37.0691
4.203468 71.464 -37.6134
4.233928 71.571 -38.1590
4.264609 71.677 -38.7055
4.295512 71.782 -39.2525
4.326639 71.886 -39.7998
4.357992 71.989 -40.3473
4.389572 72.092 -40.8954
4.421380 72.193 -41.4443
4.453419 72.294 -41.9945
4.485691 72.393 -42.5458
4.518196 72.492 -43.0981
4.550936 72.590 -43.6509
4.583914 72.687 -44.2035
4.617131 72.782 -44.7551
4.650589 72.877 -45.3050
4.684289 72.972 -45.8528
4.718233 73.065 -46.3982
4.752424 73.157 -46.9411
4.786862 73.249 -47.4818
4.821549 73.340 -48.0207
4.856488 73.429 -48.5579
4.891680 73.518 -49.0933
4.927127 73.606 -49.6265
4.962831 73.693 -50.1570
4.998794 73.779 -50.6841
5.035017 73.865 -51.2072
5.071503 73.950 -51.7260
5.108253 74.035 -52.2401
5.145270 74.119 -52.7497
5.182555 74.202 -53.2548
5.220110 74.285 -53.7559
5.257937 74.367 -54.2529
5.296038 74.448 -54.7459
5.334415 74.529 -55.2347
5.373071 74.610 -55.7192
5.412006 74.691 -56.1992
5.451224 74.771 -56.6744
5.490725 74.851 -57.1448
5.530514 74.932 -57.6104
5.570590 75.012 -58.0713
5.610957 75.091 -58.5280
5.651616 75.171 -58.9807
5.692570 75.251 -59.4297
5.733821 75.331 -59.8755
5.775370 75.411 -60.3183
5.817221 75.491 -60.7582
5.859375 75.571 -61.1955
5.901834 75.652 -61.6301
5.944602 75.733 -62.0624
5.987679 75.813 -62.4925
6.031068 75.895 -62.9209
6.074771 75.976 -63.3483
6.118792 76.057 -63.7751
6.163131 76.139 -64.2018
6.207792 76.221 -64.6288
6.252776 76.303 -65.0564
6.298086 76.385 -65.4846
6.343725 76.468 -65.9135
6.389694 76.550 -66.3435
6.435996 76.632 -66.7747
6.482634 76.715 -67.2076
6.529610 76.797 -67.6425
6.576926 76.879 -68.0796
6.624585 76.961 -68.5192
6.672590 77.043 -68.9612
6.720942 77.124 -69.4057
6.769645 77.205 -69.8524
6.818700 77.286 -70.3013
6.868111 77.366 -70.7522
6.917881 77.445 -71.2052
6.968010 77.524 -71.6601
7.018504 77.602 -72.1171
7.069362 77.680 -72.5759
7.120590 77.757 -73.0361
7.172189 77.833 -73.4975
7.224161 77.909 -73.9595
7.276511 77.983 -74.4218
7.329239 78.057 -74.8840
7.382350 78.130 -75.3462
7.435845 78.202 -75.8081
7.489729 78.273 -76.2694
7.544002 78.344 -76.7297
7.598669 78.414 -77.1886
7.653732 78.482 -77.6457
7.709194 78.551 -78.1008
7.765058 78.618 -78.5537
7.821327 78.685 -79.0044
7.878004 78.751 -79.4528
7.935091 78.817 -79.8988
7.992592 78.882 -80.3421
8.050510 78.947 -80.7828
8.108847 79.011 -81.2208
8.167607 79.074 -81.6561
8.226793 79.138 -82.0890
8.286408 79.201 -82.5196
8.346454 79.264 -82.9481
8.406936 79.326 -83.3746
8.467856 79.388 -83.7993
8.529218 79.450 -84.2225
8.591024 79.512 -84.6443
8.653278 79.574 -85.0650
8.715983 79.635 -85.4849
8.779143 79.696 -85.9043
8.842760 79.757 -86.3233
8.906839 79.818 -86.7423
8.971381 79.878 -87.1613
9.036392 79.938 -87.5805
9.101873 79.998 -88.0001
9.167829 80.058 -88.4202
9.234263 80.117 -88.8410
9.301178 80.175 -89.2626
9.368578 80.234 -89.6848
9.436467 80.292 -90.1077
9.504847 80.349 -90.5314
9.573723 80.406 -90.9558
9.643099 80.462 -91.3809
9.712976 80.518 -91.8066
9.783361 80.573 -92.2328
9.854255 80.628 -92.6595
9.925663 80.682 -93.0866
9.997588 80.736 -93.5140
10.070035 80.789 -93.9416
10.143007 80.842 -94.3694
10.216507 80.894 -94.7972
10.290540 80.945 -95.2249
10.365109 80.996 -95.6525
10.440219 81.046 -96.0798
10.515873 81.095 -96.5068
10.592076 81.144 -96.9333
10.668830 81.192 -97.3590
10.746141 81.240 -97.7841
10.824012 81.287 -98.2081
10.902447 81.334 -98.6310
10.981451 81.380 -99.0525
11.061027 81.425 -99.4725
11.141180 81.470 -99.8908
11.221913 81.515 -100.3072
11.303232 81.559 -100.7215
11.385140 81.602 -101.1335
11.467641 81.646 -101.5433
11.550741 81.689 -101.9508
11.634442 81.732 -102.3560
11.718750 81.775 -102.7590
11.803669 81.817 -103.1600
11.889203 81.860 -103.5592
11.975357 81.903 -103.9569
12.062136 81.945 -104.3536
12.149543 81.988 -104.7497
12.237583 82.031 -105.1457
12.326262 82.075 -105.5420
12.415583 82.118 -105.9390
12.505552 82.161 -106.3374
12.596172 82.205 -106.7373
12.687449 82.248 -107.1390
12.779387 82.291 -107.5427
12.871992 82.334 -107.9483
12.965268 82.377 -108.3557
13.059220 82.419 -108.7644
13.153852 82.460 -109.1740
13.249170 82.501 -109.5838
13.345179 82.542 -109.9931
13.441884 82.582 -110.4011
13.539289 82.621 -110.8070
13.637401 82.660 -111.2098
13.736223 82.698 -111.6091
13.835761 82.736 -112.0042
13.936021 82.775 -112.3949
14.037007 82.813 -112.7811
14.138725 82.852 -113.1631
14.241180 82.891 -113.5415
14.344377 82.930 -113.9172
14.448323 82.971 -114.2913
14.553021 83.012 -114.6652
14.658478 83.054 -115.0404
14.764700 83.097 -115.4183
14.871691 83.140 -115.8002
14.979457 83.184 -116.1874
15.088005 83.228 -116.5807
15.197339 83.271 -116.9803
15.307465 83.314 -117.3862
15.418389 83.356 -117.7975
15.530117 83.396 -118.2132
15.642655 83.436 -118.6313
15.756008 83.473 -119.0495
15.870182 83.509 -119.4655
15.985184 83.543 -119.8765
16.101019 83.575 -120.2800
16.217694 83.606 -120.6735
16.335214 83.636 -121.0554
16.453586 83.666 -121.4246
16.572815 83.696 -121.7806
16.692909 83.726 -122.1242
16.813872 83.757 -122.4570
16.935713 83.790 -122.7818
17.058436 83.824 -123.1017
17.182048 83.861 -123.4209
17.306556 83.899 -123.7433
17.431967 83.938 -124.0732
17.558286 83.979 -124.4139
17.685521 84.019 -124.7683
17.813677 84.060 -125.1378
17.942762 84.099 -125.5225
18.072783 84.135 -125.9210
18.203746 84.169 -126.3303
18.335658 84.199 -126.7459
18.468526 84.225 -127.1624
18.602356 84.246 -127.5732
18.737156 84.263 -127.9713
18.872934 84.277 -128.3500
19.009695 84.287 -128.7033
19.147447 84.296 -129.0261
19.286197 84.303 -129.3154
19.425953 84.311 -129.5703
19.566721 84.322 -129.7926
19.708510 84.335 -129.9864
19.851326 84.354 -130.1588
19.995177 84.378 -130.3187
20.140070 84.408 -130.4769
20.286013 84.444 -130.6447
20.433014 84.486 -130.8332
20.581080 84.533 -131.0526
20.730219 84.582 -131.3108
20.880439 84.633 -131.6132
21.031747 84.684 -131.9619
21.184152 84.732 -132.3557
21.337661 84.776 -132.7904
21.492282 84.814 -133.2585
21.648024 84.846 -133.7505
21.804895 84.870 -134.2551
21.962902 84.887 -134.7599
22.122054 84.896 -135.2529
22.282360 84.899 -135.7229
22.443827 84.897 -136.1605
22.606464 84.892 -136.5588
22.770280 84.885 -136.9144
22.935283 84.879 -137.2271
23.101481 84.876 -137.5004
23.268884 84.876 -137.7411
23.437500 84.882 -137.9586
23.607338 84.894 -138.1638
23.778406 84.912 -138.3680
23.950714 84.936 -138.5817
24.124271 84.964 -138.8136
24.299086 84.995 -139.0696
24.475167 85.028 -139.3528
24.652524 85.062 -139.6631
24.831166 85.095 -139.9980
25.011103 85.127 -140.3530
25.192344 85.157 -140.7222
25.374898 85.184 -141.0996
25.558775 85.208 -141.4795
25.743984 85.231 -141.8571
25.930536 85.252 -142.2292
26.118439 85.272 -142.5935
26.307704 85.291 -142.9496
26.498341 85.310 -143.2973
26.690359 85.329 -143.6376
26.883768 85.348 -143.9709
27.078579 85.366 -144.2980
27.274801 85.385 -144.6190
27.472446 85.404 -144.9338
27.671522 85.422 -145.2424
27.872042 85.441 -145.5450
28.074014 85.460 -145.8422
28.277450 85.479 -146.1353
28.482360 85.499 -146.4261
28.688755 85.519 -146.7168
28.896645 85.540 -147.0091
29.106042 85.560 -147.3042
29.316957 85.579 -147.6020
29.529400 85.597 -147.9007
29.743382 85.613 -148.1976
29.958915 85.628 -148.4886
30.176009 85.641 -148.7698
30.394677 85.654 -149.0383
30.614929 85.667 -149.2928
30.836778 85.681 -149.5345
31.060234 85.696 -149.7670
31.285309 85.714 -149.9962
31.512015 85.735 -150.2288
31.740364 85.757 -150.4710
31.970368 85.781 -150.7274
32.202039 85.805 -150.9997
32.435388 85.828 -151.2863
32.670428 85.849 -151.5830
32.907171 85.868 -151.8838
33.145630 85.886 -152.1825
33.385817 85.902 -152.4740
33.627745 85.918 -152.7554
33.871425 85.934 -153.0264
34.116871 85.950 -153.2885
34.364096 85.968 -153.5444
34.613113 85.987 -153.7964
34.863934 86.006 -154.0457
35.116572 86.026 -154.2921
35.371041 86.046 -154.5342
35.627354 86.067 -154.7703
35.885525 86.089 -155.0000
36.145566 86.112 -155.2244
36.407492 86.136 -155.4467
36.671316 86.162 -155.6715
36.937051 86.189 -155.9033
37.204712 86.216 -156.1454
37.474313 86.242 -156.3985
37.745867 86.267 -156.6608
38.019389 86.290 -156.9286
38.294893 86.310 -157.1967
38.572394 86.328 -157.4606
38.851905 86.344 -157.7169
39.133442 86.358 -157.9640
39.417019 86.371 -158.2019
39.702651 86.385 -158.4316
39.990353 86.398 -158.6546
40.280140 86.411 -158.8726
40.572026 86.425 -159.0868
40.866028 86.439 -159.2986
41.162160 86.454 -159.5096
41.460438 86.471 -159.7219
41.760877 86.490 -159.9382
42.063494 86.510 -160.1618
42.368303 86.532 -160.3965
42.675322 86.555 -160.6460
42.984565 86.579 -160.9129
43.296048 86.603 -161.1977
43.609789 86.626 -161.4980
43.925804 86.648 -161.8086
44.244108 86.667 -162.1218
44.564719 86.685 -162.4299
44.887654 86.702 -162.7273
45.212928 86.720 -163.0122
45.540560 86.738 -163.2868
45.870565 86.759 -163.5564
46.202962 86.781 -163.8268
46.537768 86.804 -164.1021
46.875000 86.826 -164.3834
47.214676 86.849 -164.6689
47.556813 86.870 -164.9556
47.901429 86.891 -165.2410
48.248542 86.911 -165.5244
48.598171 86.932 -165.8069
48.950334 86.952 -166.0909
49.305048 86.972 -166.3784
49.662333 86.991 -166.6709
50.022206 87.010 -166.9683
50.384688 87.029 -167.2697
50.749796 87.046 -167.5732
51.117550 87.063 -167.8767
51.487969 87.079 -168.1779
51.861072 87.095 -168.4754
52.236879 87.112 -168.7685
52.615409 87.129 -169.0579
52.996681 87.147 -169.3451
53.380717 87.166 -169.6322
53.767536 87.187 -169.9209
54.157158 87.208 -170.2128
54.549603 87.230 -170.5094
54.944892 87.252 -170.8122
55.343045 87.274 -171.1232
55.744084 87.296 -171.4444
56.148028 87.317 -171.7778
56.554900 87.336 -172.1244
56.964720 87.354 -172.4839
57.377510 87.368 -172.8546
57.793291 87.380 -173.2336
58.212085 87.389 -173.6177
58.633914 87.396 -174.0042
59.058799 87.401 -174.3917
59.486764 87.405 -174.7798
59.917829 87.408 -175.1690
60.352019 87.411 -175.5599
60.789354 87.414 -175.9533
61.229859 87.418 -176.3497
61.673556 87.421 -176.7487
62.120468 87.425 -177.1485
62.570618 87.428 -177.5459
63.024031 87.431 -177.9369
63.480729 87.434 -178.3190
63.940736 87.438 -178.6916
64.404077 87.442 -179.0562
64.870776 87.448 -179.4162
65.340856 87.455 -179.7771
65.814343 87.463 179.8525
66.291261 87.471 179.4627
66.771635 87.478 179.0464
67.255489 87.481 178.6044
67.742850 87.481 178.1463
68.233743 87.475 177.6852
68.728193 87.467 177.2307
69.226226 87.458 176.7852
69.727867 87.450 176.3447
70.233144 87.443 175.9036
70.742083 87.438 175.4583
71.254709 87.434 175.0079
71.771050 87.430 174.5546
72.291132 87.426 174.1025
72.814984 87.422 173.6562
73.342631 87.417 173.2188
73.874102 87.411 172.7906
74.409424 87.404 172.3699
74.948626 87.396 171.9553
75.491734 87.385 171.5467
76.038779 87.372 171.1444
76.589787 87.356 170.7480
77.144788 87.339 170.3551
77.703811 87.320 169.9612
78.266885 87.301 169.5609
78.834039 87.280 169.1497
79.405303 87.259 168.7263
79.980706 87.236 168.2930
80.560280 87.212 167.8536
81.144053 87.188 167.4100
81.732056 87.164 166.9619
82.324320 87.139 166.5082
82.920876 87.114 166.0491
83.521755 87.088 165.5864
84.126988 87.061 165.1234
84.736607 87.032 164.6633
85.350643 87.003 164.2077
85.969129 86.974 163.7568
86.592097 86.945 163.3093
87.219579 86.917 162.8630
87.851608 86.890 162.4163
88.488217 86.864 161.9687
89.129439 86.838 161.5237
89.775308 86.811 161.0884
90.425856 86.783 160.6709
91.081119 86.754 160.2766
91.741131 86.725 159.9060
92.405925 86.695 159.5547
93.075536 86.663 159.2148
93.750000 86.630 158.8773
94.429351 86.595 158.5345
95.113625 86.556 158.1817
95.802858 86.514 157.8170
96.497085 86.469 157.4409
97.196342 86.422 157.0548
97.900667 86.375 156.6606
98.610096 86.328 156.2602
99.324665 86.284 155.8557
100.044413 86.241 155.4497
100.769376 86.201 155.0450
101.499592 86.163 154.6450
102.235100 86.126 154.2537
102.975938 86.087 153.8762
103.722144 86.047 153.5173
104.473757 86.004 153.1790
105.230817 85.958 152.8586
105.993363 85.909 152.5508
106.761435 85.856 152.2487
107.535072 85.798 151.9474
108.314315 85.737 151.6458
109.099206 85.673 151.3432
109.889783 85.609 151.0371
110.686090 85.545 150.7229
111.488167 85.484 150.3946
112.296056 85.425 150.0479
113.109800 85.369 149.6853
113.929440 85.314 149.3163
114.755020 85.260 148.9531
115.586582 85.207 148.6058
116.424170 85.155 148.2795
117.267827 85.103 147.9747
118.117598 85.050 147.6897
118.973527 84.995 147.4200
119.835658 84.938 147.1577
120.704037 84.878 146.8948
121.578708 84.816 146.6272
122.459718 84.752 146.3539
123.347111 84.686 146.0763
124.240935 84.621 145.7982
125.141236 84.556 145.5250
126.048061 84.493 145.2626
126.961458 84.430 145.0171
127.881473 84.367 144.7936
128.808154 84.301 144.5952
129.741551 84.233 144.4233
130.681712 84.162 144.2787
131.628686 84.089 144.1571
132.582521 84.016 144.0466
133.543269 83.946 143.9254
134.510979 83.880 143.7656
135.485701 83.817 143.5501
136.467486 83.755 143.2879
137.456386 83.692 143.0043
138.452451 83.629 142.7239
139.455735 83.566 142.4643
140.466288 83.503 142.2352
141.484165 83.439 142.0395
142.509418 83.374 141.8753
143.542100 83.309 141.7375
144.582265 83.242 141.6183
145.629968 83.174 141.5093
146.685262 83.104 141.4055
147.748204 83.033 141.3038
148.818849 82.960 141.2012
149.897251 82.886 141.0955
150.983469 82.812 140.9879
152.077557 82.737 140.8817
153.179574 82.663 140.7799
154.289576 82.591 140.6866
155.407622 82.521 140.6058
156.533770 82.454 140.5375
157.668078 82.389 140.4793
158.810606 82.324 140.4289
159.961413 82.259 140.3854
161.120559 82.192 140.3495
162.288105 82.124 140.3221
163.464112 82.054 140.3021
164.648640 81.983 140.2870
165.841752 81.911 140.2739
167.043510 81.840 140.2619
168.253976 81.768 140.2521
169.473213 81.696 140.2467
170.701286 81.625 140.2480
171.938258 81.554 140.2562
173.184194 81.483 140.2707
174.439158 81.413 140.2933
175.703216 81.344 140.3263
176.976434 81.276 140.3685
178.258878 81.208 140.4160
179.550615 81.142 140.4656
180.851713 81.077 140.5181
182.162239 81.011 140.5784
183.482262 80.945 140.6501
184.811850 80.879 140.7316
186.151073 80.814 140.8181
187.500000 80.749 140.9045
188.858702 80.684 140.9885
190.227250 80.619 141.0725
191.605715 80.555 141.1617
192.994169 80.491 141.2608
194.392685 80.430 141.3719
195.801334 80.370 141.4937
197.220191 80.313 141.6221
198.649330 80.257 141.7548
200.088825 80.201 141.8923
201.538751 80.144 142.0372
202.999184 80.088 142.1886
204.470200 80.031 142.3395
205.951875 79.974 142.4816
207.444287 79.916 142.6116
208.947514 79.856 142.7347
210.461634 79.794 142.8637
211.986726 79.732 143.0120
213.522869 79.671 143.1847
215.070144 79.613 143.3779
216.628631 79.559 143.5826
218.198411 79.509 143.7888
219.779567 79.463 143.9874
221.372180 79.418 144.1728
222.976334 79.373 144.3456
224.592112 79.327 144.5108
226.219600 79.280 144.6745
227.858880 79.232 144.8395
229.510039 79.184 145.0063
231.173164 79.135 145.1752
232.848340 79.087 145.3460
234.535655 79.042 145.5175
236.235197 78.998 145.6897
237.947054 78.955 145.8675
239.671317 78.914 146.0620
241.408074 78.873 146.2843
243.157416 78.833 146.5358
244.919435 78.793 146.8060
246.694223 78.754 147.0807
248.481871 78.714 147.3504
250.282473 78.672 147.6116
252.096123 78.630 147.8641
253.922915 78.589 148.1091
255.762945 78.548 148.3475
257.616309 78.509 148.5799
259.483103 78.472 148.8063
261.363424 78.436 149.0259
263.257372 78.401 149.2381
265.165043 78.366 149.4430
267.086538 78.331 149.6437
269.021957 78.298 149.8475
270.971401 78.264 150.0639
272.934972 78.231 150.2969
274.912771 78.198 150.5415
276.904902 78.165 150.7872
278.911469 78.133 151.0266
280.932577 78.104 151.2616
282.968330 78.078 151.4998
285.018835 78.055 151.7450
287.084199 78.031 151.9933
289.164530 78.007 152.2388
291.259935 77.980 152.4828
293.370525 77.952 152.7332
295.496408 77.922 152.9954
297.637697 77.891 153.2669
299.794503 77.861 153.5433
301.966937 77.831 153.8244
304.155114 77.803 154.1093
306.359147 77.776 154.3864
308.579152 77.750 154.6363
310.815244 77.724 154.8444
313.067539 77.701 155.0076
315.336156 77.680 155.1326
317.621211 77.663 155.2311
319.922826 77.649 155.3219
322.241118 77.639 155.4296
324.576210 77.632 155.5753
326.928223 77.624 155.7646
329.297280 77.613 155.9871
331.683504 77.596 156.2230
334.087019 77.575 156.4534
336.507952 77.551 156.6689
338.946427 77.528 156.8744
341.402572 77.506 157.0836
343.876516 77.488 157.3058
346.368387 77.470 157.5353
348.878315 77.452 157.7567
351.406431 77.435 157.9626
353.952867 77.420 158.1606
356.517756 77.406 158.3634
359.101230 77.393 158.5758
361.703426 77.379 158.7946
364.324478 77.363 159.0175
366.964523 77.346 159.2468
369.623699 77.328 159.4888
372.302145 77.311 159.7501
375.000000 77.294 160.0334
377.717405 77.281 160.3346
380.454501 77.272 160.6439
383.211431 77.267 160.9507
385.988339 77.267 161.2483
388.785369 77.271 161.5307
391.602668 77.278 161.7909
394.440383 77.287 162.0218
397.298660 77.296 162.2202
400.177650 77.304 162.3896
403.077502 77.311 162.5391
405.998368 77.315 162.6747
408.940400 77.317 162.8000
411.903750 77.318 162.9221
414.888575 77.317 163.0488
417.895028 77.316 163.1826
420.923268 77.314 163.3224
423.973452 77.310 163.4704
427.045738 77.305 163.6294
430.140287 77.299 163.7943
433.257261 77.294 163.9538
436.396822 77.289 164.1049
439.559133 77.284 164.2582
442.744360 77.279 164.4252
445.952668 77.277 164.6034
449.184225 77.279 164.7760
452.439199 77.282 164.9237
455.717760 77.283 165.0396
459.020079 77.279 165.1343
462.346327 77.270 165.2314
465.696680 77.255 165.3559
469.071310 77.240 165.5241
472.470394 77.224 165.7366
475.894109 77.211 165.9783
479.342634 77.202 166.2277
482.816148 77.195 166.4666
486.314833 77.192 166.6826
489.838871 77.192 166.8670
493.388445 77.194 167.0152
496.963741 77.199 167.1289
500.564945 77.207 167.2174
504.192245 77.220 167.2977
507.845830 77.237 167.3915
511.525890 77.258 167.5195
515.232618 77.281 167.6940
518.966206 77.302 167.9145
522.726849 77.319 168.1674
526.514743 77.329 168.4265
530.330086 77.333 168.6625
534.173076 77.335 168.8571
538.043915 77.338 169.0142
541.942803 77.344 169.1554
545.869944 77.351 169.3008
549.825542 77.359 169.4551
553.809805 77.366 169.6102
557.822939 77.373 169.7613
561.865154 77.381 169.9130
565.936660 77.390 170.0699
570.037671 77.399 170.2300
574.168399 77.410 170.3906
578.329060 77.421 170.5513
582.519870 77.433 170.7097
586.741049 77.444 170.8627
590.992817 77.454 171.0093
595.275394 77.464 171.1502
599.589005 77.473 171.2884
603.933874 77.483 171.4263
608.310228 77.493 171.5660
612.718295 77.503 171.7105
617.158304 77.513 171.8625
621.630488 77.525 172.0204
626.135079 77.536 172.1785
630.672311 77.546 172.3327
635.242423 77.553 172.4847
639.845651 77.559 172.6437
644.482237 77.561 172.8243
649.152421 77.562 173.0424
653.856447 77.563 173.3118
658.594560 77.564 173.6436
663.367008 77.567 174.0461
668.174039 77.575 174.5240
673.015903 77.589 175.0771
677.892854 77.610 175.6996
682.805145 77.640 176.3811
687.753032 77.676 177.1064
692.736774 77.718 177.8587
697.756631 77.765 178.6227
702.812863 77.814 179.3876
707.905735 77.865 -179.8538
713.035511 77.916 -179.1060
718.202461 77.970 -178.3711
723.406852 78.025 -177.6493
728.648956 78.082 -176.9390
733.929047 78.139 -176.2383
739.247399 78.197 -175.5450
744.604290 78.256 -174.8579
750.000000 78.314 -174.1765
755.434809 78.373 -173.5003
760.909001 78.431 -172.8276
766.422861 78.490 -172.1562
771.976677 78.549 -171.4846
777.570739 78.609 -170.8117
783.205337 78.669 -170.1368
788.880766 78.731 -169.4592
794.597321 78.793 -168.7782
800.355301 78.857 -168.0935
806.155005 78.923 -167.4056
811.996736 78.990 -166.7148
817.880799 79.058 -166.0212
823.807501 79.128 -165.3254
829.777150 79.199 -164.6282
835.790057 79.272 -163.9302
841.846536 79.346 -163.2322
847.946903 79.422 -162.5348
854.091476 79.499 -161.8395
860.280575 79.578 -161.1477
866.514523 79.658 -160.4606
872.793644 79.740 -159.7798
879.118267 79.823 -159.1058
885.488720 79.907 -158.4389
891.905336 79.994 -157.7784
898.368450 80.082 -157.1245
904.878398 80.171 -156.4780
911.435520 80.262 -155.8400
918.040157 80.354 -155.2119
924.692655 80.447 -154.5940
931.393359 80.541 -153.9868
938.142619 80.637 -153.3912
944.940787 80.732 -152.8082
951.788218 80.828 -152.2389
958.685268 80.925 -151.6840
965.632296 81.021 -151.1438
972.629666 81.117 -150.6181
979.677741 81.213 -150.1063
986.776890 81.308 -149.6078
993.927482 81.403 -149.1223
1001.129891 81.496 -148.6501
1008.384491 81.589 -148.1918
1015.691660 81.680 -147.7471
1023.051781 81.770 -147.3153
1030.465236 81.858 -146.8955
1037.932411 81.944 -146.4872
1045.453698 82.028 -146.0902
1053.029486 82.109 -145.7038
1060.660172 82.187 -145.3268
1068.346153 82.262 -144.9572
1076.087829 82.335 -144.5931
1083.885605 82.405 -144.2326
1091.739887 82.471 -143.8736
1099.651084 82.534 -143.5143
1107.619609 82.594 -143.1533
1115.645878 82.651 -142.7893
1123.730308 82.705 -142.4209
1131.873321 82.755 -142.0471
1140.075341 82.803 -141.6674
1148.336797 82.847 -141.2818
1156.658119 82.890 -140.8914
1165.039741 82.930 -140.5019
1173.482099 82.970 -140.1259
1181.985634 83.008 -139.7811
1190.550789 83.044 -139.4856
1199.178011 83.076 -139.2541
1207.867749 83.102 -139.0956
1216.620457 83.121 -139.0137
1225.436590 83.134 -139.0080
1234.316609 83.143 -139.0727
1243.260976 83.149 -139.1961
1252.270157 83.153 -139.3614
1261.344623 83.158 -139.5492
1270.484846 83.162 -139.7434
1279.691303 83.167 -139.9335
1288.964474 83.170 -140.1147
1298.304842 83.173 -140.2848
1307.712894 83.175 -140.4430
1317.189120 83.177 -140.5892
1326.734016 83.178 -140.7236
1336.348077 83.178 -140.8461
1346.031806 83.178 -140.9564
1355.785708 83.177 -141.0541
1365.610290 83.176 -141.1392
1375.506065 83.174 -141.2118
1385.473549 83.173 -141.2724
1395.513261 83.171 -141.3213
1405.625726 83.170 -141.3590
1415.811469 83.168 -141.3858
1426.071023 83.167 -141.4024
1436.404921 83.167 -141.4094
1446.813703 83.166 -141.4067
1457.297912 83.167 -141.3939
1467.858093 83.167 -141.3709
1478.494798 83.169 -141.3377
1489.208581 83.171 -141.2947
1500.000000 83.173 -141.2428
1510.869618 83.177 -141.1827
1521.818002 83.181 -141.1151
1532.845723 83.187 -141.0405
1543.953355 83.193 -140.9593
1555.141477 83.201 -140.8722
1566.410674 83.210 -140.7796
1577.761531 83.220 -140.6820
1589.194642 83.231 -140.5794
1600.710601 83.244 -140.4717
1612.310010 83.258 -140.3593
1623.993473 83.273 -140.2425
1635.761599 83.290 -140.1220
1647.615002 83.308 -139.9988
1659.554299 83.328 -139.8735
1671.580114 83.350 -139.7473
1683.693072 83.373 -139.6211
1695.893807 83.398 -139.4960
1708.182952 83.424 -139.3727
1720.561150 83.453 -139.2516
1733.029045 83.483 -139.1340
1745.587288 83.515 -139.0207
1758.236533 83.549 -138.9131
1770.977440 83.584 -138.8121
1783.810673 83.621 -138.7188
1796.736900 83.660 -138.6344
1809.756796 83.701 -138.5600
1822.871040 83.743 -138.4966
1836.080315 83.786 -138.4455
1849.385310 83.831 -138.4080
1862.786718 83.878 -138.3851
1876.285239 83.925 -138.3781
1889.881575 83.973 -138.3882
1903.576436 84.022 -138.4167
1917.370535 84.071 -138.4650
1931.264593 84.120 -138.5343
1945.259332 84.169 -138.6253
1959.355483 84.218 -138.7384
1973.553781 84.266 -138.8742
1987.854965 84.312 -139.0329
2002.259781 84.357 -139.2147
2016.768981 84.400 -139.4193
2031.383320 84.441 -139.6458
2046.103561 84.479 -139.8932
2060.930471 84.514 -140.1598
2075.864823 84.545 -140.4440
2090.907395 84.573 -140.7437
2106.058972 84.596 -141.0566
2121.320344 84.615 -141.3801
2136.692305 84.630 -141.7111
2152.175658 84.640 -142.0462
2167.771210 84.645 -142.3820
2183.479774 84.645 -142.7153
2199.302169 84.640 -143.0430
2215.239219 84.631 -143.3619
2231.291755 84.616 -143.6690
2247.460615 84.597 -143.9610
2263.746641 84.575 -144.2346
2280.150683 84.548 -144.4866
2296.673595 84.518 -144.7144
2313.316238 84.485 -144.9159
2330.079481 84.449 -145.0897
2346.964198 84.411 -145.2349
2363.971268 84.371 -145.3508
2381.101578 84.330 -145.4369
2398.356022 84.288 -145.4928
2415.735498 84.246 -145.5187
2433.240913 84.204 -145.5146
2450.873180 84.162 -145.4809
2468.633217 84.121 -145.4183
2486.521951 84.081 -145.3276
2504.540314 84.043 -145.2099
2522.689246 84.006 -145.0668
2540.969692 83.971 -144.8997
2559.382606 83.938 -144.7101
2577.928947 83.908 -144.4999
2596.609683 83.880 -144.2706
2615.425787 83.855 -144.0240
2634.378241 83.833 -143.7616
2653.468031 83.814 -143.4847
2672.696154 83.798 -143.1951
2692.063613 83.784 -142.8943
2711.571415 83.774 -142.5842
2731.220579 83.768 -142.2660
2751.012130 83.764 -141.9412
2770.947098 83.764 -141.6113
2791.026522 83.766 -141.2777
2811.251451 83.773 -140.9419
2831.622938 83.782 -140.6054
2852.142045 83.794 -140.2696
2872.809842 83.809 -139.9362
2893.627406 83.828 -139.6063
2914.595823 83.849 -139.2811
2935.716186 83.873 -138.9619
2956.989596 83.900 -138.6497
2978.417161 83.930 -138.3458
3000.000000 83.963 -138.0509
3021.739237 83.998 -137.7661
3043.636005 84.035 -137.4922
3065.691446 84.075 -137.2302
3087.906710 84.118 -136.9809
3110.282955 84.162 -136.7452
3132.821347 84.208 -136.5241
3155.523062 84.257 -136.3184
3178.389283 84.307 -136.1288
3201.421202 84.358 -135.9560
3224.620020 84.412 -135.8004
3247.986946 84.466 -135.6623
3271.523198 84.521 -135.5419
3295.230004 84.577 -135.4395
3319.108599 84.634 -135.3556
3343.160228 84.690 -135.2905
3367.386145 84.747 -135.2444
3391.787613 84.804 -135.2173
3416.365904 84.861 -135.2088
3441.122300 84.917 -135.2186
3466.058091 84.972 -135.2460
3491.174576 85.026 -135.2906
3516.473066 85.079 -135.3515
3541.954880 85.130 -135.4280
3567.621345 85.180 -135.5188
3593.473800 85.228 -135.6225
3619.513592 85.275 -135.7379
3645.742080 85.320 -135.8644
3672.160630 85.363 -136.0014
3698.770620 85.403 -136.1470
3725.573436 85.441 -136.2979
3752.570477 85.476 -136.4504
3779.763150 85.506 -136.6015
3807.152872 85.533 -136.7498
3834.741071 85.557 -136.8952
3862.529185 85.579 -137.0381
3890.518664 85.600 -137.1780
3918.710966 85.619 -137.3138
3947.107561 85.638 -137.4435
3975.709929 85.656 -137.5659
4004.519563 85.674 -137.6803
4033.537962 85.691 -137.7849
4062.766641 85.707 -137.8774
4092.207123 85.721 -137.9547
4121.860942 85.733 -138.0145
4151.729646 85.745 -138.0564
4181.814790 85.756 -138.0813
4212.117944 85.767 -138.0900
4242.640687 85.780 -138.0820
4273.384610 85.794 -138.0553
4304.351317 85.809 -138.0079
4335.542421 85.825 -137.9395
4366.959549 85.843 -137.8507
4398.604338 85.863 -137.7422
4430.478438 85.886 -137.6147
4462.583511 85.912 -137.4691
4494.921231 85.942 -137.3064
4527.493283 85.976 -137.1277
4560.301365 86.015 -136.9345
4593.347189 86.058 -136.7289
4626.632476 86.108 -136.5133
4660.158962 86.163 -136.2912
4693.928395 86.225 -136.0661
4727.942535 86.294 -135.8424
4762.203156 86.370 -135.6246
4796.712043 86.454 -135.4177
4831.470996 86.545 -135.2266
4866.481826 86.644 -135.0564
4901.746360 86.751 -134.9119
4937.266434 86.866 -134.7980
4973.043902 86.988 -134.7196
5009.080628 87.119 -134.6820
5045.378492 87.258 -134.6906
5081.939384 87.404 -134.7514
5118.765212 87.559 -134.8705
5155.857894 87.721 -135.0549
5193.219366 87.889 -135.3118
5230.851574 88.065 -135.6490
5268.756481 88.246 -136.0748
5306.936062 88.433 -136.5973
5345.392309 88.623 -137.2247
5384.127225 88.815 -137.9649
5423.142830 89.007 -138.8251
5462.441159 89.198 -139.8120
5502.024259 89.385 -140.9303
5541.894195 89.566 -142.1830
5582.053045 89.737 -143.5707
5622.502902 89.896 -145.0907
5663.245876 90.041 -146.7375
5704.284090 90.168 -148.5018
5745.619684 90.274 -150.3710
5787.254813 90.358 -152.3288
5829.191647 90.417 -154.3558
5871.432373 90.450 -156.4300
5913.979192 90.456 -158.5273
5956.834323 90.435 -160.6226
6000.000000 90.386 -162.6910
6043.478473 90.312 -164.7090
6087.272010 90.214 -166.6554
6131.382892 90.095 -168.5120
6175.813420 89.956 -170.2637
6220.565910 89.800 -171.8990
6265.642695 89.631 -173.4097
6311.046124 89.451 -174.7917
6356.778566 89.264 -176.0435
6402.842404 89.071 -177.1666
6449.240040 88.875 -178.1644
6495.973891 88.679 -179.0415
6543.046396 88.485 -179.8039
6590.460007 88.293 179.5417
6638.217197 88.106 178.9886
6686.320456 87.925 178.5292
6734.772290 87.751 178.1562
6783.575226 87.585 177.8620
6832.731809 87.428 177.6400
6882.244600 87.281 177.4843
6932.116181 87.144 177.3892
6982.349153 87.018 177.3495
7032.946133 86.904 177.3599
7083.909760 86.803 177.4155
7135.242690 86.715 177.5114
7186.947600 86.642 177.6423
7239.027185 86.584 177.8007
7291.484160 86.544 177.9754
7344.321260 86.524 178.1487
7397.541239 86.522 178.2973
7451.146872 86.539 178.3981
7505.140954 86.573 178.4389
7559.526299 86.621 178.4213
7614.305743 86.684 178.3516
7669.482141 86.765 178.2300
7725.058371 86.865 178.0466
7781.037328 86.989 177.7821
7837.421932 87.138 177.4098
7894.215122 87.314 176.8973
7951.419859 87.518 176.2070
8009.039125 87.748 175.2966
8067.075924 88.004 174.1197
8125.533282 88.282 172.6269
8184.414245 88.576 170.7680
8243.721885 88.878 168.4949
8303.459292 89.179 165.7665
8363.629581 89.464 162.5532
8424.235888 89.719 158.8428
8485.281374 89.928 154.6457
8546.769221 90.072 149.9984
8608.702634 90.136 144.9661
8671.084842 90.105 139.6414
8733.919097 89.969 134.1409
8797.208675 89.720 128.5959
8860.956876 89.359 123.1429
8925.167022 88.890 117.9116
8989.842461 88.320 113.0150
9054.986566 87.664 108.5429
9120.602731 86.934 104.5584
9186.694378 86.147 101.0982
9253.264952 85.318 98.1745
9320.317925 84.462 95.7792
9387.856790 83.593 93.8884
9455.885071 82.721 92.4664
9524.406312 81.856 91.4706
9593.424086 81.005 90.8555
9662.941992 80.174 90.5769
9732.963653 79.366 90.5933
9803.492719 78.584 90.8672
9874.532869 77.827 91.3656
9946.087805 77.096 92.0596
10018.161257 76.391 92.9244
10090.756983 75.708 93.9389
10163.878768 75.049 95.0856
10237.530423 74.410 96.3500
10311.715789 73.791 97.7205
10386.438732 73.190 99.1877
10461.703149 72.607 100.7448
10537.512962 72.039 102.3870
10613.872125 71.487 104.1118
10690.784618 70.950 105.9181
10768.254450 70.428 107.8060
10846.285661 69.919 109.7762
10924.882318 69.425 111.8297
11004.048518 68.945 113.9673
11083.788390 68.479 116.1879
11164.106090 68.029 118.4883
11245.005805 67.595 120.8625
11326.491752 67.177 123.3025
11408.568180 66.776 125.7995
11491.239368 66.394 128.3447
11574.509626 66.029 130.9298
11658.383294 65.681 133.5470
11742.864745 65.350 136.1898
11827.958384 65.036 138.8536
11913.668646 64.736 141.5359
12000.000000 64.451 144.2365
12086.956947 64.181 146.9568
12174.544019 63.925 149.6990
12262.765784 63.683 152.4673
12351.626840 63.455 155.2716
12441.131819 63.242 158.1313
12531.285389 63.042 161.0829
12622.092249 62.856 164.1912
12713.557132 62.682 167.5675
12805.684808 62.521 171.3919
12898.480079 62.372 175.9258
12991.947783 62.238 -178.5066
13086.092792 62.124 -171.5907
13180.920015 62.032 -163.1395
13276.434395 61.960 -153.1762
13372.640911 61.906 -141.9128
13469.544580 61.868 -129.6503
13567.150452 61.845 -116.6832
13665.463617 61.837 -103.2495
13764.489200 61.845 -89.5154
13864.232362 61.872 -75.5722
13964.698305 61.919 -61.4543
14065.892266 61.988 -47.1636
14167.819519 62.082 -32.6912
14270.485380 62.203 -18.0274
14373.895200 62.356 -3.1637
14478.054370 62.543 11.9103
14582.968320 62.769 27.2037
14688.642520 63.039 42.7229
14795.082478 63.359 58.4734
14902.293745 63.736 74.4606
15010.281908 64.179 90.6819
15119.052599 64.694 107.1117
15228.611486 65.289 123.6701
15338.964283 65.968 140.1803
15450.116741 66.728 156.3328
15562.074656 67.560 171.6898
15674.843864 68.447 -174.2428
15788.430244 69.359 -161.8967
15902.839718 70.260 -151.5388
16018.078250 71.103 -143.2336
16134.151848 71.836 -136.8601
16251.066563 72.406 -132.1432
16368.828491 72.765 -128.6766
16487.443769 72.873 -125.9402
16606.918584 72.712 -123.3344
16727.259161 72.286 -120.2401
16848.471777 71.618 -116.0839
16970.562748 70.747 -110.3741
17093.538442 69.721 -102.7050
17217.405268 68.587 -92.7532
17342.169684 67.390 -80.2904
17467.838194 66.171 -65.2306
17594.417350 64.969 -47.6986
17721.913751 63.810 -28.0691
17850.334044 62.716 -6.9027
17979.684923 61.701 15.2192
18109.973131 60.768 37.8510
18241.205462 59.918 60.7351
18373.388756 59.146 83.7618
18506.529905 58.444 106.9181
18640.635849 57.805 130.2525
18775.713581 57.222 153.8483
18911.770141 56.686 177.8000
19048.812624 56.193 -157.8122
19186.848172 55.736 -132.9824
19325.883983 55.312 -107.9405
19465.927305 54.923 -83.4627
19606.985439 54.574 -61.0393
19749.065738 54.282 -42.4898
19892.175609 54.066 -29.3163
20036.322514 53.952 -22.4759
