* Measurement data measured by REW V5.31.3
* Source: Headset (3- CX31993 HIFI AUDIO), MICROPHONE (Master Volume), R, volume: 0.400
* Format: 256k Log Swept Sine, 1 sweep at -12.0 dBFS with no timing reference
* Dated: 04 1, 25 1:14:43 PM
* REW Settings:
*  C-weighting compensation: Off
*  Target level: 75.0 dB
* Note: ; 
* Measurement: AFUL Magic One 500 R
* Smoothing: 1/12 octave
* Frequency Step: 96 ppo
* Start Frequency: 0.36621094 Hz
*
* Freq(Hz) SPL(dB) Phase(degrees)
0.366211 49.207 -136.9917
0.368865 49.244 -137.1880
0.371538 49.299 -137.4783
0.374230 49.367 -137.8365
0.376942 49.443 -138.2403
0.379673 49.525 -138.6733
0.382424 49.610 -139.1246
0.385196 49.696 -139.5875
0.387987 49.785 -140.0580
0.390798 49.874 -140.5337
0.393630 49.965 -141.0134
0.396483 50.056 -141.4960
0.399356 50.147 -141.9812
0.402250 50.240 -142.4684
0.405165 50.333 -142.9573
0.408101 50.427 -143.4476
0.411058 50.521 -143.9390
0.414037 50.616 -144.4312
0.417037 50.712 -144.9241
0.420059 50.809 -145.4173
0.423103 50.906 -145.9105
0.426169 51.004 -146.4037
0.429257 51.103 -146.8965
0.432368 51.202 -147.3886
0.435501 51.302 -147.8800
0.438656 51.403 -148.3704
0.441835 51.505 -148.8596
0.445037 51.607 -149.3474
0.448262 51.710 -149.8337
0.451510 51.814 -150.3183
0.454782 51.918 -150.8009
0.458077 52.024 -151.2816
0.461397 52.130 -151.7601
0.464740 52.237 -152.2364
0.468108 52.344 -152.7103
0.471500 52.453 -153.1817
0.474917 52.562 -153.6506
0.478358 52.672 -154.1169
0.481825 52.782 -154.5804
0.485316 52.894 -155.0411
0.488833 53.006 -155.4991
0.492375 53.120 -155.9541
0.495943 53.234 -156.4063
0.499537 53.349 -156.8556
0.503157 53.464 -157.3020
0.506803 53.581 -157.7455
0.510475 53.698 -158.1860
0.514175 53.816 -158.6237
0.517900 53.936 -159.0585
0.521653 54.055 -159.4905
0.525434 54.176 -159.9196
0.529241 54.298 -160.3460
0.533076 54.421 -160.7697
0.536939 54.544 -161.1908
0.540830 54.668 -161.6093
0.544749 54.794 -162.0253
0.548696 54.920 -162.4388
0.552673 55.047 -162.8500
0.556677 55.175 -163.2590
0.560711 55.304 -163.6658
0.564774 55.434 -164.0705
0.568867 55.565 -164.4732
0.572989 55.696 -164.8741
0.577141 55.829 -165.2733
0.581324 55.963 -165.6708
0.585536 56.098 -166.0668
0.589779 56.233 -166.4614
0.594053 56.370 -166.8547
0.598358 56.508 -167.2469
0.602694 56.646 -167.6381
0.607061 56.786 -168.0284
0.611460 56.926 -168.4180
0.615891 57.068 -168.8070
0.620354 57.211 -169.1955
0.624849 57.355 -169.5838
0.629377 57.499 -169.9718
0.633938 57.645 -170.3599
0.638532 57.792 -170.7481
0.643159 57.940 -171.1366
0.647819 58.089 -171.5255
0.652514 58.239 -171.9151
0.657242 58.390 -172.3055
0.662005 58.543 -172.6967
0.666802 58.696 -173.0891
0.671634 58.851 -173.4828
0.676501 59.006 -173.8779
0.681403 59.163 -174.2746
0.686341 59.321 -174.6731
0.691314 59.479 -175.0735
0.696324 59.639 -175.4761
0.701370 59.800 -175.8809
0.706452 59.960 -176.2880
0.711571 60.121 -176.6976
0.716728 60.281 -177.1095
0.721921 60.439 -177.5236
0.727153 60.593 -177.9395
0.732422 60.744 -178.3568
0.737729 60.889 -178.7745
0.743075 61.029 -179.1921
0.748460 61.166 -179.6087
0.753883 61.301 179.9761
0.759346 61.433 179.5628
0.764849 61.564 179.1516
0.770391 61.694 178.7426
0.775974 61.823 178.3359
0.781597 61.952 177.9318
0.787261 62.079 177.5302
0.792966 62.207 177.1310
0.798712 62.333 176.7345
0.804500 62.459 176.3405
0.810329 62.585 175.9490
0.816201 62.710 175.5600
0.822116 62.834 175.1735
0.828073 62.958 174.7894
0.834074 63.081 174.4077
0.840118 63.204 174.0283
0.846206 63.326 173.6511
0.852338 63.447 173.2762
0.858514 63.569 172.9033
0.864735 63.689 172.5323
0.871001 63.809 172.1633
0.877313 63.929 171.7961
0.883670 64.048 171.4306
0.890074 64.167 171.0667
0.896524 64.286 170.7041
0.903020 64.404 170.3429
0.909564 64.521 169.9829
0.916155 64.639 169.6239
0.922794 64.756 169.2658
0.929481 64.873 168.9085
0.936216 64.989 168.5518
0.943000 65.105 168.1955
0.949834 65.221 167.8395
0.956717 65.337 167.4836
0.963649 65.453 167.1277
0.970632 65.569 166.7715
0.977666 65.685 166.4149
0.984750 65.800 166.0578
0.991886 65.916 165.6998
0.999074 66.032 165.3409
1.006314 66.148 164.9808
1.013606 66.264 164.6193
1.020951 66.380 164.2562
1.028349 66.497 163.8914
1.035801 66.614 163.5245
1.043307 66.731 163.1553
1.050867 66.849 162.7838
1.058482 66.967 162.4095
1.066152 67.086 162.0324
1.073878 67.205 161.6522
1.081660 67.325 161.2688
1.089498 67.445 160.8820
1.097393 67.566 160.4919
1.105345 67.686 160.0986
1.113355 67.806 159.7020
1.121423 67.926 159.3026
1.129549 68.046 158.9003
1.137734 68.165 158.4957
1.145979 68.283 158.0887
1.154283 68.401 157.6798
1.162647 68.518 157.2690
1.171072 68.635 156.8566
1.179558 68.751 156.4427
1.188106 68.866 156.0276
1.196715 68.981 155.6115
1.205387 69.095 155.1945
1.214122 69.209 154.7766
1.222920 69.322 154.3582
1.231782 69.434 153.9393
1.240708 69.547 153.5201
1.249699 69.658 153.1006
1.258754 69.769 152.6812
1.267876 69.880 152.2616
1.277063 69.990 151.8422
1.286318 70.100 151.4230
1.295639 70.210 151.0041
1.305027 70.319 150.5855
1.314484 70.428 150.1674
1.324009 70.537 149.7498
1.333604 70.645 149.3326
1.343268 70.754 148.9161
1.353002 70.862 148.5001
1.362806 70.970 148.0848
1.372681 71.078 147.6702
1.382628 71.186 147.2562
1.392647 71.295 146.8428
1.402739 71.403 146.4301
1.412904 71.511 146.0179
1.423142 71.620 145.6064
1.433455 71.728 145.1952
1.443843 71.837 144.7843
1.454305 71.946 144.3735
1.464844 72.055 143.9625
1.475459 72.164 143.5510
1.486150 72.272 143.1388
1.496920 72.380 142.7257
1.507767 72.487 142.3116
1.518693 72.594 141.8965
1.529698 72.700 141.4803
1.540783 72.806 141.0632
1.551948 72.911 140.6451
1.563194 73.016 140.2261
1.574521 73.119 139.8062
1.585931 73.223 139.3855
1.597423 73.326 138.9640
1.608999 73.428 138.5417
1.620658 73.529 138.1187
1.632402 73.631 137.6949
1.644232 73.732 137.2704
1.656146 73.832 136.8451
1.668147 73.932 136.4191
1.680235 74.031 135.9923
1.692411 74.131 135.5647
1.704675 74.230 135.1363
1.717028 74.328 134.7070
1.729470 74.427 134.2768
1.742003 74.525 133.8455
1.754626 74.623 133.4132
1.767341 74.721 132.9796
1.780147 74.818 132.5447
1.793047 74.916 132.1082
1.806040 75.013 131.6697
1.819128 75.110 131.2291
1.832310 75.207 130.7859
1.845587 75.304 130.3395
1.858961 75.400 129.8898
1.872432 75.496 129.4365
1.886001 75.590 128.9797
1.899667 75.685 128.5194
1.913433 75.778 128.0560
1.927299 75.871 127.5898
1.941265 75.963 127.1210
1.955332 76.055 126.6500
1.969501 76.146 126.1771
1.983773 76.236 125.7026
1.998148 76.326 125.2270
2.012627 76.416 124.7505
2.027212 76.504 124.2733
2.041902 76.593 123.7959
2.056698 76.680 123.3185
2.071602 76.768 122.8414
2.086614 76.855 122.3647
2.101734 76.941 121.8887
2.116964 77.027 121.4136
2.132304 77.113 120.9395
2.147756 77.199 120.4662
2.163320 77.284 119.9937
2.178996 77.369 119.5216
2.194786 77.453 119.0492
2.210690 77.537 118.5759
2.226710 77.620 118.1010
2.242845 77.703 117.6239
2.259098 77.785 117.1444
2.275468 77.866 116.6624
2.291957 77.947 116.1782
2.308566 78.026 115.6920
2.325295 78.105 115.2041
2.342145 78.184 114.7149
2.359117 78.261 114.2249
2.376212 78.338 113.7343
2.393431 78.415 113.2437
2.410775 78.491 112.7535
2.428244 78.566 112.2641
2.445840 78.641 111.7758
2.463564 78.715 111.2891
2.481416 78.789 110.8040
2.499397 78.862 110.3210
2.517509 78.935 109.8400
2.535752 79.008 109.3607
2.554127 79.080 108.8829
2.572635 79.151 108.4059
2.591277 79.222 107.9290
2.610055 79.292 107.4514
2.628968 79.361 106.9730
2.648019 79.430 106.4934
2.667208 79.498 106.0129
2.686535 79.565 105.5315
2.706003 79.631 105.0496
2.725612 79.697 104.5676
2.745363 79.762 104.0858
2.765257 79.826 103.6048
2.785295 79.890 103.1248
2.805478 79.953 102.6465
2.825808 80.016 102.1701
2.846285 80.078 101.6960
2.866910 80.140 101.2244
2.887685 80.202 100.7554
2.908611 80.263 100.2890
2.929688 80.323 99.8246
2.950917 80.383 99.3619
2.972301 80.443 98.9001
2.993839 80.501 98.4391
3.015534 80.559 97.9784
3.037386 80.617 97.5181
3.059396 80.673 97.0583
3.081565 80.729 96.5992
3.103896 80.785 96.1412
3.126388 80.840 95.6845
3.149043 80.894 95.2297
3.171862 80.948 94.7771
3.194847 81.002 94.3270
3.217998 81.055 93.8798
3.241317 81.108 93.4357
3.264805 81.160 92.9948
3.288463 81.213 92.5572
3.312293 81.265 92.1225
3.336295 81.316 91.6904
3.360471 81.367 91.2606
3.384822 81.418 90.8328
3.409350 81.468 90.4070
3.434056 81.518 89.9829
3.458940 81.567 89.5607
3.484005 81.616 89.1403
3.509252 81.664 88.7219
3.534681 81.713 88.3054
3.560295 81.761 87.8911
3.586094 81.808 87.4790
3.612081 81.856 87.0692
3.638255 81.904 86.6617
3.664620 81.951 86.2567
3.691175 81.999 85.8538
3.717923 82.046 85.4532
3.744864 82.093 85.0545
3.772001 82.139 84.6578
3.799335 82.186 84.2627
3.826866 82.232 83.8693
3.854597 82.278 83.4773
3.882529 82.324 83.0867
3.910664 82.370 82.6974
3.939002 82.416 82.3092
3.967546 82.461 81.9222
3.996296 82.507 81.5363
4.025255 82.553 81.1516
4.054423 82.598 80.7679
4.083804 82.644 80.3854
4.113396 82.689 80.0038
4.143204 82.735 79.6232
4.173227 82.780 79.2434
4.203468 82.825 78.8641
4.233928 82.870 78.4852
4.264609 82.915 78.1064
4.295512 82.960 77.7275
4.326639 83.005 77.3484
4.357992 83.050 76.9688
4.389572 83.094 76.5887
4.421380 83.139 76.2081
4.453419 83.183 75.8268
4.485691 83.227 75.4449
4.518196 83.271 75.0623
4.550936 83.315 74.6792
4.583914 83.358 74.2954
4.617131 83.402 73.9110
4.650589 83.445 73.5260
4.684289 83.488 73.1402
4.718233 83.530 72.7535
4.752424 83.572 72.3659
4.786862 83.614 71.9772
4.821549 83.655 71.5872
4.856488 83.696 71.1962
4.891680 83.737 70.8040
4.927127 83.777 70.4111
4.962831 83.817 70.0174
4.998794 83.856 69.6234
5.035017 83.895 69.2292
5.071503 83.933 68.8348
5.108253 83.971 68.4403
5.145270 84.008 68.0457
5.182555 84.044 67.6508
5.220110 84.080 67.2555
5.257937 84.116 66.8601
5.296038 84.150 66.4648
5.334415 84.184 66.0701
5.373071 84.218 65.6762
5.412006 84.251 65.2836
5.451224 84.283 64.8925
5.490725 84.315 64.5030
5.530514 84.346 64.1151
5.570590 84.376 63.7288
5.610957 84.406 63.3441
5.651616 84.435 62.9612
5.692570 84.464 62.5803
5.733821 84.492 62.2018
5.775370 84.520 61.8261
5.817221 84.547 61.4534
5.859375 84.573 61.0840
5.901834 84.599 60.7178
5.944602 84.625 60.3549
5.987679 84.650 59.9952
6.031068 84.675 59.6387
6.074771 84.700 59.2856
6.118792 84.724 58.9358
6.163131 84.748 58.5894
6.207792 84.772 58.2467
6.252776 84.796 57.9076
6.298086 84.819 57.5722
6.343725 84.843 57.2402
6.389694 84.866 56.9117
6.435996 84.889 56.5863
6.482634 84.912 56.2640
6.529610 84.936 55.9445
6.576926 84.959 55.6277
6.624585 84.982 55.3137
6.672590 85.006 55.0022
6.720942 85.029 54.6933
6.769645 85.053 54.3865
6.818700 85.076 54.0817
6.868111 85.100 53.7786
6.917881 85.124 53.4768
6.968010 85.148 53.1763
7.018504 85.172 52.8769
7.069362 85.196 52.5786
7.120590 85.220 52.2811
7.172189 85.244 51.9845
7.224161 85.268 51.6884
7.276511 85.292 51.3928
7.329239 85.316 51.0976
7.382350 85.340 50.8026
7.435845 85.364 50.5080
7.489729 85.388 50.2136
7.544002 85.412 49.9197
7.598669 85.435 49.6262
7.653732 85.459 49.3332
7.709194 85.482 49.0407
7.765058 85.505 48.7489
7.821327 85.527 48.4577
7.878004 85.550 48.1674
7.935091 85.572 47.8782
7.992592 85.594 47.5902
8.050510 85.616 47.3036
8.108847 85.637 47.0185
8.167607 85.658 46.7350
8.226793 85.679 46.4533
8.286408 85.700 46.1735
8.346454 85.721 45.8956
8.406936 85.741 45.6199
8.467856 85.761 45.3463
8.529218 85.781 45.0750
8.591024 85.801 44.8060
8.653278 85.821 44.5391
8.715983 85.841 44.2744
8.779143 85.861 44.0118
8.842760 85.881 43.7513
8.906839 85.900 43.4928
8.971381 85.920 43.2361
9.036392 85.940 42.9812
9.101873 85.960 42.7278
9.167829 85.980 42.4758
9.234263 86.000 42.2250
9.301178 86.020 41.9754
9.368578 86.040 41.7267
9.436467 86.060 41.4788
9.504847 86.080 41.2315
9.573723 86.100 40.9847
9.643099 86.121 40.7383
9.712976 86.141 40.4922
9.783361 86.161 40.2465
9.854255 86.181 40.0009
9.925663 86.200 39.7554
9.997588 86.220 39.5101
10.070035 86.240 39.2649
10.143007 86.259 39.0200
10.216507 86.278 38.7752
10.290540 86.297 38.5307
10.365109 86.316 38.2866
10.440219 86.335 38.0428
10.515873 86.353 37.7994
10.592076 86.371 37.5566
10.668830 86.389 37.3145
10.746141 86.407 37.0729
10.824012 86.424 36.8322
10.902447 86.441 36.5922
10.981451 86.458 36.3531
11.061027 86.475 36.1151
11.141180 86.491 35.8779
11.221913 86.507 35.6419
11.303232 86.523 35.4071
11.385140 86.538 35.1735
11.467641 86.553 34.9412
11.550741 86.568 34.7102
11.634442 86.583 34.4808
11.718750 86.597 34.2529
11.803669 86.612 34.0266
11.889203 86.626 33.8020
11.975357 86.639 33.5792
12.062136 86.653 33.3582
12.149543 86.666 33.1390
12.237583 86.679 32.9218
12.326262 86.693 32.7063
12.415583 86.706 32.4927
12.505552 86.719 32.2809
12.596172 86.732 32.0707
12.687449 86.744 31.8620
12.779387 86.757 31.6547
12.871992 86.770 31.4486
12.965268 86.783 31.2435
13.059220 86.796 31.0392
13.153852 86.809 30.8354
13.249170 86.823 30.6320
13.345179 86.836 30.4288
13.441884 86.849 30.2256
13.539289 86.862 30.0223
13.637401 86.875 29.8188
13.736223 86.888 29.6150
13.835761 86.901 29.4109
13.936021 86.914 29.2066
14.037007 86.927 29.0021
14.138725 86.939 28.7976
14.241180 86.951 28.5931
14.344377 86.964 28.3889
14.448323 86.976 28.1850
14.553021 86.987 27.9816
14.658478 86.999 27.7788
14.764700 87.011 27.5767
14.871691 87.022 27.3751
14.979457 87.034 27.1744
15.088005 87.045 26.9742
15.197339 87.056 26.7747
15.307465 87.068 26.5756
15.418389 87.079 26.3768
15.530117 87.090 26.1783
15.642655 87.101 25.9799
15.756008 87.112 25.7814
15.870182 87.123 25.5829
15.985184 87.134 25.3845
16.101019 87.145 25.1863
16.217694 87.155 24.9884
16.335214 87.166 24.7911
16.453586 87.176 24.5947
16.572815 87.186 24.3995
16.692909 87.195 24.2059
16.813872 87.204 24.0142
16.935713 87.214 23.8248
17.058436 87.223 23.6381
17.182048 87.232 23.4539
17.306556 87.241 23.2725
17.431967 87.251 23.0936
17.558286 87.260 22.9172
17.685521 87.270 22.7428
17.813677 87.280 22.5697
17.942762 87.291 22.3976
18.072783 87.302 22.2255
18.203746 87.313 22.0529
18.335658 87.325 21.8790
18.468526 87.337 21.7032
18.602356 87.349 21.5253
18.737156 87.361 21.3448
18.872934 87.373 21.1617
19.009695 87.385 20.9763
19.147447 87.396 20.7889
19.286197 87.407 20.6002
19.425953 87.417 20.4110
19.566721 87.426 20.2222
19.708510 87.435 20.0345
19.851326 87.443 19.8490
19.995177 87.451 19.6663
20.140070 87.459 19.4868
20.286013 87.466 19.3107
20.433014 87.473 19.1381
20.581080 87.480 18.9686
20.730219 87.488 18.8015
20.880439 87.495 18.6361
21.031747 87.503 18.4717
21.184152 87.511 18.3073
21.337661 87.519 18.1423
21.492282 87.528 17.9763
21.648024 87.536 17.8091
21.804895 87.544 17.6407
21.962902 87.551 17.4717
22.122054 87.559 17.3026
22.282360 87.565 17.1339
22.443827 87.572 16.9665
22.606464 87.578 16.8007
22.770280 87.584 16.6370
22.935283 87.590 16.4750
23.101481 87.597 16.3147
23.268884 87.603 16.1553
23.437500 87.610 15.9961
23.607338 87.616 15.8361
23.778406 87.623 15.6747
23.950714 87.630 15.5115
24.124271 87.637 15.3464
24.299086 87.643 15.1798
24.475167 87.649 15.0125
24.652524 87.654 14.8456
24.831166 87.658 14.6804
25.011103 87.663 14.5182
25.192344 87.667 14.3600
25.374898 87.670 14.2064
25.558775 87.675 14.0572
25.743984 87.679 13.9117
25.930536 87.684 13.7689
26.118439 87.690 13.6267
26.307704 87.697 13.4835
26.498341 87.704 13.3374
26.690359 87.712 13.1870
26.883768 87.720 13.0315
27.078579 87.728 12.8708
27.274801 87.735 12.7059
27.472446 87.742 12.5381
27.671522 87.747 12.3694
27.872042 87.752 12.2017
28.074014 87.756 12.0367
28.277450 87.760 11.8758
28.482360 87.764 11.7193
28.688755 87.767 11.5668
28.896645 87.771 11.4171
29.106042 87.776 11.2686
29.316957 87.781 11.1191
29.529400 87.787 10.9675
29.743382 87.792 10.8129
29.958915 87.797 10.6550
30.176009 87.802 10.4949
30.394677 87.806 10.3341
30.614929 87.809 10.1744
30.836778 87.812 10.0175
31.060234 87.814 9.8644
31.285309 87.816 9.7155
31.512015 87.819 9.5699
31.740364 87.822 9.4264
31.970368 87.826 9.2831
32.202039 87.830 9.1384
32.435388 87.834 8.9911
32.670428 87.838 8.8408
32.907171 87.842 8.6879
33.145630 87.846 8.5332
33.385817 87.849 8.3779
33.627745 87.852 8.2230
33.871425 87.854 8.0691
34.116871 87.856 7.9165
34.364096 87.858 7.7651
34.613113 87.860 7.6145
34.863934 87.862 7.4645
35.116572 87.864 7.3149
35.371041 87.866 7.1659
35.627354 87.867 7.0176
35.885525 87.869 6.8701
36.145566 87.870 6.7233
36.407492 87.871 6.5768
36.671316 87.872 6.4305
36.937051 87.874 6.2841
37.204712 87.875 6.1373
37.474313 87.876 5.9902
37.745867 87.877 5.8430
38.019389 87.878 5.6957
38.294893 87.878 5.5484
38.572394 87.879 5.4012
38.851905 87.879 5.2540
39.133442 87.879 5.1073
39.417019 87.879 4.9611
39.702651 87.878 4.8160
39.990353 87.878 4.6725
40.280140 87.877 4.5304
40.572026 87.877 4.3896
40.866028 87.876 4.2498
41.162160 87.876 4.1106
41.460438 87.876 3.9715
41.760877 87.876 3.8323
42.063494 87.876 3.6928
42.368303 87.876 3.5525
42.675322 87.876 3.4109
42.984565 87.877 3.2673
43.296048 87.877 3.1217
43.609789 87.877 2.9745
43.925804 87.876 2.8264
44.244108 87.875 2.6787
44.564719 87.874 2.5318
44.887654 87.873 2.3858
45.212928 87.872 2.2400
45.540560 87.871 2.0934
45.870565 87.870 1.9456
46.202962 87.869 1.7967
46.537768 87.868 1.6476
46.875000 87.866 1.4990
47.214676 87.863 1.3517
47.556813 87.861 1.2055
47.901429 87.858 1.0607
48.248542 87.855 0.9175
48.598171 87.851 0.7769
48.950334 87.847 0.6401
49.305048 87.843 0.5076
49.662333 87.839 0.3790
50.022206 87.835 0.2531
50.384688 87.831 0.1279
50.749796 87.828 0.0024
51.117550 87.824 -0.1245
51.487969 87.820 -0.2534
51.861072 87.816 -0.3851
52.236879 87.812 -0.5210
52.615409 87.807 -0.6621
52.996681 87.801 -0.8083
53.380717 87.794 -0.9573
53.767536 87.787 -1.1046
54.157158 87.778 -1.2456
54.549603 87.769 -1.3779
54.944892 87.762 -1.5028
55.343045 87.757 -1.6254
55.744084 87.754 -1.7526
56.148028 87.752 -1.8894
56.554900 87.750 -2.0365
56.964720 87.748 -2.1891
57.377510 87.745 -2.3392
57.793291 87.740 -2.4794
58.212085 87.736 -2.6063
58.633914 87.733 -2.7215
59.058799 87.731 -2.8300
59.486764 87.730 -2.9374
59.917829 87.728 -3.0468
60.352019 87.726 -3.1584
60.789354 87.722 -3.2705
61.229859 87.716 -3.3812
61.673556 87.708 -3.4900
62.120468 87.699 -3.5974
62.570618 87.688 -3.7056
63.024031 87.676 -3.8164
63.480729 87.662 -3.9311
63.940736 87.648 -4.0491
64.404077 87.632 -4.1682
64.870776 87.617 -4.2865
65.340856 87.603 -4.4044
65.814343 87.593 -4.5271
66.291261 87.586 -4.6636
66.771635 87.582 -4.8229
67.255489 87.581 -5.0088
67.742850 87.579 -5.2169
68.233743 87.576 -5.4349
68.728193 87.571 -5.6467
69.226226 87.564 -5.8375
69.727867 87.557 -5.9978
70.233144 87.551 -6.1248
70.742083 87.547 -6.2223
71.254709 87.545 -6.2985
71.771050 87.545 -6.3629
72.291132 87.545 -6.4244
72.814984 87.546 -6.4901
73.342631 87.544 -6.5643
73.874102 87.541 -6.6497
74.409424 87.533 -6.7460
74.948626 87.522 -6.8510
75.491734 87.508 -6.9608
76.038779 87.490 -7.0719
76.589787 87.471 -7.1823
77.144788 87.451 -7.2931
77.703811 87.431 -7.4077
78.266885 87.413 -7.5283
78.834039 87.395 -7.6539
79.405303 87.379 -7.7805
79.980706 87.363 -7.9041
80.560280 87.349 -8.0220
81.144053 87.337 -8.1340
81.732056 87.327 -8.2419
82.324320 87.318 -8.3485
82.920876 87.310 -8.4562
83.521755 87.302 -8.5667
84.126988 87.293 -8.6810
84.736607 87.283 -8.7987
85.350643 87.270 -8.9188
85.969129 87.256 -9.0402
86.592097 87.239 -9.1616
87.219579 87.222 -9.2829
87.851608 87.205 -9.4052
88.488217 87.189 -9.5308
89.129439 87.174 -9.6628
89.775308 87.160 -9.8036
90.425856 87.148 -9.9545
91.081119 87.137 -10.1148
91.741131 87.127 -10.2817
92.405925 87.117 -10.4504
93.075536 87.105 -10.6132
93.750000 87.091 -10.7562
94.429351 87.076 -10.8646
95.113625 87.061 -10.9343
95.802858 87.048 -10.9773
96.497085 87.036 -11.0114
97.196342 87.024 -11.0444
97.900667 87.010 -11.0765
98.610096 86.996 -11.1096
99.324665 86.980 -11.1508
100.044413 86.964 -11.2072
100.769376 86.947 -11.2812
101.499592 86.929 -11.3711
102.235100 86.910 -11.4734
102.975938 86.891 -11.5848
103.722144 86.873 -11.7023
104.473757 86.856 -11.8231
105.230817 86.840 -11.9446
105.993363 86.824 -12.0649
106.761435 86.810 -12.1820
107.535072 86.795 -12.2941
108.314315 86.780 -12.3988
109.099206 86.764 -12.4941
109.889783 86.748 -12.5790
110.686090 86.730 -12.6549
111.488167 86.712 -12.7252
112.296056 86.693 -12.7937
113.109800 86.674 -12.8632
113.929440 86.656 -12.9353
114.755020 86.638 -13.0104
115.586582 86.620 -13.0881
116.424170 86.604 -13.1694
117.267827 86.589 -13.2556
118.117598 86.574 -13.3448
118.973527 86.558 -13.4308
119.835658 86.539 -13.5067
120.704037 86.517 -13.5679
121.578708 86.493 -13.6124
122.459718 86.467 -13.6442
123.347111 86.440 -13.6719
124.240935 86.414 -13.7070
125.141236 86.388 -13.7593
126.048061 86.363 -13.8324
126.961458 86.340 -13.9216
127.881473 86.318 -14.0180
128.808154 86.297 -14.1111
129.741551 86.278 -14.1904
130.681712 86.259 -14.2488
131.628686 86.242 -14.2882
132.582521 86.226 -14.3210
133.543269 86.208 -14.3665
134.510979 86.188 -14.4395
135.485701 86.161 -14.5365
136.467486 86.128 -14.6365
137.456386 86.090 -14.7150
138.452451 86.052 -14.7582
139.455735 86.016 -14.7676
140.466288 85.984 -14.7555
141.484165 85.957 -14.7341
142.509418 85.932 -14.7101
143.542100 85.908 -14.6855
144.582265 85.884 -14.6617
145.629968 85.860 -14.6416
146.685262 85.836 -14.6302
147.748204 85.811 -14.6320
148.818849 85.785 -14.6462
149.897251 85.759 -14.6660
150.983469 85.735 -14.6821
152.077557 85.714 -14.6837
153.179574 85.697 -14.6577
154.289576 85.685 -14.5898
155.407622 85.678 -14.4723
156.533770 85.675 -14.3093
157.668078 85.675 -14.1183
158.810606 85.675 -13.9219
159.961413 85.672 -13.7380
161.120559 85.666 -13.5775
162.288105 85.658 -13.4417
163.464112 85.652 -13.3278
164.648640 85.650 -13.2330
165.841752 85.655 -13.1543
167.043510 85.666 -13.0906
168.253976 85.681 -13.0435
169.473213 85.701 -13.0212
170.701286 85.724 -13.0386
171.938258 85.748 -13.1075
173.184194 85.774 -13.2304
174.439158 85.801 -13.4054
175.703216 85.829 -13.6270
176.976434 85.855 -13.8860
178.258878 85.876 -14.1676
179.550615 85.890 -14.4487
180.851713 85.894 -14.7046
182.162239 85.890 -14.9161
183.482262 85.879 -15.0809
184.811850 85.862 -15.2223
186.151073 85.841 -15.3783
187.500000 85.813 -15.5840
188.858702 85.777 -15.8496
190.227250 85.735 -16.1464
191.605715 85.691 -16.4242
192.994169 85.652 -16.6484
194.392685 85.623 -16.8230
195.801334 85.602 -16.9801
197.220191 85.582 -17.1377
198.649330 85.556 -17.2830
200.088825 85.525 -17.4041
201.538751 85.490 -17.5062
202.999184 85.454 -17.6002
204.470200 85.419 -17.6927
205.951875 85.385 -17.7856
207.444287 85.352 -17.8790
208.947514 85.317 -17.9738
210.461634 85.282 -18.0725
211.986726 85.246 -18.1783
213.522869 85.211 -18.2938
215.070144 85.178 -18.4174
216.628631 85.149 -18.5443
218.198411 85.123 -18.6660
219.779567 85.099 -18.7723
221.372180 85.072 -18.8516
222.976334 85.042 -18.8910
224.592112 85.007 -18.8811
226.219600 84.970 -18.8290
227.858880 84.934 -18.7647
229.510039 84.900 -18.7294
231.173164 84.867 -18.7519
232.848340 84.833 -18.8326
234.535655 84.795 -18.9457
236.235197 84.751 -19.0562
237.947054 84.704 -19.1387
239.671317 84.654 -19.1901
241.408074 84.604 -19.2253
243.157416 84.555 -19.2568
244.919435 84.508 -19.2878
246.694223 84.462 -19.3219
248.481871 84.418 -19.3690
250.282473 84.375 -19.4348
252.096123 84.332 -19.5108
253.922915 84.290 -19.5774
255.762945 84.248 -19.6138
257.616309 84.205 -19.6095
259.483103 84.161 -19.5670
261.363424 84.113 -19.4946
263.257372 84.063 -19.4000
265.165043 84.012 -19.2871
267.086538 83.960 -19.1604
269.021957 83.909 -19.0277
270.971401 83.858 -18.8976
272.934972 83.808 -18.7730
274.912771 83.761 -18.6510
276.904902 83.716 -18.5286
278.911469 83.674 -18.4015
280.932577 83.635 -18.2615
282.968330 83.596 -18.1051
285.018835 83.559 -17.9419
287.084199 83.521 -17.7885
289.164530 83.481 -17.6533
291.259935 83.442 -17.5321
293.370525 83.402 -17.4086
295.496408 83.364 -17.2612
297.637697 83.326 -17.0760
299.794503 83.290 -16.8615
301.966937 83.254 -16.6379
304.155114 83.221 -16.4187
306.359147 83.190 -16.2047
308.579152 83.161 -15.9915
310.815244 83.134 -15.7766
313.067539 83.108 -15.5618
315.336156 83.084 -15.3500
317.621211 83.060 -15.1438
319.922826 83.036 -14.9443
322.241118 83.012 -14.7523
324.576210 82.988 -14.5668
326.928223 82.964 -14.3848
329.297280 82.940 -14.2035
331.683504 82.917 -14.0219
334.087019 82.894 -13.8402
336.507952 82.872 -13.6585
338.946427 82.849 -13.4750
341.402572 82.827 -13.2864
343.876516 82.804 -13.0900
346.368387 82.782 -12.8840
348.878315 82.760 -12.6680
351.406431 82.738 -12.4426
353.952867 82.718 -12.2084
356.517756 82.698 -11.9649
359.101230 82.679 -11.7109
361.703426 82.662 -11.4460
364.324478 82.647 -11.1715
366.964523 82.635 -10.8906
369.623699 82.626 -10.6080
372.302145 82.623 -10.3276
375.000000 82.625 -10.0521
377.717405 82.632 -9.7838
380.454501 82.642 -9.5306
383.211431 82.654 -9.3083
385.988339 82.666 -9.1369
388.785369 82.678 -9.0280
391.602668 82.692 -8.9734
394.440383 82.707 -8.9476
397.298660 82.720 -8.9274
400.177650 82.728 -8.9077
403.077502 82.730 -8.8956
405.998368 82.726 -8.8931
408.940400 82.719 -8.8942
411.903750 82.707 -8.8921
414.888575 82.693 -8.8833
417.895028 82.676 -8.8655
420.923268 82.657 -8.8371
423.973452 82.637 -8.7968
427.045738 82.615 -8.7438
430.140287 82.594 -8.6780
433.257261 82.571 -8.5999
436.396822 82.549 -8.5112
439.559133 82.527 -8.4136
442.744360 82.505 -8.3088
445.952668 82.484 -8.1981
449.184225 82.462 -8.0825
452.439199 82.441 -7.9624
455.717760 82.420 -7.8381
459.020079 82.399 -7.7097
462.346327 82.379 -7.5774
465.696680 82.358 -7.4421
469.071310 82.338 -7.3044
472.470394 82.319 -7.1647
475.894109 82.299 -7.0229
479.342634 82.279 -6.8787
482.816148 82.260 -6.7318
486.314833 82.240 -6.5823
489.838871 82.221 -6.4302
493.388445 82.202 -6.2753
496.963741 82.183 -6.1182
500.564945 82.164 -5.9592
504.192245 82.145 -5.7982
507.845830 82.127 -5.6346
511.525890 82.108 -5.4677
515.232618 82.089 -5.2974
518.966206 82.071 -5.1240
522.726849 82.053 -4.9484
526.514743 82.035 -4.7710
530.330086 82.017 -4.5916
534.173076 81.999 -4.4100
538.043915 81.982 -4.2261
541.942803 81.964 -4.0399
545.869944 81.947 -3.8519
549.825542 81.929 -3.6623
553.809805 81.911 -3.4713
557.822939 81.894 -3.2786
561.865154 81.876 -3.0834
565.936660 81.859 -2.8855
570.037671 81.843 -2.6843
574.168399 81.826 -2.4803
578.329060 81.810 -2.2737
582.519870 81.794 -2.0652
586.741049 81.778 -1.8544
590.992817 81.762 -1.6409
595.275394 81.746 -1.4247
599.589005 81.730 -1.2054
603.933874 81.715 -0.9833
608.310228 81.699 -0.7579
612.718295 81.683 -0.5290
617.158304 81.668 -0.2967
621.630488 81.653 -0.0615
626.135079 81.638 0.1763
630.672311 81.623 0.4167
635.242423 81.609 0.6602
639.845651 81.595 0.9066
644.482237 81.581 1.1559
649.152421 81.567 1.4081
653.856447 81.554 1.6632
658.594560 81.541 1.9214
663.367008 81.528 2.1832
668.174039 81.516 2.4489
673.015903 81.504 2.7186
677.892854 81.493 2.9924
682.805145 81.482 3.2701
687.753032 81.471 3.5514
692.736774 81.460 3.8361
697.756631 81.450 4.1243
702.812863 81.440 4.4161
707.905735 81.431 4.7118
713.035511 81.422 5.0116
718.202461 81.414 5.3153
723.406852 81.407 5.6227
728.648956 81.400 5.9333
733.929047 81.393 6.2471
739.247399 81.387 6.5643
744.604290 81.382 6.8857
750.000000 81.377 7.2116
755.434809 81.373 7.5424
760.909001 81.369 7.8776
766.422861 81.367 8.2169
771.976677 81.365 8.5594
777.570739 81.364 8.9050
783.205337 81.364 9.2532
788.880766 81.365 9.6044
794.597321 81.367 9.9590
800.355301 81.369 10.3170
806.155005 81.372 10.6782
811.996736 81.377 11.0420
817.880799 81.382 11.4083
823.807501 81.389 11.7769
829.777150 81.397 12.1473
835.790057 81.406 12.5197
841.846536 81.416 12.8937
847.946903 81.427 13.2690
854.091476 81.440 13.6455
860.280575 81.454 14.0229
866.514523 81.469 14.4008
872.793644 81.486 14.7788
879.118267 81.504 15.1566
885.488720 81.523 15.5339
891.905336 81.543 15.9106
898.368450 81.565 16.2869
904.878398 81.588 16.6620
911.435520 81.613 17.0358
918.040157 81.639 17.4075
924.692655 81.666 17.7767
931.393359 81.695 18.1428
938.142619 81.725 18.5048
944.940787 81.756 18.8623
951.788218 81.789 19.2150
958.685268 81.823 19.5624
965.632296 81.858 19.9043
972.629666 81.895 20.2404
979.677741 81.933 20.5701
986.776890 81.971 20.8929
993.927482 82.011 21.2086
1001.129891 82.052 21.5169
1008.384491 82.094 21.8176
1015.691660 82.137 22.1104
1023.051781 82.180 22.3949
1030.465236 82.224 22.6713
1037.932411 82.269 22.9391
1045.453698 82.315 23.1984
1053.029486 82.361 23.4487
1060.660172 82.407 23.6901
1068.346153 82.454 23.9224
1076.087829 82.501 24.1459
1083.885605 82.548 24.3608
1091.739887 82.595 24.5670
1099.651084 82.643 24.7646
1107.619609 82.690 24.9539
1115.645878 82.737 25.1351
1123.730308 82.784 25.3088
1131.873321 82.830 25.4756
1140.075341 82.876 25.6356
1148.336797 82.921 25.7893
1156.658119 82.966 25.9366
1165.039741 83.011 26.0780
1173.482099 83.055 26.2139
1181.985634 83.099 26.3452
1190.550789 83.142 26.4724
1199.178011 83.185 26.5964
1207.867749 83.227 26.7177
1216.620457 83.269 26.8370
1225.436590 83.310 26.9545
1234.316609 83.351 27.0704
1243.260976 83.391 27.1853
1252.270157 83.431 27.2995
1261.344623 83.470 27.4132
1270.484846 83.509 27.5267
1279.691303 83.547 27.6401
1288.964474 83.586 27.7539
1298.304842 83.624 27.8683
1307.712894 83.662 27.9838
1317.189120 83.700 28.1007
1326.734016 83.738 28.2190
1336.348077 83.776 28.3388
1346.031806 83.815 28.4599
1355.785708 83.853 28.5822
1365.610290 83.892 28.7056
1375.506065 83.931 28.8298
1385.473549 83.971 28.9548
1395.513261 84.010 29.0804
1405.625726 84.051 29.2064
1415.811469 84.091 29.3328
1426.071023 84.132 29.4595
1436.404921 84.174 29.5863
1446.813703 84.216 29.7133
1457.297912 84.258 29.8408
1467.858093 84.302 29.9689
1478.494798 84.345 30.0976
1489.208581 84.390 30.2269
1500.000000 84.435 30.3565
1510.869618 84.481 30.4862
1521.818002 84.528 30.6157
1532.845723 84.576 30.7448
1543.953355 84.626 30.8733
1555.141477 84.676 31.0012
1566.410674 84.727 31.1280
1577.761531 84.780 31.2532
1589.194642 84.834 31.3763
1600.710601 84.889 31.4962
1612.310010 84.946 31.6122
1623.993473 85.004 31.7235
1635.761599 85.064 31.8294
1647.615002 85.125 31.9294
1659.554299 85.187 32.0229
1671.580114 85.251 32.1095
1683.693072 85.317 32.1888
1695.893807 85.385 32.2597
1708.182952 85.455 32.3207
1720.561150 85.527 32.3696
1733.029045 85.601 32.4048
1745.587288 85.676 32.4260
1758.236533 85.753 32.4337
1770.977440 85.831 32.4287
1783.810673 85.910 32.4112
1796.736900 85.988 32.3806
1809.756796 86.068 32.3348
1822.871040 86.147 32.2720
1836.080315 86.226 32.1907
1849.385310 86.306 32.0903
1862.786718 86.387 31.9703
1876.285239 86.467 31.8303
1889.881575 86.548 31.6700
1903.576436 86.628 31.4890
1917.370535 86.708 31.2870
1931.264593 86.788 31.0639
1945.259332 86.866 30.8195
1959.355483 86.944 30.5538
1973.553781 87.021 30.2670
1987.854965 87.096 29.9592
2002.259781 87.169 29.6306
2016.768981 87.241 29.2817
2031.383320 87.310 28.9131
2046.103561 87.377 28.5255
2060.930471 87.441 28.1200
2075.864823 87.503 27.6976
2090.907395 87.561 27.2600
2106.058972 87.617 26.8086
2121.320344 87.669 26.3450
2136.692305 87.717 25.8706
2152.175658 87.762 25.3873
2167.771210 87.803 24.8970
2183.479774 87.840 24.4019
2199.302169 87.873 23.9043
2215.239219 87.903 23.4066
2231.291755 87.928 22.9111
2247.460615 87.951 22.4202
2263.746641 87.969 21.9360
2280.150683 87.985 21.4603
2296.673595 87.998 20.9949
2313.316238 88.008 20.5406
2330.079481 88.017 20.0979
2346.964198 88.024 19.6663
2363.971268 88.030 19.2448
2381.101578 88.034 18.8320
2398.356022 88.039 18.4259
2415.735498 88.042 18.0241
2433.240913 88.045 17.6245
2450.873180 88.047 17.2253
2468.633217 88.048 16.8262
2486.521951 88.047 16.4269
2504.540314 88.045 16.0281
2522.689246 88.041 15.6311
2540.969692 88.035 15.2372
2559.382606 88.027 14.8482
2577.928947 88.017 14.4659
2596.609683 88.006 14.0920
2615.425787 87.992 13.7279
2634.378241 87.977 13.3749
2653.468031 87.961 13.0342
2672.696154 87.943 12.7068
2692.063613 87.925 12.3939
2711.571415 87.907 12.0964
2731.220579 87.888 11.8151
2751.012130 87.870 11.5493
2770.947098 87.854 11.2977
2791.026522 87.838 11.0577
2811.251451 87.825 10.8257
2831.622938 87.814 10.5981
2852.142045 87.805 10.3716
2872.809842 87.797 10.1432
2893.627406 87.791 9.9113
2914.595823 87.786 9.6747
2935.716186 87.781 9.4332
2956.989596 87.778 9.1866
2978.417161 87.774 8.9349
3000.000000 87.772 8.6781
3021.739237 87.769 8.4163
3043.636005 87.767 8.1495
3065.691446 87.766 7.8779
3087.906710 87.764 7.6012
3110.282955 87.762 7.3196
3132.821347 87.760 7.0331
3155.523062 87.759 6.7419
3178.389283 87.757 6.4459
3201.421202 87.755 6.1453
3224.620020 87.752 5.8401
3247.986946 87.750 5.5304
3271.523198 87.747 5.2164
3295.230004 87.743 4.8981
3319.108599 87.740 4.5760
3343.160228 87.736 4.2503
3367.386145 87.732 3.9213
3391.787613 87.728 3.5887
3416.365904 87.724 3.2518
3441.122300 87.721 2.9089
3466.058091 87.718 2.5574
3491.174576 87.717 2.1936
3516.473066 87.715 1.8137
3541.954880 87.714 1.4136
3567.621345 87.713 0.9893
3593.473800 87.710 0.5381
3619.513592 87.706 0.0585
3645.742080 87.698 -0.4490
3672.160630 87.686 -0.9822
3698.770620 87.669 -1.5374
3725.573436 87.646 -2.1091
3752.570477 87.618 -2.6917
3779.763150 87.582 -3.2789
3807.152872 87.541 -3.8651
3834.741071 87.493 -4.4451
3862.529185 87.439 -5.0143
3890.518664 87.379 -5.5688
3918.710966 87.314 -6.1056
3947.107561 87.243 -6.6219
3975.709929 87.168 -7.1161
4004.519563 87.089 -7.5866
4033.537962 87.005 -8.0325
4062.766641 86.918 -8.4526
4092.207123 86.827 -8.8463
4121.860942 86.733 -9.2123
4151.729646 86.636 -9.5498
4181.814790 86.535 -9.8577
4212.117944 86.432 -10.1348
4242.640687 86.327 -10.3801
4273.384610 86.219 -10.5930
4304.351317 86.109 -10.7724
4335.542421 85.998 -10.9175
4366.959549 85.885 -11.0275
4398.604338 85.770 -11.1014
4430.478438 85.654 -11.1387
4462.583511 85.537 -11.1385
4494.921231 85.419 -11.1000
4527.493283 85.301 -11.0233
4560.301365 85.184 -10.9091
4593.347189 85.068 -10.7587
4626.632476 84.953 -10.5734
4660.158962 84.841 -10.3538
4693.928395 84.732 -10.1011
4727.942535 84.624 -9.8162
4762.203156 84.519 -9.5001
4796.712043 84.416 -9.1530
4831.470996 84.316 -8.7740
4866.481826 84.218 -8.3622
4901.746360 84.122 -7.9154
4937.266434 84.031 -7.4316
4973.043902 83.943 -6.9095
5009.080628 83.860 -6.3493
5045.378492 83.784 -5.7527
5081.939384 83.715 -5.1237
5118.765212 83.654 -4.4681
5155.857894 83.601 -3.7938
5193.219366 83.559 -3.1100
5230.851574 83.525 -2.4264
5268.756481 83.502 -1.7537
5306.936062 83.487 -1.1022
5345.392309 83.481 -0.4819
5384.127225 83.482 0.0983
5423.142830 83.490 0.6310
5462.441159 83.501 1.1108
5502.024259 83.516 1.5345
5541.894195 83.531 1.9016
5582.053045 83.546 2.2142
5622.502902 83.558 2.4767
5663.245876 83.566 2.6960
5704.284090 83.569 2.8802
5745.619684 83.566 3.0392
5787.254813 83.557 3.1827
5829.191647 83.542 3.3209
5871.432373 83.521 3.4635
5913.979192 83.494 3.6188
5956.834323 83.462 3.7943
6000.000000 83.426 3.9956
6043.478473 83.388 4.2272
6087.272010 83.348 4.4915
6131.382892 83.307 4.7896
6175.813420 83.266 5.1214
6220.565910 83.226 5.4861
6265.642695 83.188 5.8821
6311.046124 83.153 6.3071
6356.778566 83.122 6.7587
6402.842404 83.094 7.2339
6449.240040 83.072 7.7296
6495.973891 83.055 8.2428
6543.046396 83.043 8.7704
6590.460007 83.038 9.3093
6638.217197 83.039 9.8568
6686.320456 83.048 10.4094
6734.772290 83.064 10.9640
6783.575226 83.088 11.5163
6832.731809 83.122 12.0623
6882.244600 83.165 12.5976
6932.116181 83.219 13.1171
6982.349153 83.285 13.6139
7032.946133 83.364 14.0790
7083.909760 83.457 14.5011
7135.242690 83.564 14.8663
7186.947600 83.686 15.1586
7239.027185 83.824 15.3596
7291.484160 83.977 15.4492
7344.321260 84.145 15.4060
7397.541239 84.328 15.2067
7451.146872 84.523 14.8262
7505.140954 84.729 14.2369
7559.526299 84.942 13.4099
7614.305743 85.160 12.3156
7669.482141 85.374 10.9276
7725.058371 85.578 9.2261
7781.037328 85.762 7.2007
7837.421932 85.915 4.8545
7894.215122 86.026 2.2061
7951.419859 86.084 -0.7087
8009.039125 86.077 -3.8348
8067.075924 85.997 -7.0965
8125.533282 85.836 -10.3984
8184.414245 85.589 -13.6268
8243.721885 85.256 -16.6495
8303.459292 84.840 -19.3176
8363.629581 84.353 -21.4687
8424.235888 83.815 -22.9433
8485.281374 83.265 -23.6328
8546.769221 82.751 -23.5748
8608.702634 82.324 -23.0563
8671.084842 81.999 -22.5780
8733.919097 81.739 -22.5690
8797.208675 81.474 -23.0818
8860.956876 81.155 -23.8359
8925.167022 80.766 -24.4813
8989.842461 80.323 -24.7683
9054.986566 79.852 -24.5803
9120.602731 79.379 -23.9039
9186.694378 78.926 -22.7888
9253.264952 78.509 -21.3140
9320.317925 78.136 -19.5662
9387.856790 77.813 -17.6276
9455.885071 77.540 -15.5701
9524.406312 77.315 -13.4537
9593.424086 77.137 -11.3286
9662.941992 77.001 -9.2358
9732.963653 76.904 -7.2095
9803.492719 76.842 -5.2780
9874.532869 76.809 -3.4640
9946.087805 76.803 -1.7848
10018.161257 76.818 -0.2528
10090.756983 76.849 1.1240
10163.878768 76.893 2.3419
10237.530423 76.945 3.4010
10311.715789 77.001 4.3049
10386.438732 77.058 5.0604
10461.703149 77.112 5.6766
10537.512962 77.160 6.1648
10613.872125 77.199 6.5380
10690.784618 77.226 6.8125
10768.254450 77.239 7.0087
10846.285661 77.236 7.1516
10924.882318 77.217 7.2702
11004.048518 77.182 7.3939
11083.788390 77.134 7.5476
11164.106090 77.077 7.7446
11245.005805 77.015 7.9827
11326.491752 76.952 8.2448
11408.568180 76.889 8.5059
11491.239368 76.827 8.7408
11574.509626 76.764 8.9298
11658.383294 76.697 9.0615
11742.864745 76.625 9.1325
11827.958384 76.544 9.1445
11913.668646 76.453 9.1029
12000.000000 76.351 9.0144
12086.956947 76.236 8.8868
12174.544019 76.107 8.7288
12262.765784 75.965 8.5491
12351.626840 75.809 8.3571
12441.131819 75.638 8.1621
12531.285389 75.453 7.9739
12622.092249 75.253 7.8020
12713.557132 75.041 7.6553
12805.684808 74.816 7.5413
12898.480079 74.579 7.4658
12991.947783 74.334 7.4335
13086.092792 74.081 7.4470
13180.920015 73.823 7.5085
13276.434395 73.563 7.6183
13372.640911 73.305 7.7748
13469.544580 73.050 7.9746
13567.150452 72.804 8.2130
13665.463617 72.569 8.4838
13764.489200 72.349 8.7791
13864.232362 72.147 9.0903
13964.698305 71.968 9.4088
14065.892266 71.813 9.7239
14167.819519 71.688 10.0227
14270.485380 71.595 10.2883
14373.895200 71.538 10.5006
14478.054370 71.519 10.6358
14582.968320 71.538 10.6674
14688.642520 71.597 10.5663
14795.082478 71.693 10.3024
14902.293745 71.824 9.8442
15010.281908 71.987 9.1601
15119.052599 72.173 8.2197
15228.611486 72.377 6.9960
15338.964283 72.586 5.4680
15450.116741 72.790 3.6246
15562.074656 72.975 1.4681
15674.843864 73.128 -0.9832
15788.430244 73.235 -3.6924
15902.839718 73.284 -6.6045
16018.078250 73.266 -9.6484
16134.151848 73.172 -12.7419
16251.066563 72.998 -15.7976
16368.828491 72.746 -18.7314
16487.443769 72.418 -21.4703
16606.918584 72.022 -23.9609
16727.259161 71.567 -26.1774
16848.471777 71.065 -28.1271
16970.562748 70.527 -29.8552
17093.538442 69.964 -31.4465
17217.405268 69.383 -33.0229
17342.169684 68.788 -34.7350
17467.838194 68.173 -36.7473
17594.417350 67.527 -39.2201
17721.913751 66.831 -42.2899
17850.334044 66.058 -46.0560
17979.684923 65.180 -50.5797
18109.973131 64.167 -55.9048
18241.205462 62.999 -62.1137
18373.388756 61.666 -69.4340
18506.529905 60.173 -78.4403
18640.635849 58.551 -90.4539
18775.713581 56.862 -108.2011
18911.770141 55.210 -135.1296
19048.812624 53.736 -167.1538
19186.848172 52.577 168.1014
19325.883983 51.795 152.6893
19465.927305 51.338 142.8870
19606.985439 51.097 136.1366
19749.065738 50.971 131.2650
19892.175609 50.904 127.9059
20036.322514 50.873 126.1316

