* Measurement data measured by REW V5.31.3
* Source: Headset (2- CX31993 HIFI AUDIO), MICROPHONE (Master Volume), R, volume: 0.250
* Format: 256k Log Swept Sine, 1 sweep at -12.0 dBFS with no timing reference
* Dated: 12 3, 24 6:33:09 AM
* REW Settings:
*  C-weighting compensation: Off
*  Target level: 75.0 dB
* Note: ; 
* Measurement: APP2 R
* Smoothing: 1/12 octave
* Frequency Step: 96 ppo
* Start Frequency: 0.36621094 Hz
*
* Freq(Hz) SPL(dB) Phase(degrees)
0.366211 24.036 -156.5722
0.368865 24.064 -156.8326
0.371538 24.106 -157.2214
0.374230 24.157 -157.7074
0.376942 24.215 -158.2632
0.379673 24.278 -158.8688
0.382424 24.342 -159.5106
0.385196 24.409 -160.1801
0.387987 24.476 -160.8721
0.390798 24.544 -161.5835
0.393630 24.613 -162.3125
0.396483 24.683 -163.0577
0.399356 24.753 -163.8184
0.402250 24.823 -164.5938
0.405165 24.895 -165.3833
0.408101 24.966 -166.1861
0.411058 25.038 -167.0018
0.414037 25.111 -167.8295
0.417037 25.184 -168.6688
0.420059 25.258 -169.5188
0.423103 25.332 -170.3789
0.426169 25.407 -171.2483
0.429257 25.482 -172.1263
0.432368 25.558 -173.0123
0.435501 25.635 -173.9053
0.438656 25.712 -174.8048
0.441835 25.789 -175.7099
0.445037 25.867 -176.6199
0.448262 25.946 -177.5342
0.451510 26.025 -178.4520
0.454782 26.105 -179.3727
0.458077 26.186 179.7043
0.461397 26.267 178.7798
0.464740 26.348 177.8542
0.468108 26.430 176.9283
0.471500 26.513 176.0023
0.474917 26.597 175.0769
0.478358 26.681 174.1525
0.481825 26.765 173.2294
0.485316 26.850 172.3081
0.488833 26.936 171.3888
0.492375 27.023 170.4719
0.495943 27.110 169.5575
0.499537 27.197 168.6459
0.503157 27.286 167.7371
0.506803 27.375 166.8314
0.510475 27.464 165.9287
0.514175 27.555 165.0292
0.517900 27.646 164.1327
0.521653 27.737 163.2392
0.525434 27.829 162.3487
0.529241 27.922 161.4610
0.533076 28.016 160.5760
0.536939 28.110 159.6935
0.540830 28.205 158.8132
0.544749 28.301 157.9351
0.548696 28.397 157.0587
0.552673 28.494 156.1837
0.556677 28.592 155.3100
0.560711 28.690 154.4371
0.564774 28.790 153.5647
0.568867 28.889 152.6924
0.572989 28.990 151.8198
0.577141 29.091 150.9466
0.581324 29.194 150.0723
0.585536 29.296 149.1966
0.589779 29.400 148.3188
0.594053 29.504 147.4387
0.598358 29.609 146.5558
0.602694 29.715 145.6696
0.607061 29.822 144.7796
0.611460 29.929 143.8854
0.615891 30.037 142.9865
0.620354 30.146 142.0825
0.624849 30.256 141.1729
0.629377 30.367 140.2571
0.633938 30.478 139.3348
0.638532 30.590 138.4055
0.643159 30.703 137.4688
0.647819 30.817 136.5242
0.652514 30.931 135.5713
0.657242 31.047 134.6096
0.662005 31.163 133.6389
0.666802 31.280 132.6586
0.671634 31.398 131.6685
0.676501 31.517 130.6681
0.681403 31.637 129.6573
0.686341 31.757 128.6357
0.691314 31.879 127.6031
0.696324 32.001 126.5594
0.701370 32.125 125.5046
0.706452 32.250 124.4390
0.711571 32.376 123.3631
0.716728 32.504 122.2779
0.721921 32.634 121.1854
0.727153 32.767 120.0882
0.732422 32.903 118.9903
0.737729 33.043 117.8962
0.743075 33.187 116.8106
0.748460 33.334 115.7376
0.753883 33.484 114.6802
0.759346 33.637 113.6406
0.764849 33.792 112.6201
0.770391 33.951 111.6193
0.775974 34.111 110.6388
0.781597 34.274 109.6785
0.787261 34.439 108.7384
0.792966 34.607 107.8181
0.798712 34.777 106.9171
0.804500 34.949 106.0351
0.810329 35.123 105.1714
0.816201 35.300 104.3254
0.822116 35.478 103.4963
0.828073 35.659 102.6835
0.834074 35.842 101.8861
0.840118 36.027 101.1033
0.846206 36.214 100.3344
0.852338 36.402 99.5785
0.858514 36.593 98.8348
0.864735 36.786 98.1024
0.871001 36.980 97.3804
0.877313 37.176 96.6681
0.883670 37.373 95.9646
0.890074 37.572 95.2691
0.896524 37.773 94.5807
0.903020 37.975 93.8987
0.909564 38.178 93.2222
0.916155 38.383 92.5505
0.922794 38.588 91.8829
0.929481 38.795 91.2185
0.936216 39.003 90.5566
0.943000 39.212 89.8966
0.949834 39.421 89.2377
0.956717 39.631 88.5792
0.963649 39.842 87.9205
0.970632 40.053 87.2609
0.977666 40.265 86.5998
0.984750 40.477 85.9365
0.991886 40.689 85.2705
0.999074 40.900 84.6012
1.006314 41.112 83.9280
1.013606 41.323 83.2503
1.020951 41.534 82.5676
1.028349 41.744 81.8795
1.035801 41.953 81.1853
1.043307 42.161 80.4848
1.050867 42.368 79.7774
1.058482 42.574 79.0631
1.066152 42.778 78.3417
1.073878 42.981 77.6134
1.081660 43.182 76.8789
1.089498 43.382 76.1394
1.097393 43.580 75.3966
1.105345 43.777 74.6528
1.113355 43.973 73.9105
1.121423 44.168 73.1719
1.129549 44.362 72.4385
1.137734 44.555 71.7116
1.145979 44.747 70.9919
1.154283 44.939 70.2796
1.162647 45.130 69.5751
1.171072 45.320 68.8783
1.179558 45.509 68.1891
1.188106 45.698 67.5075
1.196715 45.887 66.8333
1.205387 46.075 66.1660
1.214122 46.262 65.5056
1.222920 46.448 64.8516
1.231782 46.634 64.2037
1.240708 46.820 63.5615
1.249699 47.005 62.9247
1.258754 47.189 62.2928
1.267876 47.374 61.6655
1.277063 47.557 61.0421
1.286318 47.740 60.4224
1.295639 47.923 59.8058
1.305027 48.106 59.1918
1.314484 48.288 58.5800
1.324009 48.470 57.9700
1.333604 48.652 57.3610
1.343268 48.833 56.7528
1.353002 49.015 56.1447
1.362806 49.196 55.5363
1.372681 49.377 54.9271
1.382628 49.559 54.3165
1.392647 49.740 53.7041
1.402739 49.921 53.0895
1.412904 50.103 52.4722
1.423142 50.285 51.8519
1.433455 50.466 51.2287
1.443843 50.648 50.6026
1.454305 50.830 49.9742
1.464844 51.012 49.3444
1.475459 51.193 48.7145
1.486150 51.374 48.0856
1.496920 51.554 47.4588
1.507767 51.733 46.8349
1.518693 51.911 46.2142
1.529698 52.088 45.5968
1.540783 52.265 44.9828
1.551948 52.440 44.3719
1.563194 52.615 43.7639
1.574521 52.789 43.1586
1.585931 52.961 42.5554
1.597423 53.134 41.9541
1.608999 53.305 41.3543
1.620658 53.476 40.7556
1.632402 53.646 40.1576
1.644232 53.815 39.5597
1.656146 53.984 38.9616
1.668147 54.152 38.3628
1.680235 54.320 37.7629
1.692411 54.487 37.1613
1.704675 54.654 36.5576
1.717028 54.821 35.9513
1.729470 54.987 35.3419
1.742003 55.153 34.7289
1.754626 55.320 34.1119
1.767341 55.486 33.4904
1.780147 55.652 32.8640
1.793047 55.818 32.2325
1.806040 55.984 31.5958
1.819128 56.149 30.9539
1.832310 56.315 30.3073
1.845587 56.480 29.6565
1.858961 56.644 29.0025
1.872432 56.808 28.3460
1.886001 56.971 27.6876
1.899667 57.133 27.0281
1.913433 57.294 26.3678
1.927299 57.454 25.7072
1.941265 57.614 25.0464
1.955332 57.772 24.3859
1.969501 57.930 23.7256
1.983773 58.087 23.0657
1.998148 58.243 22.4063
2.012627 58.399 21.7473
2.027212 58.554 21.0888
2.041902 58.708 20.4305
2.056698 58.862 19.7725
2.071602 59.015 19.1144
2.086614 59.168 18.4561
2.101734 59.321 17.7974
2.116964 59.473 17.1378
2.132304 59.625 16.4772
2.147756 59.777 15.8151
2.163320 59.928 15.1511
2.178996 60.079 14.4851
2.194786 60.230 13.8165
2.210690 60.380 13.1452
2.226710 60.530 12.4712
2.242845 60.679 11.7946
2.259098 60.826 11.1157
2.275468 60.973 10.4350
2.291957 61.120 9.7527
2.308566 61.265 9.0693
2.325295 61.409 8.3852
2.342145 61.553 7.7007
2.359117 61.695 7.0161
2.376212 61.837 6.3317
2.393431 61.979 5.6476
2.410775 62.120 4.9641
2.428244 62.260 4.2812
2.445840 62.399 3.5990
2.463564 62.538 2.9174
2.481416 62.677 2.2364
2.499397 62.815 1.5558
2.517509 62.953 0.8752
2.535752 63.091 0.1943
2.554127 63.228 -0.4873
2.572635 63.364 -1.1703
2.591277 63.500 -1.8552
2.610055 63.635 -2.5422
2.628968 63.769 -3.2314
2.648019 63.902 -3.9226
2.667208 64.034 -4.6155
2.686535 64.166 -5.3095
2.706003 64.296 -6.0044
2.725612 64.426 -6.6996
2.745363 64.555 -7.3947
2.765257 64.684 -8.0892
2.785295 64.812 -8.7830
2.805478 64.939 -9.4756
2.825808 65.066 -10.1668
2.846285 65.192 -10.8566
2.866910 65.318 -11.5448
2.887685 65.443 -12.2318
2.908611 65.568 -12.9177
2.929688 65.692 -13.6033
2.950917 65.816 -14.2891
2.972301 65.939 -14.9756
2.993839 66.062 -15.6632
3.015534 66.183 -16.3519
3.037386 66.304 -17.0415
3.059396 66.424 -17.7318
3.081565 66.543 -18.4224
3.103896 66.661 -19.1128
3.126388 66.779 -19.8026
3.149043 66.896 -20.4914
3.171862 67.013 -21.1788
3.194847 67.129 -21.8647
3.217998 67.245 -22.5487
3.241317 67.361 -23.2309
3.264805 67.476 -23.9114
3.288463 67.590 -24.5905
3.312293 67.705 -25.2686
3.336295 67.818 -25.9464
3.360471 67.931 -26.6241
3.384822 68.044 -27.3021
3.409350 68.155 -27.9803
3.434056 68.266 -28.6584
3.458940 68.377 -29.3363
3.484005 68.487 -30.0137
3.509252 68.596 -30.6903
3.534681 68.705 -31.3658
3.560295 68.814 -32.0400
3.586094 68.922 -32.7128
3.612081 69.031 -33.3840
3.638255 69.138 -34.0538
3.664620 69.246 -34.7224
3.691175 69.353 -35.3903
3.717923 69.460 -36.0576
3.744864 69.566 -36.7247
3.772001 69.672 -37.3917
3.799335 69.777 -38.0586
3.826866 69.882 -38.7253
3.854597 69.986 -39.3917
3.882529 70.090 -40.0577
3.910664 70.194 -40.7231
3.939002 70.298 -41.3881
3.967546 70.401 -42.0524
3.996296 70.504 -42.7161
4.025255 70.607 -43.3796
4.054423 70.709 -44.0429
4.083804 70.811 -44.7063
4.113396 70.913 -45.3700
4.143204 71.015 -46.0341
4.173227 71.116 -46.6984
4.203468 71.217 -47.3632
4.233928 71.317 -48.0283
4.264609 71.418 -48.6937
4.295512 71.518 -49.3596
4.326639 71.617 -50.0258
4.357992 71.717 -50.6924
4.389572 71.816 -51.3599
4.421380 71.914 -52.0281
4.453419 72.013 -52.6975
4.485691 72.111 -53.3682
4.518196 72.209 -54.0399
4.550936 72.306 -54.7128
4.583914 72.403 -55.3867
4.617131 72.500 -56.0616
4.650589 72.596 -56.7374
4.684289 72.692 -57.4141
4.718233 72.787 -58.0918
4.752424 72.882 -58.7708
4.786862 72.977 -59.4512
4.821549 73.071 -60.1332
4.856488 73.164 -60.8170
4.891680 73.257 -61.5024
4.927127 73.350 -62.1893
4.962831 73.442 -62.8774
4.998794 73.534 -63.5664
5.035017 73.625 -64.2563
5.071503 73.715 -64.9470
5.108253 73.805 -65.6385
5.145270 73.895 -66.3312
5.182555 73.984 -67.0253
5.220110 74.072 -67.7208
5.257937 74.160 -68.4176
5.296038 74.246 -69.1156
5.334415 74.333 -69.8143
5.373071 74.419 -70.5134
5.412006 74.504 -71.2126
5.451224 74.588 -71.9119
5.490725 74.672 -72.6111
5.530514 74.755 -73.3107
5.570590 74.838 -74.0107
5.610957 74.920 -74.7112
5.651616 75.001 -75.4120
5.692570 75.081 -76.1128
5.733821 75.161 -76.8134
5.775370 75.241 -77.5131
5.817221 75.319 -78.2121
5.859375 75.397 -78.9102
5.901834 75.475 -79.6075
5.944602 75.552 -80.3043
5.987679 75.628 -81.0006
6.031068 75.704 -81.6964
6.074771 75.780 -82.3913
6.118792 75.854 -83.0852
6.163131 75.929 -83.7780
6.207792 76.003 -84.4694
6.252776 76.076 -85.1596
6.298086 76.149 -85.8488
6.343725 76.222 -86.5370
6.389694 76.294 -87.2245
6.435996 76.366 -87.9110
6.482634 76.437 -88.5967
6.529610 76.508 -89.2814
6.576926 76.579 -89.9652
6.624585 76.649 -90.6483
6.672590 76.720 -91.3307
6.720942 76.790 -92.0126
6.769645 76.859 -92.6941
6.818700 76.929 -93.3754
6.868111 76.998 -94.0564
6.917881 77.067 -94.7374
6.968010 77.135 -95.4185
7.018504 77.204 -96.0997
7.069362 77.272 -96.7812
7.120590 77.340 -97.4631
7.172189 77.408 -98.1456
7.224161 77.475 -98.8287
7.276511 77.542 -99.5126
7.329239 77.609 -100.1971
7.382350 77.676 -100.8828
7.435845 77.742 -101.5693
7.489729 77.808 -102.2570
7.544002 77.873 -102.9457
7.598669 77.938 -103.6354
7.653732 78.003 -104.3262
7.709194 78.067 -105.0179
7.765058 78.131 -105.7108
7.821327 78.195 -106.4048
7.878004 78.258 -107.0999
7.935091 78.320 -107.7958
7.992592 78.382 -108.4924
8.050510 78.444 -109.1896
8.108847 78.505 -109.8876
8.167607 78.566 -110.5861
8.226793 78.626 -111.2850
8.286408 78.685 -111.9843
8.346454 78.744 -112.6837
8.406936 78.803 -113.3831
8.467856 78.861 -114.0823
8.529218 78.918 -114.7814
8.591024 78.975 -115.4802
8.653278 79.032 -116.1787
8.715983 79.088 -116.8767
8.779143 79.143 -117.5740
8.842760 79.199 -118.2706
8.906839 79.253 -118.9666
8.971381 79.308 -119.6617
9.036392 79.362 -120.3562
9.101873 79.415 -121.0498
9.167829 79.469 -121.7426
9.234263 79.522 -122.4346
9.301178 79.574 -123.1257
9.368578 79.627 -123.8162
9.436467 79.679 -124.5059
9.504847 79.731 -125.1949
9.573723 79.783 -125.8834
9.643099 79.834 -126.5714
9.712976 79.885 -127.2589
9.783361 79.936 -127.9461
9.854255 79.987 -128.6331
9.925663 80.038 -129.3199
9.997588 80.088 -130.0068
10.070035 80.139 -130.6938
10.143007 80.189 -131.3810
10.216507 80.239 -132.0686
10.290540 80.288 -132.7567
10.365109 80.338 -133.4454
10.440219 80.388 -134.1349
10.515873 80.437 -134.8253
10.592076 80.486 -135.5167
10.668830 80.535 -136.2093
10.746141 80.583 -136.9032
10.824012 80.631 -137.5984
10.902447 80.679 -138.2953
10.981451 80.727 -138.9937
11.061027 80.774 -139.6937
11.141180 80.821 -140.3955
11.221913 80.868 -141.0991
11.303232 80.914 -141.8043
11.385140 80.959 -142.5111
11.467641 81.004 -143.2195
11.550741 81.048 -143.9294
11.634442 81.092 -144.6404
11.718750 81.135 -145.3525
11.803669 81.177 -146.0652
11.889203 81.219 -146.7784
11.975357 81.260 -147.4917
12.062136 81.300 -148.2046
12.149543 81.339 -148.9168
12.237583 81.378 -149.6279
12.326262 81.415 -150.3376
12.415583 81.452 -151.0453
12.505552 81.489 -151.7510
12.596172 81.525 -152.4541
12.687449 81.560 -153.1545
12.779387 81.595 -153.8522
12.871992 81.630 -154.5471
12.965268 81.664 -155.2391
13.059220 81.698 -155.9285
13.153852 81.732 -156.6155
13.249170 81.766 -157.3005
13.345179 81.800 -157.9839
13.441884 81.834 -158.6663
13.539289 81.868 -159.3481
13.637401 81.902 -160.0300
13.736223 81.936 -160.7125
13.835761 81.970 -161.3962
13.936021 82.005 -162.0817
14.037007 82.039 -162.7692
14.138725 82.073 -163.4591
14.241180 82.107 -164.1516
14.344377 82.140 -164.8467
14.448323 82.174 -165.5444
14.553021 82.206 -166.2444
14.658478 82.239 -166.9464
14.764700 82.270 -167.6499
14.871691 82.301 -168.3547
14.979457 82.332 -169.0601
15.088005 82.362 -169.7658
15.197339 82.392 -170.4714
15.307465 82.421 -171.1766
15.418389 82.450 -171.8815
15.530117 82.479 -172.5859
15.642655 82.508 -173.2901
15.756008 82.537 -173.9946
15.870182 82.565 -174.7000
15.985184 82.594 -175.4067
16.101019 82.623 -176.1156
16.217694 82.652 -176.8275
16.335214 82.682 -177.5427
16.453586 82.711 -178.2621
16.572815 82.739 -178.9857
16.692909 82.768 -179.7135
16.813872 82.795 179.5546
16.935713 82.822 178.8193
17.058436 82.849 178.0814
17.182048 82.874 177.3422
17.306556 82.898 176.6029
17.431967 82.921 175.8649
17.558286 82.944 175.1297
17.685521 82.965 174.3986
17.813677 82.986 173.6726
17.942762 83.007 172.9525
18.072783 83.028 172.2385
18.203746 83.049 171.5305
18.335658 83.071 170.8278
18.468526 83.093 170.1293
18.602356 83.116 169.4337
18.737156 83.141 168.7391
18.872934 83.166 168.0438
19.009695 83.193 167.3461
19.147447 83.220 166.6444
19.286197 83.248 165.9376
19.425953 83.276 165.2250
19.566721 83.304 164.5065
19.708510 83.332 163.7823
19.851326 83.359 163.0534
19.995177 83.386 162.3207
20.140070 83.412 161.5856
20.286013 83.437 160.8495
20.433014 83.461 160.1138
20.581080 83.485 159.3792
20.730219 83.508 158.6465
20.880439 83.531 157.9161
21.031747 83.554 157.1876
21.184152 83.577 156.4607
21.337661 83.599 155.7346
21.492282 83.622 155.0087
21.648024 83.645 154.2823
21.804895 83.667 153.5551
21.962902 83.689 152.8267
22.122054 83.711 152.0975
22.282360 83.733 151.3677
22.443827 83.754 150.6381
22.606464 83.774 149.9092
22.770280 83.795 149.1814
22.935283 83.815 148.4549
23.101481 83.835 147.7295
23.268884 83.855 147.0045
23.437500 83.876 146.2790
23.607338 83.897 145.5516
23.778406 83.919 144.8212
23.950714 83.941 144.0864
24.124271 83.963 143.3463
24.299086 83.985 142.6003
24.475167 84.007 141.8487
24.652524 84.028 141.0917
24.831166 84.049 140.3301
25.011103 84.069 139.5650
25.192344 84.089 138.7971
25.374898 84.109 138.0270
25.558775 84.129 137.2552
25.743984 84.148 136.4815
25.930536 84.168 135.7055
26.118439 84.188 134.9266
26.307704 84.208 134.1440
26.498341 84.228 133.3575
26.690359 84.248 132.5670
26.883768 84.268 131.7725
27.078579 84.287 130.9747
27.274801 84.307 130.1746
27.472446 84.326 129.3730
27.671522 84.345 128.5708
27.872042 84.364 127.7687
28.074014 84.382 126.9670
28.277450 84.401 126.1655
28.482360 84.421 125.3638
28.688755 84.440 124.5616
28.896645 84.460 123.7583
29.106042 84.480 122.9535
29.316957 84.500 122.1471
29.529400 84.520 121.3391
29.743382 84.540 120.5299
29.958915 84.560 119.7200
30.176009 84.579 118.9100
30.394677 84.599 118.1005
30.614929 84.618 117.2922
30.836778 84.637 116.4854
31.060234 84.656 115.6799
31.285309 84.676 114.8755
31.512015 84.696 114.0710
31.740364 84.717 113.2647
31.970368 84.738 112.4547
32.202039 84.760 111.6386
32.435388 84.782 110.8146
32.670428 84.805 109.9818
32.907171 84.826 109.1401
33.145630 84.847 108.2908
33.385817 84.866 107.4363
33.627745 84.884 106.5793
33.871425 84.902 105.7225
34.116871 84.919 104.8670
34.364096 84.936 104.0127
34.613113 84.954 103.1577
34.863934 84.972 102.2989
35.116572 84.992 101.4330
35.371041 85.011 100.5575
35.627354 85.031 99.6715
35.885525 85.049 98.7761
36.145566 85.066 97.8740
36.407492 85.082 96.9690
36.671316 85.097 96.0652
36.937051 85.110 95.1659
37.204712 85.123 94.2736
37.474313 85.136 93.3898
37.745867 85.149 92.5162
38.019389 85.163 91.6540
38.294893 85.178 90.8044
38.572394 85.195 89.9678
38.851905 85.215 89.1419
39.133442 85.240 88.3221
39.417019 85.270 87.5000
39.702651 85.305 86.6652
39.990353 85.344 85.8066
40.280140 85.387 84.9153
40.572026 85.431 83.9861
40.866028 85.475 83.0187
41.162160 85.516 82.0176
41.460438 85.554 80.9906
41.760877 85.587 79.9470
42.063494 85.617 78.8966
42.368303 85.643 77.8475
42.675322 85.667 76.8061
42.984565 85.689 75.7754
43.296048 85.711 74.7552
43.609789 85.734 73.7412
43.925804 85.759 72.7263
44.244108 85.786 71.7017
44.564719 85.813 70.6604
44.887654 85.840 69.5997
45.212928 85.864 68.5231
45.540560 85.886 67.4396
45.870565 85.903 66.3609
46.202962 85.919 65.2964
46.537768 85.935 64.2499
46.875000 85.953 63.2174
47.214676 85.975 62.1891
47.556813 85.999 61.1530
47.901429 86.026 60.1005
48.248542 86.054 59.0286
48.598171 86.080 57.9410
48.950334 86.105 56.8453
49.305048 86.128 55.7490
49.662333 86.152 54.6570
50.022206 86.176 53.5699
50.384688 86.202 52.4847
50.749796 86.231 51.3958
51.117550 86.261 50.2973
51.487969 86.294 49.1840
51.861072 86.328 48.0525
52.236879 86.361 46.9016
52.615409 86.394 45.7327
52.996681 86.426 44.5495
53.380717 86.455 43.3573
53.767536 86.483 42.1619
54.157158 86.510 40.9678
54.549603 86.536 39.7769
54.944892 86.562 38.5886
55.343045 86.588 37.3999
55.744084 86.616 36.2075
56.148028 86.644 35.0084
56.554900 86.672 33.8016
56.964720 86.700 32.5872
57.377510 86.729 31.3663
57.793291 86.757 30.1396
58.212085 86.786 28.9069
58.633914 86.816 27.6660
59.058799 86.847 26.4131
59.486764 86.879 25.1446
59.917829 86.912 23.8577
60.352019 86.943 22.5527
60.789354 86.974 21.2330
61.229859 87.003 19.9033
61.673556 87.032 18.5671
62.120468 87.061 17.2250
62.570618 87.090 15.8746
63.024031 87.120 14.5126
63.480729 87.150 13.1374
63.940736 87.179 11.7492
64.404077 87.208 10.3497
64.870776 87.237 8.9400
65.340856 87.266 7.5196
65.814343 87.296 6.0870
66.291261 87.325 4.6414
66.771635 87.354 3.1827
67.255489 87.383 1.7122
67.742850 87.412 0.2308
68.233743 87.441 -1.2612
68.728193 87.470 -2.7640
69.226226 87.500 -4.2781
69.727867 87.530 -5.8051
70.233144 87.561 -7.3467
70.742083 87.592 -8.9052
71.254709 87.621 -10.4816
71.771050 87.649 -12.0745
72.291132 87.675 -13.6798
72.814984 87.698 -15.2920
73.342631 87.719 -16.9059
73.874102 87.737 -18.5179
74.409424 87.756 -20.1282
74.948626 87.774 -21.7409
75.491734 87.793 -23.3632
76.038779 87.813 -25.0023
76.589787 87.832 -26.6622
77.144788 87.850 -28.3423
77.703811 87.866 -30.0396
78.266885 87.881 -31.7517
78.834039 87.894 -33.4784
79.405303 87.907 -35.2206
79.980706 87.919 -36.9791
80.560280 87.930 -38.7545
81.144053 87.939 -40.5468
81.732056 87.948 -42.3562
82.324320 87.955 -44.1813
82.920876 87.959 -46.0190
83.521755 87.961 -47.8658
84.126988 87.961 -49.7181
84.736607 87.959 -51.5728
85.350643 87.954 -53.4266
85.969129 87.947 -55.2756
86.592097 87.938 -57.1180
87.219579 87.929 -58.9551
87.851608 87.919 -60.7915
88.488217 87.908 -62.6326
89.129439 87.896 -64.4835
89.775308 87.882 -66.3477
90.425856 87.866 -68.2266
91.081119 87.848 -70.1196
91.741131 87.828 -72.0247
92.405925 87.807 -73.9392
93.075536 87.784 -75.8591
93.750000 87.761 -77.7803
94.429351 87.737 -79.6990
95.113625 87.714 -81.6124
95.802858 87.691 -83.5178
96.497085 87.667 -85.4122
97.196342 87.643 -87.2950
97.900667 87.617 -89.1689
98.610096 87.590 -91.0401
99.324665 87.560 -92.9165
100.044413 87.526 -94.8042
100.769376 87.490 -96.7061
101.499592 87.450 -98.6243
102.235100 87.409 -100.5611
102.975938 87.366 -102.5183
103.722144 87.324 -104.4951
104.473757 87.283 -106.4869
105.230817 87.242 -108.4864
105.993363 87.201 -110.4837
106.761435 87.161 -112.4688
107.535072 87.119 -114.4327
108.314315 87.078 -116.3707
109.099206 87.036 -118.2846
109.889783 86.994 -120.1828
110.686090 86.952 -122.0761
111.488167 86.910 -123.9723
112.296056 86.867 -125.8748
113.109800 86.824 -127.7856
113.929440 86.783 -129.7073
114.755020 86.744 -131.6432
115.586582 86.706 -133.5951
116.424170 86.670 -135.5620
117.267827 86.632 -137.5402
118.117598 86.594 -139.5253
118.973527 86.554 -141.5148
119.835658 86.511 -143.5081
120.704037 86.466 -145.5038
121.578708 86.420 -147.4996
122.459718 86.371 -149.4941
123.347111 86.323 -151.4878
124.240935 86.275 -153.4836
125.141236 86.228 -155.4851
126.048061 86.182 -157.4945
126.961458 86.136 -159.5122
127.881473 86.090 -161.5377
128.808154 86.043 -163.5695
129.741551 85.995 -165.6041
130.681712 85.947 -167.6370
131.628686 85.899 -169.6636
132.582521 85.851 -171.6824
133.543269 85.805 -173.6962
134.510979 85.760 -175.7111
135.485701 85.715 -177.7334
136.467486 85.672 -179.7676
137.456386 85.628 178.1840
138.452451 85.584 176.1204
139.455735 85.541 174.0420
140.466288 85.498 171.9497
141.484165 85.457 169.8450
142.509418 85.415 167.7290
143.542100 85.374 165.6028
144.582265 85.331 163.4668
145.629968 85.287 161.3218
146.685262 85.242 159.1678
147.748204 85.194 157.0054
148.818849 85.144 154.8374
149.897251 85.093 152.6692
150.983469 85.040 150.5076
152.077557 84.985 148.3562
153.179574 84.930 146.2148
154.289576 84.872 144.0806
155.407622 84.813 141.9502
156.533770 84.750 139.8237
157.668078 84.683 137.7045
158.810606 84.614 135.5986
159.961413 84.544 133.5149
161.120559 84.474 131.4636
162.288105 84.405 129.4535
163.464112 84.342 127.4877
164.648640 84.286 125.5623
165.841752 84.241 123.6664
167.043510 84.210 121.7819
168.253976 84.195 119.8835
169.473213 84.197 117.9414
170.701286 84.213 115.9252
171.938258 84.241 113.8105
173.184194 84.272 111.5862
174.439158 84.302 109.2559
175.703216 84.325 106.8362
176.976434 84.337 104.3503
178.258878 84.339 101.8219
179.550615 84.331 99.2703
180.851713 84.316 96.7092
182.162239 84.295 94.1462
183.482262 84.272 91.5842
184.811850 84.246 89.0239
186.151073 84.219 86.4644
187.500000 84.191 83.9049
188.858702 84.162 81.3453
190.227250 84.133 78.7855
191.605715 84.103 76.2250
192.994169 84.071 73.6613
194.392685 84.038 71.0903
195.801334 84.002 68.5083
197.220191 83.964 65.9138
198.649330 83.924 63.3091
200.088825 83.883 60.6985
201.538751 83.844 58.0864
202.999184 83.806 55.4742
204.470200 83.770 52.8571
205.951875 83.736 50.2263
207.444287 83.702 47.5734
208.947514 83.670 44.8944
210.461634 83.638 42.1927
211.986726 83.609 39.4769
213.522869 83.580 36.7568
215.070144 83.552 34.0377
216.628631 83.523 31.3190
218.198411 83.492 28.5945
219.779567 83.458 25.8566
221.372180 83.421 23.0996
222.976334 83.380 20.3225
224.592112 83.336 17.5287
226.219600 83.290 14.7238
227.858880 83.243 11.9131
229.510039 83.198 9.1017
231.173164 83.155 6.2930
232.848340 83.113 3.4882
234.535655 83.073 0.6836
236.235197 83.032 -2.1279
237.947054 82.990 -4.9542
239.671317 82.946 -7.8009
241.408074 82.899 -10.6697
243.157416 82.851 -13.5585
244.919435 82.802 -16.4612
246.694223 82.753 -19.3704
248.481871 82.704 -22.2805
250.282473 82.657 -25.1915
252.096123 82.613 -28.1078
253.922915 82.571 -31.0352
255.762945 82.530 -33.9785
257.616309 82.491 -36.9414
259.483103 82.454 -39.9264
261.363424 82.418 -42.9358
263.257372 82.383 -45.9727
265.165043 82.347 -49.0393
267.086538 82.310 -52.1359
269.021957 82.271 -55.2581
270.971401 82.231 -58.3982
272.934972 82.190 -61.5486
274.912771 82.148 -64.7046
276.904902 82.105 -67.8673
278.911469 82.060 -71.0422
280.932577 82.014 -74.2341
282.968330 81.965 -77.4429
285.018835 81.915 -80.6641
287.084199 81.862 -83.8900
289.164530 81.808 -87.1152
291.259935 81.751 -90.3392
293.370525 81.691 -93.5642
295.496408 81.630 -96.7943
297.637697 81.568 -100.0360
299.794503 81.506 -103.2986
301.966937 81.445 -106.5887
304.155114 81.386 -109.9066
306.359147 81.327 -113.2457
308.579152 81.269 -116.5986
310.815244 81.209 -119.9608
313.067539 81.146 -123.3313
315.336156 81.079 -126.7091
317.621211 81.009 -130.0928
319.922826 80.935 -133.4829
322.241118 80.860 -136.8813
324.576210 80.784 -140.2898
326.928223 80.708 -143.7094
329.297280 80.632 -147.1394
331.683504 80.557 -150.5769
334.087019 80.484 -154.0184
336.507952 80.410 -157.4625
338.946427 80.335 -160.9097
341.402572 80.258 -164.3612
343.876516 80.177 -167.8171
346.368387 80.095 -171.2770
348.878315 80.012 -174.7407
351.406431 79.929 -178.2074
353.952867 79.848 178.3254
356.517756 79.768 174.8602
359.101230 79.689 171.3945
361.703426 79.611 167.9211
364.324478 79.532 164.4314
366.964523 79.454 160.9185
369.623699 79.377 157.3768
372.302145 79.299 153.8041
375.000000 79.222 150.2045
377.717405 79.143 146.5886
380.454501 79.061 142.9691
383.211431 78.976 139.3567
385.988339 78.888 135.7572
388.785369 78.798 132.1722
391.602668 78.709 128.5996
394.440383 78.621 125.0360
397.298660 78.535 121.4811
400.177650 78.451 117.9362
403.077502 78.366 114.3960
405.998368 78.279 110.8451
408.940400 78.188 107.2655
411.903750 78.095 103.6497
414.888575 78.001 100.0035
417.895028 77.907 96.3400
420.923268 77.814 92.6694
423.973452 77.722 88.9962
427.045738 77.631 85.3214
430.140287 77.542 81.6504
433.257261 77.452 77.9957
436.396822 77.360 74.3699
439.559133 77.264 70.7721
442.744360 77.163 67.1844
445.952668 77.061 63.5801
449.184225 76.959 59.9403
452.439199 76.860 56.2642
455.717760 76.765 52.5664
459.020079 76.675 48.8676
462.346327 76.589 45.1836
465.696680 76.507 41.5181
469.071310 76.427 37.8654
472.470394 76.350 34.2196
475.894109 76.277 30.5775
479.342634 76.207 26.9352
482.816148 76.141 23.2871
486.314833 76.078 19.6283
489.838871 76.017 15.9537
493.388445 75.956 12.2576
496.963741 75.894 8.5323
500.564945 75.831 4.7709
504.192245 75.765 0.9695
507.845830 75.697 -2.8677
511.525890 75.627 -6.7303
515.232618 75.556 -10.6064
518.966206 75.484 -14.4818
522.726849 75.412 -18.3452
526.514743 75.338 -22.1951
530.330086 75.264 -26.0399
534.173076 75.190 -29.8894
538.043915 75.117 -33.7463
541.942803 75.047 -37.6066
545.869944 74.980 -41.4644
549.825542 74.916 -45.3164
553.809805 74.854 -49.1633
557.822939 74.792 -53.0074
561.865154 74.729 -56.8507
565.936660 74.666 -60.6943
570.037671 74.601 -64.5400
574.168399 74.537 -68.3917
578.329060 74.474 -72.2543
582.519870 74.416 -76.1313
586.741049 74.362 -80.0247
590.992817 74.313 -83.9342
595.275394 74.268 -87.8580
599.589005 74.226 -91.7920
603.933874 74.183 -95.7317
608.310228 74.140 -99.6735
612.718295 74.097 -103.6155
617.158304 74.054 -107.5581
621.630488 74.011 -111.5066
626.135079 73.969 -115.4677
630.672311 73.928 -119.4432
635.242423 73.890 -123.4286
639.845651 73.856 -127.4170
644.482237 73.825 -131.4061
649.152421 73.798 -135.4015
653.856447 73.773 -139.4148
658.594560 73.749 -143.4568
663.367008 73.728 -147.5282
668.174039 73.708 -151.6205
673.015903 73.690 -155.7249
677.892854 73.673 -159.8383
682.805145 73.657 -163.9626
687.753032 73.643 -168.1021
692.736774 73.631 -172.2572
697.756631 73.620 -176.4225
702.812863 73.612 179.4098
707.905735 73.606 175.2446
713.035511 73.602 171.0817
718.202461 73.600 166.9170
723.406852 73.600 162.7466
728.648956 73.602 158.5677
733.929047 73.607 154.3765
739.247399 73.614 150.1661
744.604290 73.622 145.9275
750.000000 73.632 141.6533
755.434809 73.645 137.3446
760.909001 73.660 133.0115
766.422861 73.680 128.6664
771.976677 73.704 124.3162
777.570739 73.732 119.9592
783.205337 73.762 115.5900
788.880766 73.795 111.2057
794.597321 73.829 106.8076
800.355301 73.863 102.3977
806.155005 73.899 97.9744
811.996736 73.938 93.5334
817.880799 73.980 89.0703
823.807501 74.027 84.5839
829.777150 74.079 80.0786
835.790057 74.135 75.5603
841.846536 74.193 71.0316
847.946903 74.251 66.4902
854.091476 74.309 61.9326
860.280575 74.366 57.3545
866.514523 74.422 52.7532
872.793644 74.478 48.1274
879.118267 74.537 43.4784
885.488720 74.599 38.8098
891.905336 74.665 34.1260
898.368450 74.736 29.4298
904.878398 74.812 24.7213
911.435520 74.892 19.9961
918.040157 74.975 15.2469
924.692655 75.060 10.4664
931.393359 75.147 5.6489
938.142619 75.236 0.7947
944.940787 75.328 -4.0891
951.788218 75.421 -8.9928
958.685268 75.517 -13.9103
965.632296 75.614 -18.8420
972.629666 75.713 -23.7943
979.677741 75.814 -28.7756
986.776890 75.917 -33.7926
993.927482 76.022 -38.8496
1001.129891 76.130 -43.9495
1008.384491 76.240 -49.0935
1015.691660 76.350 -54.2792
1023.051781 76.462 -59.4985
1030.465236 76.573 -64.7417
1037.932411 76.685 -70.0000
1045.453698 76.797 -75.2668
1053.029486 76.910 -80.5403
1060.660172 77.023 -85.8242
1068.346153 77.135 -91.1309
1076.087829 77.247 -96.4741
1083.885605 77.357 -101.8618
1091.739887 77.469 -107.2937
1099.651084 77.582 -112.7668
1107.619609 77.698 -118.2795
1115.645878 77.816 -123.8301
1123.730308 77.937 -129.4146
1131.873321 78.059 -135.0244
1140.075341 78.181 -140.6494
1148.336797 78.301 -146.2854
1156.658119 78.419 -151.9346
1165.039741 78.533 -157.6055
1173.482099 78.642 -163.3091
1181.985634 78.749 -169.0544
1190.550789 78.855 -174.8452
1199.178011 78.961 179.3242
1207.867749 79.069 173.4678
1216.620457 79.178 167.6011
1225.436590 79.286 161.7358
1234.316609 79.392 155.8774
1243.260976 79.495 150.0232
1252.270157 79.595 144.1626
1261.344623 79.690 138.2832
1270.484846 79.782 132.3770
1279.691303 79.870 126.4438
1288.964474 79.956 120.4871
1298.304842 80.039 114.5127
1307.712894 80.121 108.5261
1317.189120 80.202 102.5312
1326.734016 80.281 96.5310
1336.348077 80.359 90.5291
1346.031806 80.437 84.5291
1355.785708 80.513 78.5322
1365.610290 80.588 72.5376
1375.506065 80.663 66.5435
1385.473549 80.739 60.5505
1395.513261 80.814 54.5618
1405.625726 80.888 48.5803
1415.811469 80.960 42.6084
1426.071023 81.029 36.6423
1436.404921 81.096 30.6729
1446.813703 81.162 24.6897
1457.297912 81.230 18.6868
1467.858093 81.299 12.6665
1478.494798 81.372 6.6392
1489.208581 81.448 0.6208
1500.000000 81.526 -5.3740
1510.869618 81.604 -11.3433
1521.818002 81.682 -17.2996
1532.845723 81.761 -23.2598
1543.953355 81.838 -29.2310
1555.141477 81.915 -35.2100
1566.410674 81.992 -41.1914
1577.761531 82.070 -47.1768
1589.194642 82.151 -53.1714
1600.710601 82.235 -59.1794
1612.310010 82.324 -65.2007
1623.993473 82.416 -71.2317
1635.761599 82.511 -77.2695
1647.615002 82.607 -83.3142
1659.554299 82.704 -89.3723
1671.580114 82.800 -95.4543
1683.693072 82.898 -101.5667
1695.893807 82.997 -107.7073
1708.182952 83.098 -113.8674
1720.561150 83.200 -120.0396
1733.029045 83.303 -126.2253
1745.587288 83.405 -132.4302
1758.236533 83.506 -138.6575
1770.977440 83.605 -144.9065
1783.810673 83.702 -151.1741
1796.736900 83.795 -157.4583
1809.756796 83.884 -163.7617
1822.871040 83.968 -170.0845
1836.080315 84.048 -176.4224
1849.385310 84.122 177.2307
1862.786718 84.190 170.8779
1876.285239 84.255 164.5190
1889.881575 84.315 158.1519
1903.576436 84.372 151.7759
1917.370535 84.426 145.3923
1931.264593 84.480 139.0032
1945.259332 84.532 132.6079
1959.355483 84.580 126.2029
1973.553781 84.622 119.7844
1987.854965 84.657 113.3516
2002.259781 84.681 106.9077
2016.768981 84.695 100.4614
2031.383320 84.696 94.0269
2046.103561 84.685 87.6204
2060.930471 84.662 81.2527
2075.864823 84.628 74.9292
2090.907395 84.584 68.6516
2106.058972 84.531 62.4194
2121.320344 84.469 56.2297
2136.692305 84.399 50.0825
2152.175658 84.322 43.9805
2167.771210 84.239 37.9270
2183.479774 84.151 31.9250
2199.302169 84.060 25.9802
2215.239219 83.965 20.1042
2231.291755 83.869 14.3127
2247.460615 83.771 8.6140
2263.746641 83.671 3.0049
2280.150683 83.570 -2.5234
2296.673595 83.469 -7.9802
2313.316238 83.367 -13.3721
2330.079481 83.264 -18.7024
2346.964198 83.162 -23.9712
2363.971268 83.060 -29.1792
2381.101578 82.958 -34.3267
2398.356022 82.857 -39.4116
2415.735498 82.756 -44.4292
2433.240913 82.654 -49.3787
2450.873180 82.551 -54.2629
2468.633217 82.447 -59.0842
2486.521951 82.342 -63.8433
2504.540314 82.237 -68.5388
2522.689246 82.132 -73.1682
2540.969692 82.029 -77.7273
2559.382606 81.926 -82.2144
2577.928947 81.823 -86.6313
2596.609683 81.720 -90.9790
2615.425787 81.615 -95.2534
2634.378241 81.510 -99.4456
2653.468031 81.405 -103.5461
2672.696154 81.301 -107.5493
2692.063613 81.201 -111.4519
2711.571415 81.105 -115.2595
2731.220579 81.016 -118.9829
2751.012130 80.933 -122.6345
2770.947098 80.857 -126.2229
2791.026522 80.787 -129.7524
2811.251451 80.723 -133.2288
2831.622938 80.663 -136.6587
2852.142045 80.606 -140.0481
2872.809842 80.549 -143.3967
2893.627406 80.491 -146.6963
2914.595823 80.432 -149.9348
2935.716186 80.374 -153.1047
2956.989596 80.317 -156.2026
2978.417161 80.262 -159.2234
3000.000000 80.210 -162.1594
3021.739237 80.158 -165.0107
3043.636005 80.108 -167.7856
3065.691446 80.059 -170.4912
3087.906710 80.010 -173.1289
3110.282955 79.961 -175.6912
3132.821347 79.915 -178.1650
3155.523062 79.871 179.4600
3178.389283 79.831 177.1829
3201.421202 79.794 174.9932
3224.620020 79.760 172.8801
3247.986946 79.731 170.8374
3271.523198 79.706 168.8635
3295.230004 79.686 166.9592
3319.108599 79.669 165.1287
3343.160228 79.658 163.3782
3367.386145 79.650 161.7173
3391.787613 79.647 160.1533
3416.365904 79.648 158.6907
3441.122300 79.652 157.3293
3466.058091 79.659 156.0645
3491.174576 79.669 154.8899
3516.473066 79.681 153.7996
3541.954880 79.695 152.7910
3567.621345 79.711 151.8687
3593.473800 79.730 151.0405
3619.513592 79.752 150.3142
3645.742080 79.779 149.6948
3672.160630 79.812 149.1853
3698.770620 79.855 148.7825
3725.573436 79.907 148.4758
3752.570477 79.972 148.2510
3779.763150 80.048 148.0918
3807.152872 80.136 147.9846
3834.741071 80.232 147.9194
3862.529185 80.332 147.8889
3890.518664 80.434 147.8931
3918.710966 80.538 147.9377
3947.107561 80.641 148.0278
3975.709929 80.745 148.1685
4004.519563 80.850 148.3633
4033.537962 80.954 148.6162
4062.766641 81.057 148.9297
4092.207123 81.157 149.3035
4121.860942 81.254 149.7341
4151.729646 81.347 150.2178
4181.814790 81.436 150.7493
4212.117944 81.522 151.3245
4242.640687 81.604 151.9414
4273.384610 81.683 152.6011
4304.351317 81.755 153.3025
4335.542421 81.818 154.0435
4366.959549 81.870 154.8208
4398.604338 81.908 155.6362
4430.478438 81.930 156.4990
4462.583511 81.935 157.4246
4494.921231 81.921 158.4343
4527.493283 81.888 159.5510
4560.301365 81.836 160.7939
4593.347189 81.764 162.1750
4626.632476 81.672 163.7002
4660.158962 81.560 165.3730
4693.928395 81.425 167.1992
4727.942535 81.267 169.1904
4762.203156 81.084 171.3660
4796.712043 80.877 173.7493
4831.470996 80.645 176.3706
4866.481826 80.391 179.2634
4901.746360 80.117 -177.5393
4937.266434 79.826 -174.0095
4973.043902 79.522 -170.1277
5009.080628 79.207 -165.8818
5045.378492 78.883 -161.2661
5081.939384 78.554 -156.2776
5118.765212 78.222 -150.9197
5155.857894 77.890 -145.2036
5193.219366 77.560 -139.1445
5230.851574 77.235 -132.7554
5268.756481 76.914 -126.0410
5306.936062 76.600 -119.0015
5345.392309 76.295 -111.6372
5384.127225 75.999 -103.9548
5423.142830 75.713 -95.9636
5462.441159 75.437 -87.6682
5502.024259 75.170 -79.0652
5541.894195 74.912 -70.1462
5582.053045 74.665 -60.9016
5622.502902 74.429 -51.3218
5663.245876 74.206 -41.4001
5704.284090 73.998 -31.1335
5745.619684 73.806 -20.5256
5787.254813 73.635 -9.5979
5829.191647 73.485 1.5928
5871.432373 73.355 12.9563
5913.979192 73.243 24.4014
5956.834323 73.143 35.8755
6000.000000 73.048 47.3855
6043.478473 72.954 58.9854
6087.272010 72.858 70.7471
6131.382892 72.759 82.7358
6175.813420 72.656 94.9995
6220.565910 72.549 107.5679
6265.642695 72.438 120.4590
6311.046124 72.325 133.6821
6356.778566 72.210 147.2390
6402.842404 72.095 161.1248
6449.240040 71.982 175.3291
6495.973891 71.872 -170.1597
6543.046396 71.766 -155.3438
6590.460007 71.666 -140.2070
6638.217197 71.572 -124.7273
6686.320456 71.485 -108.8904
6734.772290 71.404 -92.6951
6783.575226 71.330 -76.1438
6832.731809 71.262 -59.2361
6882.244600 71.201 -41.9626
6932.116181 71.148 -24.3008
6982.349153 71.105 -6.2222
7032.946133 71.073 12.2888
7083.909760 71.056 31.2273
7135.242690 71.052 50.5671
7186.947600 71.062 70.2661
7239.027185 71.086 90.2805
7291.484160 71.125 110.5735
7344.321260 71.178 131.1182
7397.541239 71.248 151.9197
7451.146872 71.335 173.0376
7505.140954 71.443 -165.4399
7559.526299 71.574 -143.4390
7614.305743 71.732 -120.9243
7669.482141 71.920 -97.8853
7725.058371 72.142 -74.3254
7781.037328 72.400 -50.2703
7837.421932 72.696 -25.7640
7894.215122 73.030 -0.8728
7951.419859 73.399 24.2731
8009.039125 73.796 49.4180
8067.075924 74.213 74.1738
8125.533282 74.635 98.1040
8184.414245 75.044 120.8556
8243.721885 75.420 142.2413
8303.459292 75.742 162.2452
8363.629581 75.986 -179.0055
8424.235888 76.132 -161.2717
8485.281374 76.162 -144.2305
8546.769221 76.063 -127.5085
8608.702634 75.829 -110.7136
8671.084842 75.459 -93.4468
8733.919097 74.960 -75.3025
8797.208675 74.345 -55.8561
8860.956876 73.632 -34.6549
8925.167022 72.838 -11.2317
8989.842461 71.985 14.8196
9054.986566 71.091 43.6832
9120.602731 70.174 75.1339
9186.694378 69.248 108.4734
9253.264952 68.326 142.8779
9320.317925 67.417 177.9812
9387.856790 66.529 -146.0369
9455.885071 65.667 -108.9249
9524.406312 64.834 -70.8094
9593.424086 64.033 -32.1787
9662.941992 63.263 6.5896
9732.963653 62.525 45.6223
9803.492719 61.822 85.5059
9874.532869 61.157 127.0342
9946.087805 60.535 170.8967
10018.161257 59.957 -142.9658
10090.756983 59.427 -95.9025
10163.878768 58.942 -49.6035
10237.530423 58.500 -4.5071
10311.715789 58.098 40.2458
10386.438732 57.731 85.7767
10461.703149 57.395 132.6036
10537.512962 57.086 -179.6454
10613.872125 56.798 -131.7426
10690.784618 56.526 -84.0695
10768.254450 56.268 -36.5388
10846.285661 56.021 10.9639
10924.882318 55.785 58.8069
11004.048518 55.560 108.0069
11083.788390 55.348 159.5482
11164.106090 55.150 -147.1942
11245.005805 54.970 -94.3765
11326.491752 54.809 -42.5103
11408.568180 54.673 11.1471
11491.239368 54.562 70.4831
11574.509626 54.479 133.0645
11658.383294 54.421 -169.4234
11742.864745 54.385 -117.6757
11827.958384 54.368 -66.9268
11913.668646 54.373 -11.5724
12000.000000 54.402 52.6663
12086.956947 54.459 121.6700
12174.544019 54.546 -174.1387
12262.765784 54.666 -115.5728
12351.626840 54.819 -57.3613
12441.131819 55.007 6.3312
12531.285389 55.230 75.3973
12622.092249 55.485 142.9991
12713.557132 55.772 -153.2234
12805.684808 56.087 -90.3577
12898.480079 56.428 -23.2496
12991.947783 56.791 50.6570
13086.092792 57.172 123.5602
13180.920015 57.568 -170.3676
13276.434395 57.977 -108.1017
13372.640911 58.392 -43.1372
13469.544580 58.811 32.3102
13567.150452 59.228 112.8948
13665.463617 59.641 -174.0004
13764.489200 60.045 -105.6573
13864.232362 60.442 -40.9915
13964.698305 60.835 24.2925
14065.892266 61.235 99.1187
14167.819519 61.653 175.2827
14270.485380 62.106 -121.7605
14373.895200 62.608 -66.2961
14478.054370 63.164 8.1169
14582.968320 63.767 -167.3181
14688.642520 64.398 -114.2048
14795.082478 65.028 -63.7710
14902.293745 65.621 -8.9395
15010.281908 66.142 -163.5239
15119.052599 66.554 -107.9290
15228.611486 66.826 -65.2542
15338.964283 66.935 -26.8230
15450.116741 66.871 9.1199
15562.074656 66.639 42.5791
15674.843864 66.256 69.4253
15788.430244 65.752 69.6118
15902.839718 65.162 51.3271
16018.078250 64.524 71.8083
16134.151848 63.875 107.4253
16251.066563 63.251 -38.2986
16368.828491 62.682 5.7417
16487.443769 62.195 41.5466
16606.918584 61.808 -71.6951
16727.259161 61.528 -35.8809
16848.471777 61.354 -2.4958
16970.562748 61.271 -63.1394
17093.538442 61.252 -60.5222
17217.405268 61.260 -30.6184
17342.169684 61.248 -43.7397
17467.838194 61.161 -47.3772
17594.417350 60.947 1.3074
17721.913751 60.560 56.1721
17850.334044 59.968 102.8047
17979.684923 59.154 137.6780
18109.973131 58.120 157.8237
18241.205462 56.881 165.8794
18373.388756 55.459 178.0479
18506.529905 53.879 -167.8213
18640.635849 52.168 -161.8936
18775.713581 50.352 -152.6267
18911.770141 48.458 -137.1641
19048.812624 46.513 -134.9009
19186.848172 44.544 -139.4558
19325.883983 42.582 156.7402
19465.927305 40.666 108.5530
19606.985439 38.848 98.1589
19749.065738 37.219 92.8401
19892.175609 35.931 89.7563
20036.322514 35.198 85.0847
