* Measurement data measured by REW V5.30.4
* Source: Headset (2- CX31993 HIFI AUDIO), MICROPHONE (Master Volume), L, volume: 0.500
* Format: 256k Log Swept Sine, 1 sweep at -12.0 dBFS with no timing reference
* Dated: 06 20, 24 5:57:47 PM
* REW Settings:
*  C-weighting compensation: Off
*  Target level: 75.0 dB
* Note: ; 
* Measurement: Audio Hekili R
* Smoothing: 1/12 octave
* Frequency Step: 96 ppo
* Start Frequency: 20.141602 Hz
*
* Freq(Hz) SPL(dB) Phase(degrees)
20.141602 103.960 179.6715
20.287556 103.963 179.7159
20.434568 103.966 179.7278
20.582645 103.971 179.7103
20.731796 103.975 179.6652
20.882027 103.979 179.5941
21.033346 103.983 179.4960
21.185762 103.986 179.3668
21.339283 103.988 179.2161
21.493916 103.989 179.0470
21.649670 103.990 178.8636
21.806553 103.990 178.6706
21.964573 103.990 178.4735
22.123737 103.990 178.2707
22.284056 103.990 178.0722
22.445536 103.992 177.8847
22.608185 103.994 177.7118
22.772013 103.999 177.5563
22.937029 104.004 177.4197
23.103241 104.012 177.2976
23.270657 104.020 177.1912
23.439285 104.030 177.1017
23.609137 104.041 177.0268
23.780218 104.051 176.9636
23.952539 104.061 176.9086
24.126110 104.069 176.8527
24.300938 104.076 176.7961
24.477032 104.082 176.7375
24.654402 104.085 176.6741
24.833057 104.085 176.6033
25.013008 104.084 176.5228
25.194263 104.080 176.4251
25.376831 104.075 176.3163
25.560722 104.067 176.1966
25.745945 104.059 176.0670
25.932510 104.050 175.9292
26.120428 104.041 175.7807
26.309708 104.032 175.6262
26.500359 104.023 175.4714
26.692390 104.015 175.3191
26.885815 104.009 175.1718
27.080641 104.003 175.0291
27.276878 103.998 174.8909
27.474539 103.995 174.7616
27.673630 103.992 174.6408
27.874165 103.990 174.5274
28.076153 103.988 174.4174
28.279604 103.986 174.3075
28.484529 103.984 174.1986
28.690941 103.982 174.0886
28.898848 103.980 173.9756
29.108261 103.976 173.8557
29.319191 103.973 173.7284
29.531651 103.969 173.5960
29.745649 103.965 173.4590
29.961199 103.961 173.3181
30.178310 103.958 173.1706
30.396996 103.956 173.0208
30.617264 103.954 172.8708
30.839128 103.953 172.7215
31.062601 103.953 172.5726
31.287693 103.953 172.4229
31.514416 103.953 172.2765
31.742783 103.953 172.1341
31.972803 103.953 171.9964
32.204491 103.951 171.8608
32.437859 103.949 171.7308
32.672916 103.945 171.6069
32.909679 103.940 171.4890
33.148155 103.934 171.3735
33.388359 103.928 171.2606
33.630306 103.921 171.1506
33.874004 103.914 171.0423
34.119469 103.908 170.9323
34.366711 103.901 170.8193
34.615746 103.895 170.7044
34.866585 103.890 170.5871
35.119244 103.885 170.4653
35.373734 103.882 170.3385
35.630066 103.879 170.2085
35.888256 103.876 170.0755
36.148315 103.873 169.9375
36.410259 103.871 169.7956
36.674103 103.868 169.6530
36.939857 103.865 169.5108
37.207539 103.861 169.3685
37.477161 103.855 169.2280
37.748737 103.850 169.0903
38.022282 103.843 168.9550
38.297806 103.836 168.8179
38.575329 103.829 168.6814
38.854862 103.821 168.5444
39.136421 103.814 168.4054
39.420021 103.806 168.2641
39.705673 103.799 168.1221
39.993397 103.791 167.9803
40.283207 103.784 167.8372
40.575115 103.778 167.6965
40.869141 103.771 167.5585
41.165295 103.765 167.4212
41.463596 103.759 167.2845
41.764057 103.753 167.1492
42.066696 103.747 167.0143
42.371529 103.740 166.8785
42.678570 103.732 166.7428
42.987835 103.724 166.6071
43.299343 103.715 166.4688
43.613110 103.706 166.3302
43.929150 103.696 166.1912
44.247478 103.685 166.0488
44.568115 103.675 165.9049
44.891075 103.664 165.7606
45.216373 103.653 165.6161
45.544029 103.642 165.4730
45.874062 103.632 165.3324
46.206486 103.622 165.1921
46.541317 103.613 165.0508
46.878574 103.605 164.9071
47.218277 103.597 164.7577
47.560440 103.589 164.6033
47.905083 103.580 164.4467
48.252224 103.570 164.2897
48.601879 103.560 164.1359
48.954067 103.549 163.9873
49.308807 103.538 163.8430
49.666119 103.527 163.7022
50.026020 103.516 163.5637
50.388531 103.504 163.4248
50.753666 103.493 163.2884
51.121449 103.480 163.1544
51.491894 103.468 163.0215
51.865025 103.455 162.8895
52.240860 103.443 162.7548
52.619419 103.431 162.6158
53.000721 103.419 162.4721
53.384785 103.407 162.3226
53.771633 103.394 162.1706
54.161285 103.381 162.0173
54.553761 103.368 161.8631
54.949081 103.356 161.7091
55.347263 103.342 161.5542
55.748333 103.329 161.4005
56.152309 103.315 161.2496
56.559212 103.301 161.1027
56.969063 103.287 160.9610
57.381886 103.272 160.8208
57.797699 103.258 160.6821
58.216526 103.243 160.5422
58.638386 103.228 160.3989
59.063305 103.213 160.2511
59.491302 103.197 160.0987
59.922401 103.181 159.9451
60.356625 103.164 159.7909
60.793995 103.148 159.6384
61.234531 103.132 159.4871
61.678261 103.116 159.3358
62.125206 103.100 159.1830
62.575390 103.084 159.0268
63.028835 103.068 158.8661
63.485569 103.051 158.7003
63.945610 103.033 158.5343
64.408989 103.015 158.3710
64.875725 102.996 158.2148
65.345840 102.977 158.0662
65.819366 102.959 157.9238
66.296318 102.940 157.7831
66.776726 102.922 157.6421
67.260620 102.902 157.5013
67.748016 102.883 157.3617
68.238945 102.862 157.2234
68.733429 102.842 157.0893
69.231499 102.823 156.9633
69.733177 102.803 156.8457
70.238495 102.785 156.7323
70.747475 102.766 156.6154
71.260139 102.747 156.4846
71.776520 102.727 156.3342
72.296638 102.705 156.1653
72.820526 102.681 155.9837
73.348213 102.658 155.7966
73.879723 102.635 155.6109
74.415085 102.612 155.4299
74.954330 102.590 155.2589
75.497482 102.567 155.0998
76.044571 102.544 154.9512
76.595619 102.520 154.8080
77.150665 102.495 154.6647
77.709732 102.470 154.5177
78.272850 102.445 154.3670
78.840050 102.421 154.2144
79.411354 102.397 154.0630
79.986801 102.374 153.9138
80.566422 102.350 153.7668
81.150238 102.325 153.6224
81.738289 102.299 153.4803
82.330597 102.273 153.3378
82.927200 102.246 153.1940
83.528122 102.219 153.0505
84.133400 102.192 152.9060
84.743065 102.165 152.7599
85.357147 102.138 152.6143
85.975677 102.112 152.4710
86.598694 102.085 152.3335
87.226227 102.058 152.1994
87.858307 102.031 152.0670
88.494965 102.002 151.9371
89.136238 101.973 151.8074
89.782158 101.943 151.6768
90.432755 101.913 151.5436
91.088066 101.883 151.4083
91.748131 101.851 151.2721
92.412979 101.820 151.1335
93.082642 101.788 150.9930
93.757156 101.756 150.8506
94.436562 101.725 150.7092
95.120888 101.694 150.5704
95.810173 101.662 150.4355
96.504456 101.631 150.3067
97.203766 101.600 150.1814
97.908142 101.568 150.0561
98.617622 101.536 149.9338
99.332245 101.503 149.8125
100.052048 101.471 149.6907
100.777069 101.438 149.5654
101.507339 101.404 149.4393
102.242905 101.369 149.3126
102.983795 101.333 149.1865
103.730057 101.296 149.0599
104.481728 101.259 148.9392
105.238846 101.222 148.8250
106.001450 101.186 148.7160
106.769577 101.149 148.6075
107.543274 101.111 148.5012
108.322578 101.073 148.3958
109.107529 101.033 148.2881
109.898170 100.993 148.1709
110.694534 100.953 148.0438
111.496674 100.914 147.9103
112.304626 100.874 147.7747
113.118431 100.835 147.6416
113.938133 100.796 147.5154
114.763779 100.760 147.3970
115.595406 100.726 147.2872
116.433060 100.699 147.1720
117.276779 100.678 147.0285
118.126617 100.659 146.8334
118.982613 100.636 146.5701
119.844810 100.597 146.2652
120.713257 100.538 145.9889
121.587997 100.460 145.8415
122.469070 100.377 145.8979
123.356529 100.305 146.1569
124.250420 100.257 146.5517
125.150787 100.237 146.9841
126.057678 100.242 147.3456
126.971146 100.258 147.5464
127.891228 100.269 147.5792
128.817978 100.261 147.5587
129.751450 100.238 147.6258
130.691681 100.214 147.8106
131.638733 100.197 147.9865
132.592636 100.178 148.0014
133.553452 100.140 147.8383
134.521240 100.077 147.6186
135.496033 100.000 147.4691
136.477890 99.924 147.4276
137.466858 99.862 147.4545
138.462997 99.815 147.4839
139.466354 99.779 147.4704
140.476990 99.745 147.4064
141.494949 99.706 147.3056
142.520279 99.663 147.1879
143.553040 99.618 147.0669
144.593277 99.574 146.9492
145.641052 99.533 146.8398
146.696426 99.494 146.7393
147.759445 99.456 146.6473
148.830170 99.419 146.5592
149.908661 99.382 146.4760
150.994965 99.344 146.4012
152.089142 99.305 146.3344
153.191238 99.265 146.2816
154.301331 99.224 146.2410
155.419464 99.183 146.2051
156.545700 99.141 146.1722
157.680099 99.097 146.1399
158.822708 99.051 146.1064
159.973602 99.002 146.0766
161.132843 98.951 146.0485
162.300476 98.901 146.0252
163.476578 98.851 146.0084
164.661194 98.801 145.9971
165.854401 98.752 145.9899
167.056244 98.702 145.9877
168.266800 98.653 145.9870
169.486130 98.604 145.9901
170.714294 98.555 145.9992
171.951355 98.506 146.0142
173.197388 98.458 146.0360
174.452454 98.410 146.0633
175.716614 98.361 146.0951
176.989929 98.313 146.1339
178.272476 98.264 146.1760
179.564316 98.215 146.2248
180.865509 98.167 146.2829
182.176132 98.118 146.3404
183.496262 98.070 146.4042
184.825958 98.021 146.4709
186.165283 97.973 146.5418
187.514313 97.925 146.6194
188.873123 97.876 146.7006
190.241776 97.828 146.7945
191.620346 97.779 146.8883
193.008911 97.731 146.9913
194.407532 97.683 147.0894
195.816284 97.636 147.1959
197.235245 97.588 147.3026
198.664490 97.541 147.4116
200.104095 97.495 147.5243
201.554138 97.448 147.6406
203.014679 97.402 147.7608
204.485809 97.355 147.8844
205.967590 97.308 148.0125
207.460114 97.260 148.1430
208.963455 97.213 148.2809
210.477692 97.166 148.4222
212.002899 97.119 148.5662
213.539154 97.072 148.7137
215.086548 97.026 148.8641
216.645157 96.981 149.0208
218.215057 96.936 149.1756
219.796341 96.893 149.3310
221.389069 96.850 149.4897
222.993347 96.808 149.6488
224.609253 96.767 149.8109
226.236862 96.728 149.9789
227.876266 96.690 150.1574
229.527557 96.653 150.3523
231.190811 96.616 150.5638
232.866119 96.578 150.7889
234.553558 96.537 151.0109
236.253235 96.495 151.2262
237.965225 96.454 151.4313
239.689621 96.414 151.6292
241.426514 96.375 151.8362
243.175995 96.337 152.0574
244.938141 96.298 152.2893
246.713058 96.260 152.5247
248.500839 96.222 152.7646
250.301575 96.185 153.0040
252.115356 96.149 153.2496
253.942291 96.114 153.5056
255.782455 96.079 153.7679
257.635956 96.047 154.0368
259.502899 96.015 154.3006
261.383362 95.984 154.5603
263.277466 95.953 154.8280
265.185272 95.922 155.1012
267.106903 95.891 155.3888
269.042480 95.860 155.6926
270.992065 95.830 156.0205
272.955780 95.803 156.3687
274.933716 95.779 156.7359
276.925995 95.759 157.1222
278.932709 95.743 157.5135
280.953979 95.733 157.9081
282.989899 95.729 158.2953
285.040558 95.730 158.6491
287.106079 95.734 158.9595
289.186554 95.742 159.2192
291.282104 95.750 159.4319
293.392853 95.757 159.6067
295.518890 95.761 159.7576
297.660339 95.764 159.8927
299.817322 95.765 160.0209
301.989929 95.763 160.1516
304.178284 95.761 160.2810
306.382477 95.756 160.4090
308.602661 95.751 160.5379
310.838928 95.744 160.6663
313.091400 95.735 160.7937
315.360199 95.724 160.9220
317.645416 95.712 161.0472
319.947205 95.699 161.1745
322.265686 95.686 161.3016
324.600952 95.671 161.4323
326.953156 95.656 161.5698
329.322388 95.641 161.7110
331.708801 95.626 161.8561
334.112488 95.611 162.0062
336.533600 95.597 162.1621
338.972260 95.582 162.3212
341.428589 95.568 162.4839
343.902710 95.554 162.6485
346.394775 95.540 162.8176
348.904907 95.527 162.9899
351.433228 95.514 163.1692
353.979858 95.502 163.3493
356.544952 95.490 163.5317
359.128632 95.478 163.7145
361.731018 95.466 163.8954
364.352264 95.455 164.0766
366.992523 95.444 164.2554
369.651917 95.433 164.4380
372.330566 95.424 164.6129
375.028625 95.414 164.7955
377.746246 95.405 164.9745
380.483551 95.397 165.1553
383.240692 95.389 165.3330
386.017822 95.381 165.5106
388.815063 95.374 165.6903
391.632568 95.366 165.8636
394.470490 95.359 166.0374
397.328979 95.352 166.2099
400.208191 95.345 166.3785
403.108276 95.338 166.5513
406.029358 95.332 166.7197
408.971619 95.325 166.8851
411.935181 95.319 167.0493
414.920227 95.313 167.2165
417.926910 95.307 167.3783
420.955383 95.302 167.5433
424.005798 95.297 167.7041
427.078308 95.293 167.8671
430.173096 95.288 168.0306
433.290314 95.284 168.1922
436.430115 95.281 168.3553
439.592682 95.277 168.5124
442.778137 95.273 168.6648
445.986694 95.269 168.8144
449.218506 95.265 168.9674
452.473724 95.261 169.1198
455.752533 95.257 169.2719
459.055115 95.252 169.4218
462.381622 95.248 169.5769
465.732239 95.244 169.7265
469.107117 95.239 169.8732
472.506470 95.235 170.0237
475.930450 95.231 170.1677
479.379242 95.227 170.3114
482.853027 95.223 170.4540
486.351990 95.219 170.5925
489.876282 95.216 170.7343
493.426117 95.212 170.8757
497.001678 95.209 171.0111
500.603149 95.205 171.1551
504.230713 95.200 171.2992
507.884583 95.196 171.4460
511.564911 95.191 171.5918
515.271912 95.186 171.7399
519.005798 95.180 171.8887
522.766724 95.175 172.0295
526.554932 95.169 172.1750
530.370544 95.164 172.3129
534.213806 95.159 172.4586
538.084961 95.155 172.5996
541.984131 95.150 172.7403
545.911560 95.145 172.8878
549.867432 95.140 173.0325
553.851990 95.135 173.1777
557.865417 95.130 173.3255
561.907959 95.125 173.4774
565.979797 95.121 173.6264
570.081116 95.116 173.7745
574.212158 95.111 173.9218
578.373108 95.106 174.0687
582.564209 95.101 174.2166
586.785706 95.096 174.3673
591.037781 95.091 174.5165
595.320679 95.085 174.6682
599.634644 95.080 174.8250
603.979858 95.074 174.9835
608.356567 95.069 175.1454
612.764954 95.063 175.3111
617.205322 95.058 175.4742
621.677856 95.053 175.6414
626.182800 95.047 175.8088
630.720398 95.042 175.9796
635.290833 95.037 176.1509
639.894409 95.031 176.3240
644.531372 95.026 176.5011
649.201904 95.021 176.6806
653.906311 95.015 176.8614
658.644775 95.010 177.0481
663.417603 95.005 177.2354
668.224976 95.001 177.4257
673.067200 94.996 177.6185
677.944519 94.992 177.8136
682.857178 94.988 178.0105
687.805420 94.984 178.2102
692.789551 94.980 178.4183
697.809814 94.976 178.6242
702.866455 94.972 178.8372
707.959717 94.969 179.0538
713.089905 94.965 179.2711
718.257263 94.962 179.4884
723.462036 94.959 179.7163
728.704529 94.957 179.9420
733.985046 94.954 -179.8304
739.303833 94.951 -179.5938
744.661133 94.949 -179.3532
750.057251 94.946 -179.1094
755.492493 94.944 -178.8576
760.967102 94.941 -178.6006
766.481384 94.939 -178.3335
772.035645 94.937 -178.0558
777.630127 94.936 -177.7611
783.265137 94.935 -177.4545
788.940979 94.936 -177.1260
794.657959 94.939 -176.7877
800.416382 94.945 -176.4385
806.216553 94.955 -176.0776
812.058716 94.967 -175.7177
817.943237 94.983 -175.3569
823.870361 95.002 -175.0038
829.840454 95.024 -174.6650
835.853821 95.047 -174.3354
841.910767 95.071 -174.0178
848.011597 95.095 -173.7040
854.156616 95.120 -173.4002
860.346191 95.145 -173.0972
866.580627 95.171 -172.7937
872.860229 95.198 -172.4881
879.185364 95.226 -172.1846
885.556274 95.256 -171.8741
891.973389 95.287 -171.5669
898.437012 95.321 -171.2512
904.947449 95.357 -170.9393
911.505066 95.396 -170.6388
918.110229 95.438 -170.3431
924.763245 95.482 -170.0665
931.464478 95.527 -169.8025
938.214233 95.574 -169.5651
945.012939 95.620 -169.3493
951.860901 95.665 -169.1541
958.758484 95.708 -168.9617
965.706055 95.750 -168.7759
972.703979 95.791 -168.5816
979.752563 95.832 -168.3788
986.852234 95.874 -168.1757
994.003357 95.916 -167.9639
1001.206299 95.960 -167.7502
1008.461426 96.006 -167.5349
1015.769165 96.053 -167.3305
1023.129822 96.102 -167.1264
1030.543823 96.153 -166.9290
1038.011597 96.205 -166.7429
1045.533447 96.258 -166.5658
1053.109863 96.313 -166.3954
1060.741089 96.368 -166.2423
1068.427612 96.424 -166.0979
1076.169922 96.481 -165.9586
1083.968262 96.539 -165.8338
1091.823120 96.597 -165.7208
1099.734863 96.655 -165.6150
1107.703979 96.713 -165.5186
1115.730835 96.771 -165.4353
1123.815918 96.829 -165.3577
1131.959595 96.886 -165.2881
1140.162231 96.943 -165.2357
1148.424316 97.000 -165.1799
1156.746216 97.057 -165.1377
1165.128418 97.113 -165.0995
1173.571411 97.169 -165.0675
1182.075562 97.224 -165.0423
1190.641357 97.280 -165.0139
1199.269287 97.334 -164.9955
1207.959717 97.389 -164.9786
1216.713135 97.444 -164.9611
1225.529907 97.498 -164.9507
1234.410645 97.553 -164.9387
1243.355713 97.608 -164.9339
1252.365601 97.663 -164.9294
1261.440796 97.719 -164.9343
1270.581665 97.774 -164.9338
1279.788818 97.831 -164.9417
1289.062744 97.887 -164.9556
1298.403809 97.944 -164.9700
1307.812622 98.001 -164.9866
1317.289551 98.058 -165.0137
1326.835205 98.115 -165.0366
1336.449951 98.173 -165.0665
1346.134399 98.230 -165.1006
1355.889038 98.288 -165.1442
1365.714355 98.346 -165.1882
1375.610840 98.404 -165.2350
1385.579102 98.463 -165.2830
1395.619629 98.521 -165.3405
1405.732910 98.580 -165.3993
1415.919434 98.639 -165.4644
1426.179810 98.699 -165.5292
1436.514526 98.758 -165.6020
1446.924072 98.818 -165.6683
1457.409058 98.878 -165.7479
1467.970093 98.939 -165.8275
1478.607666 99.000 -165.9138
1489.322266 99.061 -165.9948
1500.114502 99.123 -166.0817
1510.984985 99.186 -166.1738
1521.934204 99.249 -166.2780
1532.962769 99.313 -166.3770
1544.071289 99.377 -166.4860
1555.260254 99.442 -166.5977
1566.530273 99.508 -166.7145
1577.881958 99.575 -166.8274
1589.315918 99.642 -166.9610
1600.832764 99.711 -167.0949
1612.433105 99.780 -167.2281
1624.117432 99.850 -167.3748
1635.886475 99.921 -167.5255
1647.740723 99.992 -167.6864
1659.680908 100.065 -167.8495
1671.707642 100.138 -168.0251
1683.821533 100.213 -168.2112
1696.023193 100.288 -168.4078
1708.313232 100.365 -168.6037
1720.692383 100.442 -168.8151
1733.161255 100.520 -169.0349
1745.720459 100.600 -169.2736
1758.370728 100.680 -169.5178
1771.112549 100.761 -169.7793
1783.946777 100.844 -170.0419
1796.874023 100.927 -170.3159
1809.894897 101.012 -170.6241
1823.010132 101.098 -170.9370
1836.220459 101.185 -171.2655
1849.526489 101.274 -171.6181
1862.928955 101.363 -171.9851
1876.428467 101.452 -172.3831
1890.025879 101.542 -172.7977
1903.721802 101.632 -173.2428
1917.516968 101.722 -173.7082
1931.412109 101.811 -174.2029
1945.407959 101.900 -174.7167
1959.505127 101.988 -175.2574
1973.704468 102.074 -175.8216
1988.006714 102.160 -176.4051
2002.412598 102.244 -177.0183
2016.922852 102.326 -177.6520
2031.538330 102.407 -178.3128
2046.259644 102.485 -178.9951
2061.087646 102.561 -179.6997
2076.023193 102.635 179.5804
2091.066895 102.706 178.8275
2106.219727 102.774 178.0619
2121.482178 102.839 177.2672
2136.855225 102.900 176.4703
2152.339844 102.959 175.6573
2167.936523 103.014 174.8402
2183.646240 103.066 173.9892
2199.469727 103.115 173.1418
2215.407959 103.163 172.2809
2231.461670 103.207 171.4118
2247.631836 103.251 170.5368
2263.919189 103.293 169.6515
2280.324463 103.334 168.7558
2296.848633 103.374 167.8316
2313.492432 103.413 166.8776
2330.256836 103.450 165.8906
2347.142822 103.486 164.8660
2364.151123 103.517 163.8005
2381.282715 103.544 162.6902
2398.538574 103.563 161.5239
2415.919434 103.572 160.3220
2433.426270 103.571 159.0950
2451.059814 103.558 157.8491
2468.821289 103.532 156.5910
2486.711426 103.495 155.3490
2504.731201 103.445 154.1036
2522.881592 103.385 152.8914
2541.163330 103.315 151.7202
2559.577637 103.237 150.5918
2578.125488 103.150 149.5209
2596.807617 103.056 148.4449
2615.625244 102.956 147.4382
2634.579102 102.851 146.4746
2653.670410 102.741 145.5733
2672.899902 102.626 144.7241
2692.268799 102.508 143.9192
2711.778076 102.386 143.1490
2731.428711 102.262 142.4395
2751.221680 102.135 141.7905
2771.158203 102.007 141.1945
2791.239258 101.877 140.6435
2811.465820 101.747 140.1589
2831.838867 101.616 139.7341
2852.359619 101.486 139.3532
2873.029053 101.357 139.0408
2893.848145 101.230 138.7816
2914.818115 101.106 138.5639
2935.940186 100.985 138.4388
2957.215332 100.868 138.3355
2978.644531 100.756 138.2921
3000.229004 100.650 138.2935
3021.969971 100.551 138.3581
3043.868408 100.460 138.4507
3065.925537 100.377 138.5648
3088.142578 100.303 138.7252
3110.520508 100.239 138.9141
3133.060547 100.186 139.0954
3155.763916 100.144 139.2754
3178.631836 100.112 139.4592
3201.665527 100.092 139.6086
3224.866211 100.082 139.7105
3248.234863 100.079 139.7523
3271.772949 100.083 139.7290
3295.481445 100.090 139.6315
3319.361816 100.098 139.4575
3343.415283 100.103 139.2066
3367.643066 100.102 138.8901
3392.046387 100.094 138.5354
3416.626465 100.077 138.1366
3441.384766 100.049 137.7146
3466.322510 100.012 137.3167
3491.440918 99.965 136.9236
3516.741455 99.910 136.5667
3542.225098 99.850 136.2694
3567.893555 99.785 136.0278
3593.748047 99.718 135.8218
3619.789795 99.651 135.7058
3646.020264 99.587 135.6364
3672.440918 99.525 135.5935
3699.052979 99.468 135.6054
3725.857910 99.417 135.6619
3752.856934 99.371 135.7345
3780.051758 99.331 135.8485
3807.443604 99.297 135.9695
3835.033936 99.269 136.1075
3862.824219 99.247 136.2651
3890.815918 99.231 136.4198
3919.010254 99.221 136.5827
3947.408936 99.217 136.7663
3976.013428 99.220 136.9269
4004.825195 99.229 137.1129
4033.845703 99.246 137.2879
4063.076660 99.270 137.4458
4092.519287 99.301 137.6143
4122.175293 99.339 137.7670
4152.046387 99.385 137.9062
4182.133789 99.438 138.0096
4212.439453 99.498 138.0920
4242.964355 99.565 138.1483
4273.710449 99.640 138.1820
4304.679688 99.722 138.1766
4335.873047 99.811 138.1175
4367.292480 99.907 138.0361
4398.939453 100.009 137.8938
4430.815918 100.119 137.7015
4462.923340 100.234 137.4574
4495.263672 100.356 137.1377
4527.838379 100.483 136.7618
4560.648926 100.616 136.3075
4593.697266 100.753 135.7739
4626.984863 100.894 135.1521
4660.513672 101.038 134.4508
4694.285645 101.185 133.6175
4728.302246 101.333 132.7114
4762.565430 101.480 131.6653
4797.077148 101.624 130.5011
4831.838867 101.762 129.2009
4866.852539 101.892 127.7813
4902.119629 102.010 126.2153
4937.642578 102.113 124.5399
4973.422852 102.198 122.7370
5009.462402 102.260 120.8447
5045.763184 102.298 118.8637
5082.326660 102.310 116.8369
5119.155273 102.293 114.7902
5156.250977 102.247 112.7429
5193.615234 102.174 110.7344
5231.250488 102.075 108.8054
5269.158203 101.952 106.9746
5307.340820 101.809 105.2438
5345.799805 101.651 103.6666
5384.537598 101.482 102.2200
5423.556152 101.309 100.9147
5462.857422 101.135 99.7519
5502.443359 100.966 98.6983
5542.316406 100.806 97.7354
5582.478516 100.657 96.8483
5622.931641 100.521 95.9542
5663.677734 100.396 95.0520
5704.719238 100.280 94.0936
5746.058105 100.168 93.0517
5787.696289 100.052 91.9160
5829.636230 99.924 90.6533
5871.880371 99.778 89.3219
5914.430664 99.605 87.9402
5957.289062 99.403 86.5569
6000.458008 99.168 85.2379
6043.939941 98.901 84.0673
6087.736816 98.606 83.0334
6131.851074 98.288 82.2582
6176.285156 97.954 81.7150
6221.041016 97.613 81.4595
6266.121094 97.271 81.4743
6311.527832 96.938 81.7587
6357.263672 96.618 82.2933
6403.331055 96.317 83.0455
6449.732422 96.039 83.9984
6496.469727 95.788 85.1245
6543.545898 95.565 86.4194
6590.962891 95.373 87.7986
6638.723633 95.212 89.2872
6686.830566 95.082 90.8533
6735.286133 94.985 92.4436
6784.092773 94.920 94.0592
6833.252930 94.886 95.7009
6882.769531 94.881 97.3218
6932.645020 94.905 98.9183
6982.881836 94.957 100.4733
7033.482910 95.037 102.0187
7084.450195 95.146 103.5285
7135.787109 95.287 105.0014
7187.496094 95.463 106.4383
7239.579590 95.675 107.7965
7292.040527 95.926 109.0530
7344.881836 96.219 110.1649
7398.105957 96.553 111.1162
7451.715820 96.930 111.8377
7505.713867 97.349 112.2642
7560.103516 97.805 112.3659
7614.887207 98.293 112.0428
7670.067871 98.806 111.2332
7725.648438 99.331 109.9100
7781.631836 99.854 108.0232
7838.020508 100.360 105.5369
7894.817871 100.829 102.4633
7952.026855 101.244 98.8076
8009.650391 101.586 94.6531
8067.691406 101.840 90.0491
8126.153320 101.993 85.1581
8185.038574 102.038 80.0934
8244.350586 101.971 74.9726
8304.092773 101.796 69.9715
8364.267578 101.519 65.1827
8424.878906 101.151 60.7235
8485.928711 100.707 56.6907
8547.420898 100.202 53.1183
8609.359375 99.650 50.0549
8671.746094 99.069 47.4917
8734.584961 98.470 45.4307
8797.878906 97.866 43.8391
8861.631836 97.268 42.6840
8925.846680 96.682 41.9160
8990.527344 96.115 41.5159
9055.676758 95.571 41.4278
9121.297852 95.054 41.6349
9187.394531 94.565 42.1096
9253.969727 94.109 42.7937
9321.027344 93.685 43.6867
9388.571289 93.295 44.7454
9456.604492 92.940 45.9441
9525.130859 92.621 47.2661
9594.154297 92.339 48.6579
9663.677734 92.095 50.1240
9733.705078 91.888 51.6234
9804.239258 91.717 53.0964
9875.285156 91.579 54.5452
9946.845703 91.469 55.9176
10018.924805 91.382 57.2018
10091.526367 91.312 58.4190
10164.653320 91.256 59.5913
10238.310547 91.209 60.7653
10312.501953 91.173 61.9854
10387.230469 91.156 63.3186
10462.500977 91.165 64.7914
10538.316406 91.213 66.3853
10614.681641 91.310 68.0646
10691.599609 91.465 69.7702
10769.075195 91.684 71.3916
10847.112305 91.965 72.8100
10925.714844 92.306 73.9654
11004.886719 92.699 74.7526
11084.632812 93.136 75.1022
11164.957031 93.603 74.9536
11245.863281 94.088 74.2154
11327.355469 94.572 72.8841
11409.438477 95.038 70.9673
11492.116211 95.466 68.4249
11575.392578 95.837 65.3499
11659.272461 96.132 61.8026
11743.760742 96.336 57.9053
11828.861328 96.439 53.7890
11914.578125 96.436 49.6095
12000.916016 96.331 45.5327
12087.879883 96.132 41.6964
12175.473633 95.853 38.2165
12263.702148 95.511 35.1723
12352.570312 95.127 32.5837
12442.082031 94.715 30.4520
12532.242188 94.289 28.7720
12623.055664 93.860 27.4611
12714.527344 93.432 26.5484
12806.662109 93.012 25.9533
12899.464844 92.603 25.6978
12992.939453 92.209 25.7583
13087.091797 91.836 26.1032
13181.925781 91.487 26.7401
13277.447266 91.167 27.6275
13373.661133 90.882 28.7440
13470.572266 90.634 30.0639
13568.185547 90.429 31.5474
13666.505859 90.270 33.1652
13765.539062 90.159 34.8826
13865.290039 90.100 36.6480
13965.763672 90.094 38.4457
14066.965820 90.144 40.2210
14168.900391 90.251 41.9243
14271.574219 90.418 43.5362
14374.992188 90.645 44.9921
14479.159180 90.934 46.2782
14584.081055 91.285 47.2746
14689.763672 91.697 47.9429
14796.211914 92.166 48.2067
14903.431641 92.682 47.9985
15011.427734 93.236 47.2165
15120.207031 93.812 45.8126
15229.774414 94.392 43.7514
15340.135742 94.954 41.0046
15451.296875 95.475 37.6301
15563.263672 95.931 33.6336
15676.041016 96.302 29.1706
15789.635742 96.573 24.3825
15904.053711 96.741 19.5294
16019.300781 96.819 14.7585
16135.382812 96.828 10.2427
16252.306641 96.797 6.0276
16370.077148 96.745 2.0954
16488.701172 96.681 -1.5716
16608.185547 96.609 -5.0334
16728.535156 96.534 -8.2351
16849.757812 96.469 -11.1323
16971.857422 96.437 -13.7410
17094.841797 96.463 -16.1135
17218.718750 96.568 -18.4421
17343.492188 96.761 -20.8992
17469.169922 97.036 -23.7457
17595.757812 97.368 -27.1775
17723.263672 97.721 -31.3673
17851.693359 98.054 -36.3413
17981.054688 98.323 -42.0972
18111.353516 98.489 -48.4958
18242.595703 98.524 -55.3314
18374.789062 98.416 -62.3554
18507.939453 98.173 -69.2940
18642.054688 97.823 -75.9186
18777.142578 97.410 -82.1761
18913.208984 96.988 -88.0763
19050.261719 96.596 -93.8513
19188.308594 96.249 -99.6690
19327.355469 95.941 -105.6827
19467.410156 95.662 -111.8070
19608.478516 95.411 -117.9052
19750.570312 95.198 -123.6658
19893.691406 95.040 -128.6123
20037.849609 0.000 227.8159
