* Measurement data measured by REW V5.31.3
* Source: Headset (2- CX31993 HIFI AUDIO), MICROPHONE (Master Volume), R, volume: 0.200
* Format: 256k Log Swept Sine, 1 sweep at -11.9 dBFS with no timing reference
* Dated: 10 21, 25 11:07:37 AM
* REW Settings:
*  C-weighting compensation: Off
*  Target level: 75.0 dB
* Note: ; 
* Measurement: CCA Phoenix L
* Smoothing: 1/12 octave
* Frequency Step: 96 ppo
* Start Frequency: 0.36621094 Hz
*
* Freq(Hz) SPL(dB) Phase(degrees)
0.366211 27.392 -31.6717
0.368865 27.399 -31.7279
0.371538 27.411 -31.8116
0.374230 27.424 -31.9158
0.376942 27.440 -32.0346
0.379673 27.457 -32.1636
0.382424 27.474 -32.2998
0.385196 27.492 -32.4416
0.387987 27.511 -32.5878
0.390798 27.529 -32.7380
0.393630 27.548 -32.8917
0.396483 27.566 -33.0490
0.399356 27.585 -33.2096
0.402250 27.605 -33.3736
0.405165 27.624 -33.5409
0.408101 27.643 -33.7116
0.411058 27.663 -33.8857
0.414037 27.682 -34.0632
0.417037 27.702 -34.2440
0.420059 27.722 -34.4282
0.423103 27.742 -34.6159
0.426169 27.762 -34.8069
0.429257 27.783 -35.0014
0.432368 27.803 -35.1993
0.435501 27.824 -35.4007
0.438656 27.845 -35.6054
0.441835 27.866 -35.8137
0.445037 27.887 -36.0253
0.448262 27.908 -36.2405
0.451510 27.930 -36.4590
0.454782 27.951 -36.6810
0.458077 27.973 -36.9065
0.461397 27.995 -37.1355
0.464740 28.017 -37.3679
0.468108 28.039 -37.6037
0.471500 28.062 -37.8430
0.474917 28.084 -38.0858
0.478358 28.107 -38.3320
0.481825 28.130 -38.5817
0.485316 28.153 -38.8348
0.488833 28.176 -39.0914
0.492375 28.200 -39.3514
0.495943 28.223 -39.6149
0.499537 28.247 -39.8818
0.503157 28.271 -40.1521
0.506803 28.295 -40.4259
0.510475 28.319 -40.7031
0.514175 28.344 -40.9838
0.517900 28.368 -41.2679
0.521653 28.393 -41.5555
0.525434 28.418 -41.8464
0.529241 28.443 -42.1409
0.533076 28.469 -42.4387
0.536939 28.494 -42.7400
0.540830 28.520 -43.0448
0.544749 28.546 -43.3531
0.548696 28.572 -43.6648
0.552673 28.598 -43.9799
0.556677 28.624 -44.2986
0.560711 28.651 -44.6208
0.564774 28.678 -44.9465
0.568867 28.705 -45.2757
0.572989 28.732 -45.6085
0.577141 28.760 -45.9449
0.581324 28.787 -46.2849
0.585536 28.815 -46.6285
0.589779 28.843 -46.9757
0.594053 28.871 -47.3267
0.598358 28.900 -47.6814
0.602694 28.928 -48.0399
0.607061 28.957 -48.4021
0.611460 28.986 -48.7683
0.615891 29.016 -49.1383
0.620354 29.045 -49.5124
0.624849 29.075 -49.8904
0.629377 29.105 -50.2726
0.633938 29.135 -50.6589
0.638532 29.165 -51.0495
0.643159 29.196 -51.4444
0.647819 29.226 -51.8437
0.652514 29.257 -52.2475
0.657242 29.289 -52.6560
0.662005 29.320 -53.0691
0.666802 29.352 -53.4871
0.671634 29.384 -53.9100
0.676501 29.416 -54.3380
0.681403 29.448 -54.7713
0.686341 29.481 -55.2099
0.691314 29.514 -55.6540
0.696324 29.547 -56.1037
0.701370 29.580 -56.5594
0.706452 29.614 -57.0211
0.711571 29.648 -57.4890
0.716728 29.682 -57.9633
0.721921 29.717 -58.4443
0.727153 29.753 -58.9321
0.732422 29.788 -59.4268
0.737729 29.825 -59.9285
0.743075 29.862 -60.4372
0.748460 29.900 -60.9529
0.753883 29.939 -61.4753
0.759346 29.977 -62.0043
0.764849 30.016 -62.5398
0.770391 30.056 -63.0814
0.775974 30.096 -63.6292
0.781597 30.136 -64.1827
0.787261 30.176 -64.7419
0.792966 30.217 -65.3066
0.798712 30.258 -65.8765
0.804500 30.300 -66.4515
0.810329 30.342 -67.0315
0.816201 30.384 -67.6163
0.822116 30.427 -68.2057
0.828073 30.470 -68.7996
0.834074 30.513 -69.3979
0.840118 30.557 -70.0005
0.846206 30.601 -70.6073
0.852338 30.646 -71.2181
0.858514 30.691 -71.8330
0.864735 30.737 -72.4519
0.871001 30.783 -73.0746
0.877313 30.829 -73.7013
0.883670 30.876 -74.3320
0.890074 30.923 -74.9665
0.896524 30.971 -75.6051
0.903020 31.020 -76.2477
0.909564 31.068 -76.8943
0.916155 31.118 -77.5452
0.922794 31.168 -78.2004
0.929481 31.218 -78.8601
0.936216 31.269 -79.5244
0.943000 31.321 -80.1935
0.949834 31.373 -80.8677
0.956717 31.426 -81.5471
0.963649 31.479 -82.2320
0.970632 31.533 -82.9228
0.977666 31.588 -83.6196
0.984750 31.643 -84.3230
0.991886 31.699 -85.0331
0.999074 31.755 -85.7506
1.006314 31.813 -86.4756
1.013606 31.871 -87.2088
1.020951 31.929 -87.9506
1.028349 31.989 -88.7015
1.035801 32.049 -89.4620
1.043307 32.110 -90.2329
1.050867 32.172 -91.0145
1.058482 32.235 -91.8077
1.066152 32.298 -92.6129
1.073878 32.363 -93.4309
1.081660 32.428 -94.2620
1.089498 32.494 -95.1067
1.097393 32.561 -95.9650
1.105345 32.628 -96.8369
1.113355 32.697 -97.7220
1.121423 32.766 -98.6197
1.129549 32.836 -99.5293
1.137734 32.906 -100.4503
1.145979 32.978 -101.3820
1.154283 33.050 -102.3238
1.162647 33.123 -103.2751
1.171072 33.197 -104.2354
1.179558 33.272 -105.2043
1.188106 33.347 -106.1812
1.196715 33.424 -107.1657
1.205387 33.501 -108.1574
1.214122 33.579 -109.1559
1.222920 33.658 -110.1610
1.231782 33.738 -111.1723
1.240708 33.820 -112.1897
1.249699 33.902 -113.2127
1.258754 33.985 -114.2414
1.267876 34.069 -115.2756
1.277063 34.155 -116.3152
1.286318 34.241 -117.3602
1.295639 34.329 -118.4105
1.305027 34.418 -119.4663
1.314484 34.508 -120.5277
1.324009 34.600 -121.5947
1.333604 34.693 -122.6677
1.343268 34.787 -123.7467
1.353002 34.883 -124.8322
1.362806 34.980 -125.9243
1.372681 35.078 -127.0236
1.382628 35.178 -128.1302
1.392647 35.280 -129.2448
1.402739 35.383 -130.3677
1.412904 35.488 -131.4992
1.423142 35.594 -132.6397
1.433455 35.702 -133.7894
1.443843 35.813 -134.9481
1.454305 35.925 -136.1153
1.464844 36.038 -137.2900
1.475459 36.154 -138.4705
1.486150 36.272 -139.6553
1.496920 36.393 -140.8424
1.507767 36.515 -142.0304
1.518693 36.639 -143.2180
1.529698 36.766 -144.4045
1.540783 36.895 -145.5890
1.551948 37.026 -146.7712
1.563194 37.158 -147.9509
1.574521 37.293 -149.1280
1.585931 37.430 -150.3025
1.597423 37.569 -151.4745
1.608999 37.710 -152.6445
1.620658 37.852 -153.8127
1.632402 37.997 -154.9797
1.644232 38.143 -156.1460
1.656146 38.291 -157.3123
1.668147 38.440 -158.4792
1.680235 38.591 -159.6476
1.692411 38.744 -160.8183
1.704675 38.898 -161.9922
1.717028 39.053 -163.1702
1.729470 39.210 -164.3532
1.742003 39.368 -165.5422
1.754626 39.528 -166.7380
1.767341 39.688 -167.9416
1.780147 39.849 -169.1534
1.793047 40.012 -170.3739
1.806040 40.176 -171.6028
1.819128 40.341 -172.8392
1.832310 40.507 -174.0815
1.845587 40.675 -175.3274
1.858961 40.844 -176.5742
1.872432 41.016 -177.8194
1.886001 41.189 -179.0610
1.899667 41.365 179.7026
1.913433 41.542 178.4726
1.927299 41.721 177.2496
1.941265 41.902 176.0342
1.955332 42.085 174.8264
1.969501 42.269 173.6263
1.983773 42.455 172.4336
1.998148 42.642 171.2480
2.012627 42.830 170.0690
2.027212 43.020 168.8961
2.041902 43.210 167.7283
2.056698 43.402 166.5651
2.071602 43.594 165.4056
2.086614 43.787 164.2488
2.101734 43.981 163.0938
2.116964 44.175 161.9397
2.132304 44.369 160.7857
2.147756 44.564 159.6313
2.163320 44.759 158.4761
2.178996 44.953 157.3204
2.194786 45.149 156.1652
2.210690 45.344 155.0118
2.226710 45.540 153.8620
2.242845 45.737 152.7175
2.259098 45.934 151.5796
2.275468 46.131 150.4492
2.291957 46.330 149.3267
2.308566 46.529 148.2125
2.325295 46.728 147.1062
2.342145 46.928 146.0078
2.359117 47.129 144.9165
2.376212 47.330 143.8319
2.393431 47.531 142.7532
2.410775 47.733 141.6797
2.428244 47.935 140.6104
2.445840 48.137 139.5444
2.463564 48.339 138.4809
2.481416 48.541 137.4189
2.499397 48.742 136.3577
2.517509 48.944 135.2968
2.535752 49.146 134.2358
2.554127 49.348 133.1752
2.572635 49.549 132.1157
2.591277 49.750 131.0583
2.610055 49.951 130.0044
2.628968 50.152 128.9548
2.648019 50.352 127.9103
2.667208 50.553 126.8713
2.686535 50.753 125.8379
2.706003 50.953 124.8099
2.725612 51.153 123.7871
2.745363 51.353 122.7691
2.765257 51.552 121.7552
2.785295 51.752 120.7450
2.805478 51.951 119.7376
2.825808 52.150 118.7324
2.846285 52.348 117.7287
2.866910 52.547 116.7258
2.887685 52.745 115.7234
2.908611 52.943 114.7211
2.929688 53.140 113.7192
2.950917 53.337 112.7182
2.972301 53.534 111.7188
2.993839 53.730 110.7218
3.015534 53.925 109.7276
3.037386 54.120 108.7368
3.059396 54.315 107.7495
3.081565 54.509 106.7657
3.103896 54.702 105.7853
3.126388 54.895 104.8080
3.149043 55.088 103.8335
3.171862 55.280 102.8613
3.194847 55.471 101.8908
3.217998 55.663 100.9215
3.241317 55.854 99.9531
3.264805 56.044 98.9850
3.288463 56.234 98.0173
3.312293 56.424 97.0499
3.336295 56.612 96.0831
3.360471 56.801 95.1174
3.384822 56.988 94.1532
3.409350 57.175 93.1909
3.434056 57.361 92.2307
3.458940 57.547 91.2726
3.484005 57.732 90.3167
3.509252 57.916 89.3629
3.534681 58.100 88.4108
3.560295 58.283 87.4603
3.586094 58.466 86.5109
3.612081 58.648 85.5622
3.638255 58.830 84.6140
3.664620 59.011 83.6660
3.691175 59.191 82.7181
3.717923 59.371 81.7705
3.744864 59.550 80.8235
3.772001 59.728 79.8774
3.799335 59.905 78.9324
3.826866 60.082 77.9887
3.854597 60.258 77.0466
3.882529 60.434 76.1059
3.910664 60.608 75.1667
3.939002 60.782 74.2287
3.967546 60.956 73.2916
3.996296 61.129 72.3551
4.025255 61.301 71.4189
4.054423 61.472 70.4829
4.083804 61.643 69.5469
4.113396 61.813 68.6110
4.143204 61.982 67.6754
4.173227 62.151 66.7405
4.203468 62.318 65.8066
4.233928 62.485 64.8737
4.264609 62.651 63.9421
4.295512 62.817 63.0117
4.326639 62.982 62.0823
4.357992 63.146 61.1538
4.389572 63.309 60.2257
4.421380 63.472 59.2979
4.453419 63.633 58.3700
4.485691 63.794 57.4422
4.518196 63.955 56.5146
4.550936 64.114 55.5875
4.583914 64.272 54.6612
4.617131 64.430 53.7360
4.650589 64.587 52.8120
4.684289 64.743 51.8893
4.718233 64.899 50.9676
4.752424 65.053 50.0468
4.786862 65.207 49.1264
4.821549 65.360 48.2063
4.856488 65.513 47.2863
4.891680 65.664 46.3666
4.927127 65.815 45.4476
4.962831 65.964 44.5295
4.998794 66.113 43.6127
5.035017 66.261 42.6972
5.071503 66.409 41.7832
5.108253 66.555 40.8705
5.145270 66.701 39.9586
5.182555 66.846 39.0475
5.220110 66.990 38.1368
5.257937 67.133 37.2267
5.296038 67.276 36.3174
5.334415 67.417 35.4093
5.373071 67.558 34.5027
5.412006 67.698 33.5976
5.451224 67.837 32.6942
5.490725 67.976 31.7922
5.530514 68.113 30.8915
5.570590 68.250 29.9917
5.610957 68.386 29.0927
5.651616 68.522 28.1948
5.692570 68.656 27.2981
5.733821 68.790 26.4030
5.775370 68.923 25.5095
5.817221 69.055 24.6177
5.859375 69.186 23.7276
5.901834 69.317 22.8389
5.944602 69.447 21.9512
5.987679 69.576 21.0647
6.031068 69.705 20.1794
6.074771 69.833 19.2954
6.118792 69.960 18.4130
6.163131 70.086 17.5322
6.207792 70.212 16.6530
6.252776 70.337 15.7751
6.298086 70.461 14.8985
6.343725 70.584 14.0229
6.389694 70.707 13.1484
6.435996 70.829 12.2752
6.482634 70.951 11.4033
6.529610 71.072 10.5327
6.576926 71.192 9.6634
6.624585 71.311 8.7953
6.672590 71.430 7.9281
6.720942 71.548 7.0619
6.769645 71.665 6.1965
6.818700 71.782 5.3323
6.868111 71.898 4.4692
6.917881 72.013 3.6072
6.968010 72.128 2.7463
7.018504 72.242 1.8864
7.069362 72.355 1.0273
7.120590 72.467 0.1690
7.172189 72.579 -0.6882
7.224161 72.690 -1.5443
7.276511 72.800 -2.3992
7.329239 72.910 -3.2528
7.382350 73.018 -4.1053
7.435845 73.126 -4.9568
7.489729 73.233 -5.8071
7.544002 73.340 -6.6561
7.598669 73.445 -7.5037
7.653732 73.550 -8.3494
7.709194 73.654 -9.1936
7.765058 73.757 -10.0361
7.821327 73.859 -10.8770
7.878004 73.961 -11.7160
7.935091 74.062 -12.5531
7.992592 74.162 -13.3881
8.050510 74.261 -14.2207
8.108847 74.360 -15.0511
8.167607 74.458 -15.8792
8.226793 74.555 -16.7051
8.286408 74.652 -17.5284
8.346454 74.747 -18.3493
8.406936 74.843 -19.1675
8.467856 74.937 -19.9831
8.529218 75.031 -20.7961
8.591024 75.124 -21.6066
8.653278 75.217 -22.4146
8.715983 75.309 -23.2200
8.779143 75.401 -24.0228
8.842760 75.492 -24.8233
8.906839 75.583 -25.6215
8.971381 75.673 -26.4174
9.036392 75.763 -27.2113
9.101873 75.852 -28.0032
9.167829 75.941 -28.7933
9.234263 76.029 -29.5817
9.301178 76.117 -30.3684
9.368578 76.204 -31.1538
9.436467 76.291 -31.9379
9.504847 76.378 -32.7208
9.573723 76.464 -33.5028
9.643099 76.550 -34.2838
9.712976 76.635 -35.0639
9.783361 76.719 -35.8433
9.854255 76.803 -36.6219
9.925663 76.886 -37.3998
9.997588 76.969 -38.1771
10.070035 77.051 -38.9536
10.143007 77.132 -39.7293
10.216507 77.213 -40.5042
10.290540 77.293 -41.2781
10.365109 77.373 -42.0509
10.440219 77.451 -42.8225
10.515873 77.529 -43.5929
10.592076 77.606 -44.3616
10.668830 77.682 -45.1287
10.746141 77.758 -45.8940
10.824012 77.833 -46.6573
10.902447 77.907 -47.4186
10.981451 77.980 -48.1775
11.061027 78.053 -48.9341
11.141180 78.125 -49.6883
11.221913 78.196 -50.4400
11.303232 78.267 -51.1892
11.385140 78.337 -51.9358
11.467641 78.406 -52.6799
11.550741 78.475 -53.4217
11.634442 78.543 -54.1610
11.718750 78.611 -54.8981
11.803669 78.679 -55.6331
11.889203 78.745 -56.3660
11.975357 78.812 -57.0970
12.062136 78.877 -57.8262
12.149543 78.942 -58.5537
12.237583 79.007 -59.2797
12.326262 79.071 -60.0040
12.415583 79.134 -60.7269
12.505552 79.197 -61.4481
12.596172 79.259 -62.1678
12.687449 79.320 -62.8857
12.779387 79.380 -63.6017
12.871992 79.440 -64.3157
12.965268 79.499 -65.0272
13.059220 79.557 -65.7361
13.153852 79.615 -66.4421
13.249170 79.672 -67.1448
13.345179 79.728 -67.8439
13.441884 79.783 -68.5392
13.539289 79.837 -69.2301
13.637401 79.891 -69.9166
13.736223 79.945 -70.5985
13.835761 79.998 -71.2757
13.936021 80.051 -71.9481
14.037007 80.103 -72.6157
14.138725 80.156 -73.2789
14.241180 80.208 -73.9379
14.344377 80.260 -74.5932
14.448323 80.312 -75.2452
14.553021 80.365 -75.8947
14.658478 80.418 -76.5424
14.764700 80.471 -77.1890
14.871691 80.524 -77.8354
14.979457 80.577 -78.4826
15.088005 80.631 -79.1313
15.197339 80.684 -79.7825
15.307465 80.737 -80.4365
15.418389 80.791 -81.0942
15.530117 80.843 -81.7559
15.642655 80.896 -82.4216
15.756008 80.947 -83.0915
15.870182 80.998 -83.7653
15.985184 81.048 -84.4424
16.101019 81.096 -85.1222
16.217694 81.143 -85.8037
16.335214 81.189 -86.4860
16.453586 81.233 -87.1677
16.572815 81.275 -87.8475
16.692909 81.317 -88.5244
16.813872 81.356 -89.1968
16.935713 81.395 -89.8638
17.058436 81.432 -90.5244
17.182048 81.468 -91.1779
17.306556 81.504 -91.8237
17.431967 81.539 -92.4617
17.558286 81.574 -93.0920
17.685521 81.608 -93.7150
17.813677 81.643 -94.3312
17.942762 81.677 -94.9415
18.072783 81.712 -95.5470
18.203746 81.747 -96.1486
18.335658 81.783 -96.7473
18.468526 81.818 -97.3441
18.602356 81.854 -97.9399
18.737156 81.890 -98.5355
18.872934 81.926 -99.1313
19.009695 81.962 -99.7277
19.147447 81.997 -100.3246
19.286197 82.032 -100.9224
19.425953 82.067 -101.5207
19.566721 82.101 -102.1194
19.708510 82.135 -102.7181
19.851326 82.168 -103.3167
19.995177 82.201 -103.9146
20.140070 82.232 -104.5116
20.286013 82.263 -105.1072
20.433014 82.293 -105.7008
20.581080 82.323 -106.2919
20.730219 82.351 -106.8799
20.880439 82.379 -107.4641
21.031747 82.406 -108.0438
21.184152 82.433 -108.6183
21.337661 82.459 -109.1871
21.492282 82.484 -109.7499
21.648024 82.510 -110.3068
21.804895 82.535 -110.8581
21.962902 82.561 -111.4045
22.122054 82.586 -111.9470
22.282360 82.612 -112.4870
22.443827 82.639 -113.0256
22.606464 82.665 -113.5642
22.770280 82.692 -114.1037
22.935283 82.718 -114.6446
23.101481 82.744 -115.1868
23.268884 82.769 -115.7299
23.437500 82.793 -116.2725
23.607338 82.817 -116.8132
23.778406 82.839 -117.3505
23.950714 82.860 -117.8827
24.124271 82.881 -118.4089
24.299086 82.902 -118.9287
24.475167 82.923 -119.4424
24.652524 82.944 -119.9512
24.831166 82.965 -120.4568
25.011103 82.987 -120.9614
25.192344 83.009 -121.4671
25.374898 83.032 -121.9756
25.558775 83.054 -122.4879
25.743984 83.075 -123.0040
25.930536 83.096 -123.5231
26.118439 83.116 -124.0434
26.307704 83.134 -124.5627
26.498341 83.150 -125.0789
26.690359 83.166 -125.5897
26.883768 83.181 -126.0939
27.078579 83.195 -126.5912
27.274801 83.209 -127.0821
27.472446 83.224 -127.5681
27.671522 83.239 -128.0507
27.872042 83.253 -128.5320
28.074014 83.268 -129.0131
28.277450 83.283 -129.4949
28.482360 83.298 -129.9772
28.688755 83.311 -130.4595
28.896645 83.325 -130.9407
29.106042 83.337 -131.4199
29.316957 83.350 -131.8964
29.529400 83.362 -132.3702
29.743382 83.373 -132.8416
29.958915 83.385 -133.3112
30.176009 83.396 -133.7798
30.394677 83.407 -134.2475
30.614929 83.418 -134.7139
30.836778 83.428 -135.1779
31.060234 83.437 -135.6381
31.285309 83.446 -136.0936
31.512015 83.455 -136.5438
31.740364 83.465 -136.9896
31.970368 83.475 -137.4328
32.202039 83.486 -137.8765
32.435388 83.497 -138.3236
32.670428 83.508 -138.7767
32.907171 83.519 -139.2366
33.145630 83.528 -139.7020
33.385817 83.535 -140.1694
33.627745 83.541 -140.6342
33.871425 83.544 -141.0910
34.116871 83.546 -141.5358
34.364096 83.548 -141.9666
34.613113 83.550 -142.3840
34.863934 83.552 -142.7914
35.116572 83.557 -143.1940
35.371041 83.563 -143.5973
35.627354 83.569 -144.0056
35.885525 83.576 -144.4207
36.145566 83.581 -144.8422
36.407492 83.586 -145.2667
36.671316 83.589 -145.6900
36.937051 83.590 -146.1076
37.204712 83.591 -146.5165
37.474313 83.592 -146.9160
37.745867 83.593 -147.3074
38.019389 83.596 -147.6940
38.294893 83.599 -148.0796
38.572394 83.604 -148.4678
38.851905 83.609 -148.8610
39.133442 83.614 -149.2596
39.417019 83.618 -149.6631
39.702651 83.622 -150.0695
39.990353 83.626 -150.4768
40.280140 83.628 -150.8832
40.572026 83.630 -151.2877
40.866028 83.632 -151.6898
41.162160 83.633 -152.0895
41.460438 83.634 -152.4874
41.760877 83.635 -152.8836
42.063494 83.635 -153.2784
42.368303 83.634 -153.6718
42.675322 83.633 -154.0630
42.984565 83.632 -154.4513
43.296048 83.629 -154.8357
43.609789 83.625 -155.2149
43.925804 83.621 -155.5880
44.244108 83.617 -155.9546
44.564719 83.612 -156.3152
44.887654 83.607 -156.6711
45.212928 83.603 -157.0247
45.540560 83.599 -157.3781
45.870565 83.595 -157.7327
46.202962 83.590 -158.0891
46.537768 83.585 -158.4461
46.875000 83.579 -158.8022
47.214676 83.572 -159.1558
47.556813 83.565 -159.5063
47.901429 83.559 -159.8546
48.248542 83.552 -160.2020
48.598171 83.546 -160.5496
48.950334 83.539 -160.8966
49.305048 83.533 -161.2415
49.662333 83.526 -161.5819
50.022206 83.519 -161.9174
50.384688 83.514 -162.2502
50.749796 83.509 -162.5848
51.117550 83.506 -162.9261
51.487969 83.502 -163.2771
51.861072 83.496 -163.6361
52.236879 83.489 -163.9978
52.615409 83.479 -164.3553
52.996681 83.468 -164.7031
53.380717 83.455 -165.0391
53.767536 83.443 -165.3647
54.157158 83.430 -165.6835
54.549603 83.418 -165.9989
54.944892 83.407 -166.3137
55.343045 83.395 -166.6295
55.744084 83.383 -166.9475
56.148028 83.371 -167.2684
56.554900 83.359 -167.5922
56.964720 83.346 -167.9178
57.377510 83.333 -168.2430
57.793291 83.319 -168.5651
58.212085 83.304 -168.8818
58.633914 83.290 -169.1914
59.058799 83.276 -169.4933
59.486764 83.262 -169.7875
59.917829 83.250 -170.0752
60.352019 83.239 -170.3584
60.789354 83.228 -170.6400
61.229859 83.218 -170.9224
61.673556 83.207 -171.2059
62.120468 83.196 -171.4880
62.570618 83.182 -171.7643
63.024031 83.167 -172.0309
63.480729 83.152 -172.2858
63.940736 83.135 -172.5287
64.404077 83.118 -172.7592
64.870776 83.102 -172.9772
65.340856 83.087 -173.1877
65.814343 83.075 -173.4038
66.291261 83.066 -173.6441
66.771635 83.058 -173.9227
67.255489 83.046 -174.2388
67.742850 83.028 -174.5759
68.233743 83.005 -174.9103
68.728193 82.977 -175.2242
69.226226 82.949 -175.5118
69.727867 82.922 -175.7778
70.233144 82.897 -176.0309
70.742083 82.875 -176.2794
71.254709 82.854 -176.5290
71.771050 82.836 -176.7822
72.291132 82.817 -177.0377
72.814984 82.798 -177.2916
73.342631 82.779 -177.5397
73.874102 82.761 -177.7805
74.409424 82.742 -178.0164
74.948626 82.724 -178.2509
75.491734 82.706 -178.4868
76.038779 82.688 -178.7247
76.589787 82.669 -178.9640
77.144788 82.650 -179.2042
77.703811 82.630 -179.4462
78.266885 82.611 -179.6914
78.834039 82.591 -179.9406
79.405303 82.571 179.8077
79.980706 82.550 179.5571
80.560280 82.528 179.3118
81.144053 82.507 179.0746
81.732056 82.485 178.8455
82.324320 82.465 178.6218
82.920876 82.445 178.4000
83.521755 82.424 178.1768
84.126988 82.404 177.9504
84.736607 82.382 177.7213
85.350643 82.358 177.4910
85.969129 82.334 177.2607
86.592097 82.308 177.0302
87.219579 82.282 176.7994
87.851608 82.255 176.5690
88.488217 82.227 176.3406
89.129439 82.199 176.1161
89.775308 82.171 175.8973
90.425856 82.141 175.6859
91.081119 82.111 175.4835
91.741131 82.079 175.2908
92.405925 82.046 175.1071
93.075536 82.012 174.9309
93.750000 81.977 174.7596
94.429351 81.941 174.5911
95.113625 81.905 174.4241
95.802858 81.867 174.2593
96.497085 81.830 174.0988
97.196342 81.792 173.9460
97.900667 81.755 173.8047
98.610096 81.718 173.6782
99.324665 81.681 173.5682
100.044413 81.643 173.4757
100.769376 81.603 173.4007
101.499592 81.561 173.3427
102.235100 81.516 173.3016
102.975938 81.468 173.2791
103.722144 81.419 173.2777
104.473757 81.370 173.3004
105.230817 81.325 173.3493
105.993363 81.285 173.4286
106.761435 81.253 173.5437
107.535072 81.229 173.6970
108.314315 81.214 173.8845
109.099206 81.208 174.0932
109.889783 81.209 174.3021
110.686090 81.217 174.4817
111.488167 81.230 174.5957
112.296056 81.248 174.6056
113.109800 81.271 174.4828
113.929440 81.299 174.2159
114.755020 81.335 173.8095
115.586582 81.380 173.2787
116.424170 81.433 172.6487
117.267827 81.485 171.9588
118.117598 81.527 171.2731
118.973527 81.545 170.6934
119.835658 81.535 170.3473
120.704037 81.506 170.3113
121.578708 81.470 170.5387
122.459718 81.436 170.8947
123.347111 81.405 171.2450
124.240935 81.375 171.4962
125.141236 81.345 171.5965
126.048061 81.314 171.5382
126.961458 81.282 171.3556
127.881473 81.250 171.1077
128.808154 81.221 170.8500
129.741551 81.196 170.6202
130.681712 81.172 170.4386
131.628686 81.148 170.3094
132.582521 81.123 170.2153
133.543269 81.099 170.1131
134.510979 81.073 169.9529
135.485701 81.043 169.7154
136.467486 81.009 169.4220
137.456386 80.971 169.1107
138.452451 80.934 168.8127
139.455735 80.899 168.5490
140.466288 80.865 168.3317
141.484165 80.832 168.1625
142.509418 80.800 168.0282
143.542100 80.769 167.9031
144.582265 80.738 167.7671
145.629968 80.705 167.6204
146.685262 80.672 167.4781
147.748204 80.640 167.3552
148.818849 80.611 167.2600
149.897251 80.584 167.1972
150.983469 80.557 167.1686
152.077557 80.529 167.1693
153.179574 80.499 167.1876
154.289576 80.468 167.2072
155.407622 80.436 167.2117
156.533770 80.403 167.1884
157.668078 80.370 167.1362
158.810606 80.337 167.0670
159.961413 80.305 166.9962
161.120559 80.275 166.9332
162.288105 80.248 166.8793
163.464112 80.222 166.8312
164.648640 80.196 166.7886
165.841752 80.169 166.7545
167.043510 80.143 166.7303
168.253976 80.116 166.7121
169.473213 80.090 166.6950
170.701286 80.065 166.6749
171.938258 80.041 166.6491
173.184194 80.016 166.6158
174.439158 79.992 166.5746
175.703216 79.967 166.5253
176.976434 79.942 166.4686
178.258878 79.916 166.4065
179.550615 79.890 166.3430
180.851713 79.862 166.2817
182.162239 79.834 166.2244
183.482262 79.805 166.1710
184.811850 79.775 166.1211
186.151073 79.744 166.0743
187.500000 79.714 166.0309
188.858702 79.683 165.9913
190.227250 79.653 165.9550
191.605715 79.623 165.9213
192.994169 79.593 165.8892
194.392685 79.562 165.8586
195.801334 79.529 165.8302
197.220191 79.497 165.8071
198.649330 79.463 165.7929
200.088825 79.431 165.7899
201.538751 79.400 165.7972
202.999184 79.370 165.8121
204.470200 79.340 165.8307
205.951875 79.311 165.8494
207.444287 79.281 165.8660
208.947514 79.251 165.8798
210.461634 79.221 165.8910
211.986726 79.190 165.9016
213.522869 79.160 165.9143
215.070144 79.130 165.9312
216.628631 79.101 165.9523
218.198411 79.073 165.9768
219.779567 79.044 166.0040
221.372180 79.016 166.0336
222.976334 78.989 166.0652
224.592112 78.961 166.0978
226.219600 78.933 166.1302
227.858880 78.905 166.1619
229.510039 78.877 166.1929
231.173164 78.848 166.2249
232.848340 78.821 166.2597
234.535655 78.793 166.2977
236.235197 78.765 166.3371
237.947054 78.737 166.3752
239.671317 78.709 166.4104
241.408074 78.681 166.4433
243.157416 78.653 166.4773
244.919435 78.624 166.5162
246.694223 78.594 166.5621
248.481871 78.565 166.6147
250.282473 78.536 166.6721
252.096123 78.507 166.7317
253.922915 78.479 166.7921
255.762945 78.452 166.8531
257.616309 78.424 166.9164
259.483103 78.398 166.9834
261.363424 78.371 167.0544
263.257372 78.344 167.1277
265.165043 78.317 167.2006
267.086538 78.289 167.2704
269.021957 78.261 167.3376
270.971401 78.233 167.4050
272.934972 78.205 167.4749
274.912771 78.176 167.5474
276.904902 78.149 167.6220
278.911469 78.122 167.6981
280.932577 78.096 167.7763
282.968330 78.070 167.8581
285.018835 78.043 167.9436
287.084199 78.017 168.0319
289.164530 77.990 168.1217
291.259935 77.964 168.2129
293.370525 77.937 168.3055
295.496408 77.910 168.3997
297.637697 77.884 168.4951
299.794503 77.858 168.5920
301.966937 77.832 168.6910
304.155114 77.807 168.7925
306.359147 77.783 168.8962
308.579152 77.758 169.0012
310.815244 77.733 169.1077
313.067539 77.707 169.2168
315.336156 77.681 169.3303
317.621211 77.655 169.4491
319.922826 77.629 169.5726
322.241118 77.603 169.6993
324.576210 77.578 169.8276
326.928223 77.554 169.9570
329.297280 77.530 170.0874
331.683504 77.506 170.2168
334.087019 77.482 170.3419
336.507952 77.457 170.4614
338.946427 77.434 170.5779
341.402572 77.410 170.6960
343.876516 77.387 170.8187
346.368387 77.365 170.9460
348.878315 77.342 171.0771
351.406431 77.320 171.2119
353.952867 77.298 171.3503
356.517756 77.276 171.4918
359.101230 77.254 171.6353
361.703426 77.231 171.7803
364.324478 77.208 171.9267
366.964523 77.185 172.0752
369.623699 77.163 172.2269
372.302145 77.141 172.3824
375.000000 77.119 172.5410
377.717405 77.098 172.7012
380.454501 77.076 172.8617
383.211431 77.055 173.0218
385.988339 77.033 173.1812
388.785369 77.012 173.3394
391.602668 76.990 173.4963
394.440383 76.968 173.6532
397.298660 76.947 173.8120
400.177650 76.926 173.9742
403.077502 76.906 174.1409
405.998368 76.887 174.3115
408.940400 76.867 174.4846
411.903750 76.848 174.6591
414.888575 76.830 174.8345
417.895028 76.811 175.0116
420.923268 76.792 175.1907
423.973452 76.773 175.3716
427.045738 76.754 175.5541
430.140287 76.736 175.7382
433.257261 76.717 175.9237
436.396822 76.699 176.1107
439.559133 76.681 176.2992
442.744360 76.663 176.4888
445.952668 76.645 176.6794
449.184225 76.628 176.8710
452.439199 76.611 177.0627
455.717760 76.595 177.2542
459.020079 76.578 177.4449
462.346327 76.562 177.6355
465.696680 76.545 177.8284
469.071310 76.529 178.0273
472.470394 76.512 178.2354
475.894109 76.495 178.4516
479.342634 76.479 178.6723
482.816148 76.462 178.8942
486.314833 76.446 179.1158
489.838871 76.430 179.3367
493.388445 76.415 179.5574
496.963741 76.400 179.7783
500.564945 76.385 -179.9995
504.192245 76.370 -179.7755
507.845830 76.355 -179.5498
511.525890 76.341 -179.3231
515.232618 76.326 -179.0951
518.966206 76.311 -178.8653
522.726849 76.296 -178.6329
526.514743 76.282 -178.3976
530.330086 76.268 -178.1600
534.173076 76.254 -177.9208
538.043915 76.241 -177.6802
541.942803 76.228 -177.4377
545.869944 76.216 -177.1926
549.825542 76.204 -176.9448
553.809805 76.192 -176.6949
557.822939 76.180 -176.4436
561.865154 76.169 -176.1912
565.936660 76.157 -175.9371
570.037671 76.146 -175.6805
574.168399 76.136 -175.4208
578.329060 76.125 -175.1581
582.519870 76.116 -174.8934
586.741049 76.106 -174.6274
590.992817 76.097 -174.3606
595.275394 76.088 -174.0931
599.589005 76.080 -173.8247
603.933874 76.071 -173.5536
608.310228 76.063 -173.2775
612.718295 76.054 -172.9943
617.158304 76.046 -172.7053
621.630488 76.038 -172.4128
626.135079 76.030 -172.1185
630.672311 76.023 -171.8229
635.242423 76.015 -171.5261
639.845651 76.009 -171.2279
644.482237 76.002 -170.9269
649.152421 75.996 -170.6217
653.856447 75.991 -170.3122
658.594560 75.986 -169.9988
663.367008 75.981 -169.6818
668.174039 75.978 -169.3620
673.015903 75.974 -169.0403
677.892854 75.972 -168.7170
682.805145 75.969 -168.3910
687.753032 75.968 -168.0615
692.736774 75.966 -167.7283
697.756631 75.966 -167.3923
702.812863 75.965 -167.0546
707.905735 75.966 -166.7158
713.035511 75.967 -166.3751
718.202461 75.968 -166.0317
723.406852 75.970 -165.6852
728.648956 75.972 -165.3348
733.929047 75.975 -164.9805
739.247399 75.979 -164.6219
744.604290 75.983 -164.2591
750.000000 75.988 -163.8917
755.434809 75.994 -163.5195
760.909001 76.001 -163.1432
766.422861 76.009 -162.7637
771.976677 76.017 -162.3815
777.570739 76.027 -161.9971
783.205337 76.037 -161.6108
788.880766 76.048 -161.2233
794.597321 76.061 -160.8350
800.355301 76.074 -160.4460
806.155005 76.088 -160.0562
811.996736 76.103 -159.6647
817.880799 76.119 -159.2709
823.807501 76.136 -158.8749
829.777150 76.154 -158.4767
835.790057 76.174 -158.0765
841.846536 76.195 -157.6748
847.946903 76.217 -157.2721
854.091476 76.241 -156.8687
860.280575 76.265 -156.4644
866.514523 76.291 -156.0591
872.793644 76.318 -155.6530
879.118267 76.347 -155.2463
885.488720 76.376 -154.8400
891.905336 76.408 -154.4351
898.368450 76.440 -154.0322
904.878398 76.475 -153.6323
911.435520 76.510 -153.2352
918.040157 76.548 -152.8412
924.692655 76.586 -152.4503
931.393359 76.626 -152.0623
938.142619 76.668 -151.6772
944.940787 76.711 -151.2960
951.788218 76.755 -150.9199
958.685268 76.801 -150.5502
965.632296 76.847 -150.1873
972.629666 76.895 -149.8316
979.677741 76.945 -149.4828
986.776890 76.996 -149.1409
993.927482 77.048 -148.8065
1001.129891 77.101 -148.4806
1008.384491 77.156 -148.1650
1015.691660 77.212 -147.8617
1023.051781 77.269 -147.5719
1030.465236 77.326 -147.2958
1037.932411 77.384 -147.0334
1045.453698 77.441 -146.7842
1053.029486 77.498 -146.5478
1060.660172 77.555 -146.3232
1068.346153 77.610 -146.1086
1076.087829 77.664 -145.9010
1083.885605 77.717 -145.6974
1091.739887 77.769 -145.4955
1099.651084 77.821 -145.2935
1107.619609 77.872 -145.0905
1115.645878 77.923 -144.8856
1123.730308 77.974 -144.6794
1131.873321 78.026 -144.4736
1140.075341 78.078 -144.2703
1148.336797 78.132 -144.0712
1156.658119 78.187 -143.8773
1165.039741 78.243 -143.6892
1173.482099 78.299 -143.5074
1181.985634 78.356 -143.3323
1190.550789 78.413 -143.1641
1199.178011 78.470 -143.0030
1207.867749 78.527 -142.8493
1216.620457 78.584 -142.7035
1225.436590 78.641 -142.5657
1234.316609 78.697 -142.4356
1243.260976 78.753 -142.3129
1252.270157 78.809 -142.1973
1261.344623 78.865 -142.0886
1270.484846 78.921 -141.9868
1279.691303 78.976 -141.8913
1288.964474 79.030 -141.8014
1298.304842 79.084 -141.7165
1307.712894 79.137 -141.6356
1317.189120 79.189 -141.5580
1326.734016 79.241 -141.4829
1336.348077 79.292 -141.4102
1346.031806 79.343 -141.3400
1355.785708 79.393 -141.2723
1365.610290 79.442 -141.2072
1375.506065 79.491 -141.1438
1385.473549 79.539 -141.0815
1395.513261 79.586 -141.0195
1405.625726 79.633 -140.9575
1415.811469 79.679 -140.8954
1426.071023 79.725 -140.8331
1436.404921 79.770 -140.7704
1446.813703 79.814 -140.7071
1457.297912 79.859 -140.6426
1467.858093 79.903 -140.5764
1478.494798 79.946 -140.5082
1489.208581 79.989 -140.4375
1500.000000 80.032 -140.3644
1510.869618 80.075 -140.2891
1521.818002 80.118 -140.2114
1532.845723 80.161 -140.1312
1543.953355 80.203 -140.0486
1555.141477 80.246 -139.9638
1566.410674 80.289 -139.8768
1577.761531 80.332 -139.7876
1589.194642 80.375 -139.6962
1600.710601 80.419 -139.6026
1612.310010 80.462 -139.5067
1623.993473 80.506 -139.4083
1635.761599 80.551 -139.3077
1647.615002 80.595 -139.2049
1659.554299 80.640 -139.1002
1671.580114 80.686 -138.9939
1683.693072 80.732 -138.8857
1695.893807 80.778 -138.7758
1708.182952 80.825 -138.6641
1720.561150 80.873 -138.5510
1733.029045 80.921 -138.4370
1745.587288 80.970 -138.3222
1758.236533 81.019 -138.2071
1770.977440 81.069 -138.0917
1783.810673 81.120 -137.9762
1796.736900 81.172 -137.8604
1809.756796 81.224 -137.7444
1822.871040 81.277 -137.6282
1836.080315 81.331 -137.5118
1849.385310 81.385 -137.3954
1862.786718 81.441 -137.2795
1876.285239 81.497 -137.1643
1889.881575 81.554 -137.0504
1903.576436 81.612 -136.9379
1917.370535 81.671 -136.8271
1931.264593 81.731 -136.7180
1945.259332 81.791 -136.6107
1959.355483 81.853 -136.5055
1973.553781 81.915 -136.4027
1987.854965 81.979 -136.3028
2002.259781 82.043 -136.2060
2016.768981 82.109 -136.1125
2031.383320 82.175 -136.0225
2046.103561 82.243 -135.9359
2060.930471 82.311 -135.8531
2075.864823 82.380 -135.7744
2090.907395 82.451 -135.7000
2106.058972 82.522 -135.6299
2121.320344 82.594 -135.5646
2136.692305 82.668 -135.5044
2152.175658 82.742 -135.4495
2167.771210 82.817 -135.4004
2183.479774 82.894 -135.3575
2199.302169 82.971 -135.3210
2215.239219 83.049 -135.2913
2231.291755 83.128 -135.2687
2247.460615 83.208 -135.2537
2263.746641 83.290 -135.2463
2280.150683 83.372 -135.2471
2296.673595 83.455 -135.2560
2313.316238 83.539 -135.2737
2330.079481 83.624 -135.3008
2346.964198 83.710 -135.3375
2363.971268 83.797 -135.3844
2381.101578 83.885 -135.4419
2398.356022 83.973 -135.5104
2415.735498 84.062 -135.5901
2433.240913 84.152 -135.6816
2450.873180 84.243 -135.7851
2468.633217 84.334 -135.9011
2486.521951 84.426 -136.0302
2504.540314 84.519 -136.1727
2522.689246 84.612 -136.3293
2540.969692 84.705 -136.5005
2559.382606 84.799 -136.6867
2577.928947 84.893 -136.8882
2596.609683 84.987 -137.1055
2615.425787 85.082 -137.3389
2634.378241 85.176 -137.5890
2653.468031 85.271 -137.8561
2672.696154 85.365 -138.1407
2692.063613 85.459 -138.4432
2711.571415 85.552 -138.7635
2731.220579 85.645 -139.1022
2751.012130 85.737 -139.4590
2770.947098 85.829 -139.8342
2791.026522 85.919 -140.2274
2811.251451 86.007 -140.6385
2831.622938 86.095 -141.0671
2852.142045 86.180 -141.5123
2872.809842 86.264 -141.9733
2893.627406 86.346 -142.4490
2914.595823 86.426 -142.9381
2935.716186 86.504 -143.4393
2956.989596 86.580 -143.9508
2978.417161 86.654 -144.4705
3000.000000 86.726 -144.9965
3021.739237 86.797 -145.5270
3043.636005 86.867 -146.0609
3065.691446 86.937 -146.5984
3087.906710 87.007 -147.1416
3110.282955 87.078 -147.6942
3132.821347 87.150 -148.2625
3155.523062 87.225 -148.8544
3178.389283 87.300 -149.4787
3201.421202 87.376 -150.1439
3224.620020 87.451 -150.8567
3247.986946 87.523 -151.6202
3271.523198 87.590 -152.4337
3295.230004 87.652 -153.2928
3319.108599 87.705 -154.1905
3343.160228 87.751 -155.1177
3367.386145 87.787 -156.0652
3391.787613 87.815 -157.0240
3416.365904 87.833 -157.9866
3441.122300 87.844 -158.9467
3466.058091 87.846 -159.8993
3491.174576 87.842 -160.8409
3516.473066 87.830 -161.7688
3541.954880 87.811 -162.6809
3567.621345 87.786 -163.5754
3593.473800 87.755 -164.4504
3619.513592 87.717 -165.3040
3645.742080 87.674 -166.1335
3672.160630 87.625 -166.9365
3698.770620 87.570 -167.7091
3725.573436 87.509 -168.4473
3752.570477 87.444 -169.1467
3779.763150 87.374 -169.8036
3807.152872 87.301 -170.4148
3834.741071 87.225 -170.9785
3862.529185 87.148 -171.4944
3890.518664 87.070 -171.9639
3918.710966 86.993 -172.3903
3947.107561 86.916 -172.7773
3975.709929 86.841 -173.1293
4004.519563 86.768 -173.4507
4033.537962 86.696 -173.7450
4062.766641 86.626 -174.0152
4092.207123 86.557 -174.2633
4121.860942 86.489 -174.4906
4151.729646 86.422 -174.6975
4181.814790 86.356 -174.8842
4212.117944 86.291 -175.0504
4242.640687 86.227 -175.1955
4273.384610 86.164 -175.3188
4304.351317 86.102 -175.4193
4335.542421 86.040 -175.4960
4366.959549 85.980 -175.5479
4398.604338 85.921 -175.5740
4430.478438 85.864 -175.5732
4462.583511 85.808 -175.5438
4494.921231 85.754 -175.4832
4527.493283 85.703 -175.3869
4560.301365 85.654 -175.2486
4593.347189 85.609 -175.0599
4626.632476 85.570 -174.8126
4660.158962 85.540 -174.5023
4693.928395 85.524 -174.1335
4727.942535 85.526 -173.7256
4762.203156 85.549 -173.3145
4796.712043 85.594 -172.9476
4831.470996 85.659 -172.6724
4866.481826 85.737 -172.5231
4901.746360 85.823 -172.5132
4937.266434 85.911 -172.6360
4973.043902 85.996 -172.8730
5009.080628 86.077 -173.2027
5045.378492 86.152 -173.6074
5081.939384 86.223 -174.0757
5118.765212 86.289 -174.6019
5155.857894 86.351 -175.1849
5193.219366 86.409 -175.8262
5230.851574 86.461 -176.5280
5268.756481 86.508 -177.2922
5306.936062 86.547 -178.1194
5345.392309 86.577 -179.0079
5384.127225 86.597 -179.9532
5423.142830 86.604 179.0523
5462.441159 86.597 178.0189
5502.024259 86.576 176.9595
5541.894195 86.538 175.8887
5582.053045 86.484 174.8223
5622.502902 86.414 173.7765
5663.245876 86.328 172.7670
5704.284090 86.227 171.8084
5745.619684 86.113 170.9133
5787.254813 85.987 170.0924
5829.191647 85.852 169.3539
5871.432373 85.708 168.7034
5913.979192 85.559 168.1437
5956.834323 85.406 167.6758
6000.000000 85.250 167.2985
6043.478473 85.095 167.0091
6087.272010 84.940 166.8038
6131.382892 84.788 166.6779
6175.813420 84.639 166.6263
6220.565910 84.494 166.6438
6265.642695 84.355 166.7251
6311.046124 84.221 166.8651
6356.778566 84.093 167.0589
6402.842404 83.973 167.3017
6449.240040 83.860 167.5886
6495.973891 83.756 167.9147
6543.046396 83.660 168.2745
6590.460007 83.573 168.6627
6638.217197 83.495 169.0734
6686.320456 83.428 169.5005
6734.772290 83.371 169.9373
6783.575226 83.325 170.3763
6832.731809 83.289 170.8092
6882.244600 83.265 171.2271
6932.116181 83.251 171.6207
6982.349153 83.248 171.9810
7032.946133 83.254 172.2997
7083.909760 83.270 172.5687
7135.242690 83.294 172.7802
7186.947600 83.325 172.9266
7239.027185 83.362 173.0012
7291.484160 83.405 172.9979
7344.321260 83.451 172.9125
7397.541239 83.499 172.7417
7451.146872 83.548 172.4836
7505.140954 83.596 172.1372
7559.526299 83.641 171.7023
7614.305743 83.683 171.1787
7669.482141 83.720 170.5669
7725.058371 83.751 169.8674
7781.037328 83.773 169.0820
7837.421932 83.786 168.2128
7894.215122 83.788 167.2633
7951.419859 83.777 166.2379
8009.039125 83.752 165.1431
8067.075924 83.710 163.9868
8125.533282 83.652 162.7790
8184.414245 83.574 161.5315
8243.721885 83.477 160.2575
8303.459292 83.358 158.9719
8363.629581 83.218 157.6905
8424.235888 83.056 156.4305
8485.281374 82.872 155.2091
8546.769221 82.667 154.0435
8608.702634 82.441 152.9501
8671.084842 82.196 151.9442
8733.919097 81.933 151.0399
8797.208675 81.654 150.2494
8860.956876 81.361 149.5831
8925.167022 81.057 149.0490
8989.842461 80.742 148.6525
9054.986566 80.420 148.3970
9120.602731 80.093 148.2833
9186.694378 79.762 148.3103
9253.264952 79.431 148.4749
9320.317925 79.099 148.7728
9387.856790 78.770 149.1992
9455.885071 78.443 149.7483
9524.406312 78.121 150.4140
9593.424086 77.804 151.1899
9662.941992 77.492 152.0693
9732.963653 77.188 153.0464
9803.492719 76.890 154.1159
9874.532869 76.600 155.2732
9946.087805 76.318 156.5144
10018.161257 76.043 157.8357
10090.756983 75.778 159.2335
10163.878768 75.521 160.7047
10237.530423 75.273 162.2463
10311.715789 75.035 163.8560
10386.438732 74.806 165.5312
10461.703149 74.587 167.2700
10537.512962 74.379 169.0696
10613.872125 74.182 170.9274
10690.784618 73.995 172.8401
10768.254450 73.821 174.8047
10846.285661 73.659 176.8186
10924.882318 73.510 178.8804
11004.048518 73.374 -179.0110
11083.788390 73.253 -176.8564
11164.106090 73.145 -174.6571
11245.005805 73.053 -172.4160
11326.491752 72.978 -170.1396
11408.568180 72.920 -167.8394
11491.239368 72.879 -165.5289
11574.509626 72.855 -163.2178
11658.383294 72.846 -160.9062
11742.864745 72.852 -158.5867
11827.958384 72.874 -156.2501
11913.668646 72.913 -153.8909
12000.000000 72.971 -151.5089
12086.956947 73.050 -149.1074
12174.544019 73.151 -146.6915
12262.765784 73.277 -144.2672
12351.626840 73.427 -141.8403
12441.131819 73.605 -139.4170
12531.285389 73.812 -137.0036
12622.092249 74.051 -134.6069
12713.557132 74.324 -132.2349
12805.684808 74.635 -129.8983
12898.480079 74.987 -127.6115
12991.947783 75.386 -125.3940
13086.092792 75.837 -123.2725
13180.920015 76.346 -121.2828
13276.434395 76.918 -119.4744
13372.640911 77.561 -117.9135
13469.544580 78.278 -116.6858
13567.150452 79.070 -115.8975
13665.463617 79.934 -115.6730
13764.489200 80.856 -116.1489
13864.232362 81.817 -117.4631
13964.698305 82.791 -119.7389
14065.892266 83.741 -123.0692
14167.819519 84.628 -127.4990
14270.485380 85.409 -133.0092
14373.895200 86.038 -139.4999
14478.054370 86.477 -146.7782
14582.968320 86.694 -154.5567
14688.642520 86.674 -162.4771
14795.082478 86.418 -170.1589
14902.293745 85.950 -177.2609
15010.281908 85.304 176.4772
15119.052599 84.522 171.2173
15228.611486 83.652 167.0281
15338.964283 82.735 163.8996
15450.116741 81.813 161.7605
15562.074656 80.918 160.4984
15674.843864 80.074 159.9800
15788.430244 79.297 160.0707
15902.839718 78.596 160.6481
16018.078250 77.973 161.6106
16134.151848 77.429 162.8749
16251.066563 76.966 164.3675
16368.828491 76.583 166.0100
16487.443769 76.284 167.7068
16606.918584 76.070 169.3400
16727.259161 75.936 170.7775
16848.471777 75.876 171.8901
16970.562748 75.875 172.5703
17093.538442 75.915 172.7433
17217.405268 75.978 172.3710
17342.169684 76.043 171.4471
17467.838194 76.091 169.9932
17594.417350 76.107 168.0525
17721.913751 76.075 165.6868
17850.334044 75.983 162.9732
17979.684923 75.820 160.0009
18109.973131 75.583 156.8654
18241.205462 75.267 153.6630
18373.388756 74.876 150.4832
18506.529905 74.413 147.4030
18640.635849 73.885 144.4821
18775.713581 73.300 141.7604
18911.770141 72.667 139.2582
19048.812624 71.995 136.9780
19186.848172 71.290 134.9100
19325.883983 70.565 133.0387
19465.927305 69.833 131.3527
19606.985439 69.121 129.8578
19749.065738 68.479 128.5930
19892.175609 67.977 127.6418
20036.322514 67.697 127.1199
