* Measurement data measured by REW V5.31.3
* Source: Headset (2- CX31993 HIFI AUDIO), MICROPHONE (Master Volume), R, volume: 0.200
* Format: 256k Log Swept Sine, 1 sweep at -11.9 dBFS with no timing reference
* Dated: 10 21, 25 11:08:42 AM
* REW Settings:
*  C-weighting compensation: Off
*  Target level: 75.0 dB
* Note: ; 
* Measurement: CCA Phoenix R
* Smoothing: 1/12 octave
* Frequency Step: 96 ppo
* Start Frequency: 0.36621094 Hz
*
* Freq(Hz) SPL(dB) Phase(degrees)
0.366211 20.502 -50.8647
0.368865 20.518 -50.9459
0.371538 20.542 -51.0665
0.374230 20.572 -51.2159
0.376942 20.606 -51.3850
0.379673 20.642 -51.5672
0.382424 20.680 -51.7581
0.385196 20.718 -51.9549
0.387987 20.757 -52.1562
0.390798 20.797 -52.3611
0.393630 20.837 -52.5690
0.396483 20.878 -52.7798
0.399356 20.918 -52.9932
0.402250 20.960 -53.2093
0.405165 21.001 -53.4279
0.408101 21.043 -53.6490
0.411058 21.084 -53.8727
0.414037 21.127 -54.0989
0.417037 21.169 -54.3276
0.420059 21.212 -54.5588
0.423103 21.255 -54.7924
0.426169 21.299 -55.0286
0.429257 21.343 -55.2672
0.432368 21.387 -55.5082
0.435501 21.431 -55.7517
0.438656 21.476 -55.9977
0.441835 21.521 -56.2461
0.445037 21.567 -56.4969
0.448262 21.612 -56.7501
0.451510 21.659 -57.0058
0.454782 21.705 -57.2639
0.458077 21.752 -57.5244
0.461397 21.799 -57.7873
0.464740 21.846 -58.0527
0.468108 21.894 -58.3204
0.471500 21.942 -58.5906
0.474917 21.991 -58.8633
0.478358 22.040 -59.1384
0.481825 22.089 -59.4159
0.485316 22.138 -59.6960
0.488833 22.188 -59.9785
0.492375 22.239 -60.2635
0.495943 22.289 -60.5511
0.499537 22.340 -60.8412
0.503157 22.392 -61.1338
0.506803 22.443 -61.4291
0.510475 22.495 -61.7270
0.514175 22.548 -62.0276
0.517900 22.601 -62.3308
0.521653 22.654 -62.6368
0.525434 22.708 -62.9456
0.529241 22.762 -63.2572
0.533076 22.816 -63.5717
0.536939 22.871 -63.8891
0.540830 22.926 -64.2095
0.544749 22.982 -64.5330
0.548696 23.038 -64.8595
0.552673 23.094 -65.1892
0.556677 23.151 -65.5222
0.560711 23.209 -65.8585
0.564774 23.266 -66.1982
0.568867 23.324 -66.5414
0.572989 23.383 -66.8881
0.577141 23.442 -67.2386
0.581324 23.501 -67.5928
0.585536 23.561 -67.9508
0.589779 23.621 -68.3129
0.594053 23.682 -68.6790
0.598358 23.743 -69.0494
0.602694 23.804 -69.4240
0.607061 23.866 -69.8032
0.611460 23.929 -70.1869
0.615891 23.992 -70.5754
0.620354 24.055 -70.9687
0.624849 24.119 -71.3671
0.629377 24.183 -71.7707
0.633938 24.248 -72.1796
0.638532 24.313 -72.5940
0.643159 24.379 -73.0142
0.647819 24.445 -73.4402
0.652514 24.512 -73.8723
0.657242 24.579 -74.3106
0.662005 24.646 -74.7554
0.666802 24.715 -75.2069
0.671634 24.783 -75.6653
0.676501 24.852 -76.1309
0.681403 24.922 -76.6037
0.686341 24.992 -77.0842
0.691314 25.063 -77.5724
0.696324 25.134 -78.0687
0.701370 25.205 -78.5732
0.706452 25.277 -79.0861
0.711571 25.350 -79.6074
0.716728 25.423 -80.1370
0.721921 25.497 -80.6746
0.727153 25.571 -81.2197
0.732422 25.646 -81.7710
0.737729 25.721 -82.3275
0.743075 25.796 -82.8877
0.748460 25.872 -83.4504
0.753883 25.949 -84.0146
0.759346 26.026 -84.5797
0.764849 26.103 -85.1453
0.770391 26.181 -85.7109
0.775974 26.260 -86.2765
0.781597 26.339 -86.8419
0.787261 26.419 -87.4071
0.792966 26.499 -87.9719
0.798712 26.579 -88.5365
0.804500 26.661 -89.1008
0.810329 26.742 -89.6649
0.816201 26.825 -90.2289
0.822116 26.907 -90.7928
0.828073 26.991 -91.3569
0.834074 27.075 -91.9212
0.840118 27.160 -92.4859
0.846206 27.245 -93.0512
0.852338 27.331 -93.6173
0.858514 27.417 -94.1845
0.864735 27.504 -94.7529
0.871001 27.592 -95.3228
0.877313 27.680 -95.8945
0.883670 27.769 -96.4683
0.890074 27.859 -97.0446
0.896524 27.949 -97.6235
0.903020 28.040 -98.2056
0.909564 28.132 -98.7911
0.916155 28.224 -99.3804
0.922794 28.317 -99.9740
0.929481 28.411 -100.5722
0.936216 28.505 -101.1754
0.943000 28.600 -101.7841
0.949834 28.696 -102.3987
0.956717 28.793 -103.0198
0.963649 28.890 -103.6478
0.970632 28.989 -104.2831
0.977666 29.088 -104.9263
0.984750 29.188 -105.5779
0.991886 29.288 -106.2384
0.999074 29.390 -106.9085
1.006314 29.492 -107.5886
1.013606 29.595 -108.2793
1.020951 29.699 -108.9811
1.028349 29.804 -109.6947
1.035801 29.910 -110.4207
1.043307 30.017 -111.1595
1.050867 30.125 -111.9118
1.058482 30.233 -112.6778
1.066152 30.343 -113.4579
1.073878 30.454 -114.2522
1.081660 30.565 -115.0601
1.089498 30.678 -115.8808
1.097393 30.792 -116.7126
1.105345 30.906 -117.5534
1.113355 31.022 -118.4009
1.121423 31.139 -119.2529
1.129549 31.256 -120.1075
1.137734 31.375 -120.9637
1.145979 31.495 -121.8204
1.154283 31.616 -122.6773
1.162647 31.738 -123.5339
1.171072 31.860 -124.3899
1.179558 31.984 -125.2455
1.188106 32.109 -126.1005
1.196715 32.235 -126.9549
1.205387 32.362 -127.8090
1.214122 32.490 -128.6629
1.222920 32.620 -129.5167
1.231782 32.750 -130.3707
1.240708 32.881 -131.2253
1.249699 33.014 -132.0806
1.258754 33.147 -132.9371
1.267876 33.282 -133.7951
1.277063 33.417 -134.6551
1.286318 33.554 -135.5174
1.295639 33.692 -136.3826
1.305027 33.831 -137.2511
1.314484 33.971 -138.1234
1.324009 34.112 -139.0000
1.333604 34.254 -139.8814
1.343268 34.397 -140.7683
1.353002 34.542 -141.6611
1.362806 34.687 -142.5603
1.372681 34.833 -143.4666
1.382628 34.981 -144.3805
1.392647 35.130 -145.3024
1.402739 35.280 -146.2327
1.412904 35.430 -147.1718
1.423142 35.582 -148.1195
1.433455 35.736 -149.0756
1.443843 35.890 -150.0389
1.454305 36.045 -151.0078
1.464844 36.202 -151.9796
1.475459 36.360 -152.9512
1.486150 36.520 -153.9194
1.496920 36.681 -154.8817
1.507767 36.843 -155.8364
1.518693 37.007 -156.7827
1.529698 37.172 -157.7205
1.540783 37.339 -158.6500
1.551948 37.507 -159.5719
1.563194 37.676 -160.4869
1.574521 37.847 -161.3960
1.585931 38.020 -162.3002
1.597423 38.193 -163.2007
1.608999 38.368 -164.0984
1.620658 38.544 -164.9948
1.632402 38.721 -165.8907
1.644232 38.900 -166.7876
1.656146 39.079 -167.6865
1.668147 39.260 -168.5886
1.680235 39.441 -169.4952
1.692411 39.624 -170.4073
1.704675 39.807 -171.3262
1.717028 39.992 -172.2529
1.729470 40.177 -173.1885
1.742003 40.363 -174.1340
1.754626 40.550 -175.0902
1.767341 40.737 -176.0578
1.780147 40.925 -177.0370
1.793047 41.114 -178.0277
1.806040 41.303 -179.0290
1.819128 41.493 179.9611
1.832310 41.683 178.9454
1.845587 41.874 177.9274
1.858961 42.067 176.9106
1.872432 42.260 175.8979
1.886001 42.454 174.8912
1.899667 42.649 173.8916
1.913433 42.844 172.8994
1.927299 43.041 171.9145
1.941265 43.239 170.9365
1.955332 43.438 169.9647
1.969501 43.637 168.9983
1.983773 43.837 168.0363
1.998148 44.038 167.0775
2.012627 44.240 166.1212
2.027212 44.442 165.1659
2.041902 44.645 164.2106
2.056698 44.848 163.2541
2.071602 45.052 162.2953
2.086614 45.256 161.3329
2.101734 45.460 160.3661
2.116964 45.665 159.3937
2.132304 45.870 158.4151
2.147756 46.076 157.4299
2.163320 46.281 156.4383
2.178996 46.487 155.4412
2.194786 46.693 154.4405
2.210690 46.899 153.4385
2.226710 47.105 152.4380
2.242845 47.311 151.4413
2.259098 47.518 150.4498
2.275468 47.725 149.4644
2.291957 47.932 148.4852
2.308566 48.140 147.5121
2.325295 48.347 146.5444
2.342145 48.555 145.5815
2.359117 48.763 144.6223
2.376212 48.971 143.6656
2.393431 49.179 142.7106
2.410775 49.387 141.7560
2.428244 49.596 140.8005
2.445840 49.804 139.8431
2.463564 50.013 138.8826
2.481416 50.221 137.9179
2.499397 50.429 136.9484
2.517509 50.637 135.9736
2.535752 50.846 134.9936
2.554127 51.054 134.0092
2.572635 51.261 133.0220
2.591277 51.469 132.0338
2.610055 51.676 131.0464
2.628968 51.883 130.0612
2.648019 52.090 129.0790
2.667208 52.297 128.1004
2.686535 52.503 127.1253
2.706003 52.709 126.1532
2.725612 52.915 125.1838
2.745363 53.120 124.2162
2.765257 53.325 123.2496
2.785295 53.530 122.2831
2.805478 53.735 121.3158
2.825808 53.939 120.3467
2.846285 54.143 119.3748
2.866910 54.347 118.3995
2.887685 54.550 117.4202
2.908611 54.753 116.4369
2.929688 54.956 115.4500
2.950917 55.158 114.4605
2.972301 55.359 113.4696
2.993839 55.560 112.4783
3.015534 55.760 111.4877
3.037386 55.960 110.4983
3.059396 56.159 109.5104
3.081565 56.358 108.5240
3.103896 56.555 107.5391
3.126388 56.753 106.5551
3.149043 56.950 105.5716
3.171862 57.146 104.5880
3.194847 57.341 103.6035
3.217998 57.536 102.6176
3.241317 57.731 101.6295
3.264805 57.925 100.6388
3.288463 58.118 99.6452
3.312293 58.311 98.6490
3.336295 58.503 97.6505
3.360471 58.694 96.6504
3.384822 58.884 95.6494
3.409350 59.073 94.6483
3.434056 59.262 93.6474
3.458940 59.450 92.6472
3.484005 59.636 91.6478
3.509252 59.822 90.6492
3.534681 60.008 89.6512
3.560295 60.192 88.6534
3.586094 60.376 87.6555
3.612081 60.559 86.6569
3.638255 60.742 85.6571
3.664620 60.923 84.6555
3.691175 61.104 83.6521
3.717923 61.283 82.6469
3.744864 61.462 81.6402
3.772001 61.639 80.6326
3.799335 61.816 79.6247
3.826866 61.992 78.6172
3.854597 62.166 77.6105
3.882529 62.340 76.6049
3.910664 62.513 75.6006
3.939002 62.685 74.5976
3.967546 62.856 73.5955
3.996296 63.026 72.5939
4.025255 63.195 71.5923
4.054423 63.363 70.5899
4.083804 63.530 69.5867
4.113396 63.696 68.5825
4.143204 63.861 67.5778
4.173227 64.025 66.5732
4.203468 64.188 65.5693
4.233928 64.350 64.5668
4.264609 64.511 63.5661
4.295512 64.671 62.5676
4.326639 64.830 61.5713
4.357992 64.988 60.5768
4.389572 65.145 59.5838
4.421380 65.301 58.5916
4.453419 65.456 57.5996
4.485691 65.610 56.6079
4.518196 65.763 55.6165
4.550936 65.914 54.6261
4.583914 66.065 53.6373
4.617131 66.215 52.6506
4.650589 66.364 51.6666
4.684289 66.512 50.6856
4.718233 66.659 49.7074
4.752424 66.805 48.7319
4.786862 66.950 47.7584
4.821549 67.094 46.7864
4.856488 67.237 45.8158
4.891680 67.380 44.8465
4.927127 67.521 43.8791
4.962831 67.661 42.9139
4.998794 67.801 41.9515
5.035017 67.939 40.9923
5.071503 68.077 40.0364
5.108253 68.214 39.0837
5.145270 68.350 38.1339
5.182555 68.486 37.1865
5.220110 68.620 36.2412
5.257937 68.754 35.2979
5.296038 68.887 34.3569
5.334415 69.019 33.4184
5.373071 69.150 32.4828
5.412006 69.281 31.5504
5.451224 69.411 30.6211
5.490725 69.540 29.6948
5.530514 69.669 28.7712
5.570590 69.797 27.8500
5.610957 69.924 26.9310
5.651616 70.051 26.0142
5.692570 70.177 25.0997
5.733821 70.302 24.1876
5.775370 70.427 23.2782
5.817221 70.551 22.3713
5.859375 70.675 21.4669
5.901834 70.798 20.5646
5.944602 70.921 19.6643
5.987679 71.043 18.7657
6.031068 71.164 17.8690
6.074771 71.285 16.9741
6.118792 71.405 16.0810
6.163131 71.525 15.1898
6.207792 71.644 14.3003
6.252776 71.763 13.4124
6.298086 71.881 12.5259
6.343725 71.998 11.6405
6.389694 72.115 10.7563
6.435996 72.232 9.8733
6.482634 72.348 8.9915
6.529610 72.463 8.1110
6.576926 72.578 7.2316
6.624585 72.692 6.3533
6.672590 72.806 5.4756
6.720942 72.919 4.5987
6.769645 73.032 3.7225
6.818700 73.143 2.8473
6.868111 73.255 1.9729
6.917881 73.365 1.0996
6.968010 73.475 0.2271
7.018504 73.584 -0.6447
7.069362 73.693 -1.5159
7.120590 73.801 -2.3863
7.172189 73.908 -3.2559
7.224161 74.015 -4.1245
7.276511 74.121 -4.9919
7.329239 74.226 -5.8584
7.382350 74.331 -6.7238
7.435845 74.434 -7.5883
7.489729 74.537 -8.4517
7.544002 74.640 -9.3140
7.598669 74.741 -10.1749
7.653732 74.842 -11.0343
7.709194 74.942 -11.8922
7.765058 75.042 -12.7487
7.821327 75.141 -13.6038
7.878004 75.239 -14.4573
7.935091 75.336 -15.3093
7.992592 75.433 -16.1594
8.050510 75.529 -17.0077
8.108847 75.624 -17.8541
8.167607 75.719 -18.6987
8.226793 75.813 -19.5416
8.286408 75.906 -20.3827
8.346454 75.998 -21.2217
8.406936 76.090 -22.0588
8.467856 76.182 -22.8939
8.529218 76.273 -23.7272
8.591024 76.363 -24.5586
8.653278 76.452 -25.3881
8.715983 76.541 -26.2157
8.779143 76.629 -27.0414
8.842760 76.717 -27.8652
8.906839 76.804 -28.6874
8.971381 76.891 -29.5077
9.036392 76.977 -30.3263
9.101873 77.062 -31.1431
9.167829 77.146 -31.9581
9.234263 77.231 -32.7715
9.301178 77.314 -33.5831
9.368578 77.397 -34.3931
9.436467 77.479 -35.2013
9.504847 77.561 -36.0077
9.573723 77.642 -36.8123
9.643099 77.722 -37.6152
9.712976 77.802 -38.4161
9.783361 77.881 -39.2151
9.854255 77.959 -40.0121
9.925663 78.037 -40.8070
9.997588 78.114 -41.5997
10.070035 78.190 -42.3901
10.143007 78.266 -43.1783
10.216507 78.341 -43.9640
10.290540 78.415 -44.7472
10.365109 78.489 -45.5278
10.440219 78.562 -46.3057
10.515873 78.635 -47.0809
10.592076 78.707 -47.8534
10.668830 78.778 -48.6230
10.746141 78.849 -49.3899
10.824012 78.919 -50.1540
10.902447 78.989 -50.9153
10.981451 79.058 -51.6738
11.061027 79.127 -52.4297
11.141180 79.196 -53.1829
11.221913 79.263 -53.9336
11.303232 79.331 -54.6818
11.385140 79.398 -55.4277
11.467641 79.464 -56.1714
11.550741 79.531 -56.9130
11.634442 79.596 -57.6526
11.718750 79.661 -58.3903
11.803669 79.726 -59.1260
11.889203 79.790 -59.8601
11.975357 79.854 -60.5925
12.062136 79.918 -61.3232
12.149543 79.980 -62.0523
12.237583 80.043 -62.7798
12.326262 80.104 -63.5056
12.415583 80.166 -64.2299
12.505552 80.226 -64.9523
12.596172 80.286 -65.6731
12.687449 80.346 -66.3921
12.779387 80.404 -67.1093
12.871992 80.463 -67.8246
12.965268 80.521 -68.5381
13.059220 80.578 -69.2496
13.153852 80.634 -69.9594
13.249170 80.690 -70.6672
13.345179 80.746 -71.3733
13.441884 80.801 -72.0775
13.539289 80.855 -72.7802
13.637401 80.909 -73.4811
13.736223 80.962 -74.1805
13.835761 81.015 -74.8784
13.936021 81.067 -75.5747
14.037007 81.118 -76.2695
14.138725 81.169 -76.9628
14.241180 81.219 -77.6542
14.344377 81.268 -78.3438
14.448323 81.317 -79.0312
14.553021 81.364 -79.7164
14.658478 81.411 -80.3987
14.764700 81.457 -81.0781
14.871691 81.503 -81.7542
14.979457 81.548 -82.4265
15.088005 81.591 -83.0948
15.197339 81.635 -83.7589
15.307465 81.678 -84.4186
15.418389 81.720 -85.0737
15.530117 81.762 -85.7244
15.642655 81.803 -86.3708
15.756008 81.845 -87.0132
15.870182 81.886 -87.6519
15.985184 81.927 -88.2875
16.101019 81.968 -88.9204
16.217694 82.009 -89.5514
16.335214 82.050 -90.1810
16.453586 82.091 -90.8099
16.572815 82.132 -91.4385
16.692909 82.172 -92.0671
16.813872 82.212 -92.6963
16.935713 82.252 -93.3259
17.058436 82.291 -93.9562
17.182048 82.329 -94.5867
17.306556 82.367 -95.2171
17.431967 82.404 -95.8471
17.558286 82.440 -96.4761
17.685521 82.475 -97.1035
17.813677 82.510 -97.7288
17.942762 82.543 -98.3513
18.072783 82.576 -98.9706
18.203746 82.608 -99.5865
18.335658 82.640 -100.1986
18.468526 82.671 -100.8069
18.602356 82.702 -101.4114
18.737156 82.732 -102.0123
18.872934 82.762 -102.6096
19.009695 82.792 -103.2038
19.147447 82.821 -103.7950
19.286197 82.850 -104.3836
19.425953 82.879 -104.9698
19.566721 82.908 -105.5537
19.708510 82.936 -106.1357
19.851326 82.965 -106.7158
19.995177 82.992 -107.2942
20.140070 83.020 -107.8710
20.286013 83.048 -108.4466
20.433014 83.075 -109.0211
20.581080 83.101 -109.5946
20.730219 83.128 -110.1675
20.880439 83.154 -110.7399
21.031747 83.180 -111.3118
21.184152 83.205 -111.8832
21.337661 83.229 -112.4541
21.492282 83.253 -113.0239
21.648024 83.276 -113.5920
21.804895 83.299 -114.1579
21.962902 83.320 -114.7205
22.122054 83.341 -115.2789
22.282360 83.361 -115.8323
22.443827 83.380 -116.3799
22.606464 83.399 -116.9210
22.770280 83.418 -117.4556
22.935283 83.437 -117.9837
23.101481 83.456 -118.5059
23.268884 83.475 -119.0228
23.437500 83.495 -119.5359
23.607338 83.515 -120.0463
23.778406 83.536 -120.5555
23.950714 83.557 -121.0648
24.124271 83.578 -121.5753
24.299086 83.599 -122.0875
24.475167 83.620 -122.6019
24.652524 83.641 -123.1182
24.831166 83.661 -123.6356
25.011103 83.680 -124.1531
25.192344 83.698 -124.6695
25.374898 83.715 -125.1832
25.558775 83.732 -125.6931
25.743984 83.748 -126.1982
25.930536 83.763 -126.6978
26.118439 83.778 -127.1920
26.307704 83.793 -127.6812
26.498341 83.808 -128.1662
26.690359 83.823 -128.6484
26.883768 83.839 -129.1292
27.078579 83.854 -129.6096
27.274801 83.870 -130.0911
27.472446 83.885 -130.5740
27.671522 83.900 -131.0586
27.872042 83.914 -131.5447
28.074014 83.927 -132.0316
28.277450 83.940 -132.5183
28.482360 83.951 -133.0038
28.688755 83.961 -133.4872
28.896645 83.971 -133.9675
29.106042 83.980 -134.4437
29.316957 83.988 -134.9155
29.529400 83.996 -135.3824
29.743382 84.003 -135.8443
29.958915 84.010 -136.3016
30.176009 84.017 -136.7549
30.394677 84.025 -137.2054
30.614929 84.033 -137.6549
30.836778 84.041 -138.1052
31.060234 84.049 -138.5580
31.285309 84.057 -139.0148
31.512015 84.065 -139.4758
31.740364 84.072 -139.9404
31.970368 84.077 -140.4066
32.202039 84.081 -140.8710
32.435388 84.084 -141.3301
32.670428 84.085 -141.7802
32.907171 84.085 -142.2189
33.145630 84.086 -142.6451
33.385817 84.087 -143.0601
33.627745 84.089 -143.4663
33.871425 84.093 -143.8676
34.116871 84.099 -144.2679
34.364096 84.105 -144.6705
34.613113 84.112 -145.0776
34.863934 84.119 -145.4896
35.116572 84.127 -145.9059
35.371041 84.133 -146.3254
35.627354 84.140 -146.7468
35.885525 84.145 -147.1689
36.145566 84.150 -147.5914
36.407492 84.155 -148.0137
36.671316 84.158 -148.4352
36.937051 84.161 -148.8547
37.204712 84.163 -149.2707
37.474313 84.164 -149.6815
37.745867 84.164 -150.0860
38.019389 84.164 -150.4839
38.294893 84.164 -150.8763
38.572394 84.165 -151.2650
38.851905 84.166 -151.6523
39.133442 84.167 -152.0401
39.417019 84.168 -152.4288
39.702651 84.168 -152.8180
39.990353 84.168 -153.2059
40.280140 84.166 -153.5905
40.572026 84.164 -153.9699
40.866028 84.162 -154.3435
41.162160 84.159 -154.7114
41.460438 84.157 -155.0745
41.760877 84.155 -155.4340
42.063494 84.153 -155.7913
42.368303 84.151 -156.1476
42.675322 84.150 -156.5043
42.984565 84.148 -156.8629
43.296048 84.147 -157.2249
43.609789 84.145 -157.5916
43.925804 84.142 -157.9631
44.244108 84.139 -158.3387
44.564719 84.134 -158.7162
44.887654 84.127 -159.0930
45.212928 84.119 -159.4664
45.540560 84.111 -159.8351
45.870565 84.102 -160.1991
46.202962 84.093 -160.5591
46.537768 84.083 -160.9158
46.875000 84.074 -161.2693
47.214676 84.064 -161.6187
47.556813 84.055 -161.9628
47.901429 84.047 -162.3011
48.248542 84.040 -162.6348
48.598171 84.034 -162.9662
48.950334 84.029 -163.2980
49.305048 84.025 -163.6323
49.662333 84.022 -163.9702
50.022206 84.020 -164.3121
50.384688 84.017 -164.6588
50.749796 84.014 -165.0109
51.117550 84.010 -165.3682
51.487969 84.004 -165.7281
51.861072 83.995 -166.0852
52.236879 83.983 -166.4324
52.615409 83.969 -166.7642
52.996681 83.955 -167.0795
53.380717 83.940 -167.3817
53.767536 83.926 -167.6775
54.157158 83.913 -167.9735
54.549603 83.899 -168.2733
54.944892 83.885 -168.5774
55.343045 83.871 -168.8843
55.744084 83.856 -169.1924
56.148028 83.841 -169.5013
56.554900 83.827 -169.8113
56.964720 83.814 -170.1235
57.377510 83.801 -170.4390
57.793291 83.790 -170.7582
58.212085 83.778 -171.0808
58.633914 83.767 -171.4045
59.058799 83.755 -171.7258
59.486764 83.743 -172.0390
59.917829 83.729 -172.3390
60.352019 83.715 -172.6221
60.789354 83.701 -172.8878
61.229859 83.686 -173.1390
61.673556 83.671 -173.3807
62.120468 83.655 -173.6177
62.570618 83.637 -173.8530
63.024031 83.616 -174.0876
63.480729 83.591 -174.3207
63.940736 83.562 -174.5476
64.404077 83.528 -174.7577
64.870776 83.492 -174.9373
65.340856 83.458 -175.0799
65.814343 83.431 -175.1990
66.291261 83.414 -175.3311
66.771635 83.408 -175.5215
67.255489 83.407 -175.7985
67.742850 83.404 -176.1578
68.233743 83.396 -176.5690
68.728193 83.382 -176.9956
69.226226 83.365 -177.4136
69.727867 83.346 -177.8130
70.233144 83.326 -178.1901
70.742083 83.306 -178.5403
71.254709 83.286 -178.8588
71.771050 83.266 -179.1442
72.291132 83.246 -179.3992
72.814984 83.227 -179.6280
73.342631 83.208 -179.8357
73.874102 83.189 179.9713
74.409424 83.171 179.7850
74.948626 83.152 179.5987
75.491734 83.132 179.4077
76.038779 83.112 179.2092
76.589787 83.091 179.0002
77.144788 83.070 178.7773
77.703811 83.049 178.5398
78.266885 83.028 178.2906
78.834039 83.006 178.0360
79.405303 82.983 177.7830
79.980706 82.962 177.5366
80.560280 82.942 177.2983
81.144053 82.923 177.0654
81.732056 82.906 176.8329
82.324320 82.889 176.5965
82.920876 82.870 176.3552
83.521755 82.850 176.1112
84.126988 82.827 175.8674
84.736607 82.801 175.6251
85.350643 82.773 175.3833
85.969129 82.743 175.1400
86.592097 82.712 174.8937
87.219579 82.680 174.6454
87.851608 82.646 174.3975
88.488217 82.613 174.1530
89.129439 82.579 173.9142
89.775308 82.544 173.6819
90.425856 82.510 173.4569
91.081119 82.475 173.2402
91.741131 82.438 173.0327
92.405925 82.399 172.8356
93.075536 82.357 172.6496
93.750000 82.313 172.4746
94.429351 82.266 172.3100
95.113625 82.217 172.1550
95.802858 82.166 172.0107
96.497085 82.113 171.8805
97.196342 82.058 171.7704
97.900667 82.003 171.6881
98.610096 81.947 171.6419
99.324665 81.890 171.6395
100.044413 81.834 171.6872
100.769376 81.777 171.7891
101.499592 81.722 171.9484
102.235100 81.667 172.1664
102.975938 81.617 172.4385
103.722144 81.575 172.7524
104.473757 81.543 173.0896
105.230817 81.525 173.4299
105.993363 81.525 173.7526
106.761435 81.542 174.0340
107.535072 81.578 174.2481
108.314315 81.628 174.3740
109.099206 81.685 174.4050
109.889783 81.744 174.3492
110.686090 81.797 174.2242
111.488167 81.843 174.0453
112.296056 81.880 173.8135
113.109800 81.909 173.5133
113.929440 81.930 173.1250
114.755020 81.945 172.6382
115.586582 81.953 172.0555
116.424170 81.957 171.3914
117.267827 81.956 170.6763
118.117598 81.946 169.9636
118.973527 81.925 169.3391
119.835658 81.895 168.9049
120.704037 81.866 168.7126
121.578708 81.847 168.7150
122.459718 81.838 168.8083
123.347111 81.832 168.9038
124.240935 81.822 168.9515
125.141236 81.802 168.9336
126.048061 81.771 168.8510
126.961458 81.733 168.7117
127.881473 81.693 168.5257
128.808154 81.654 168.3048
129.741551 81.619 168.0648
130.681712 81.587 167.8247
131.628686 81.559 167.6035
132.582521 81.532 167.4163
133.543269 81.505 167.2702
134.510979 81.477 167.1595
135.485701 81.448 167.0690
136.467486 81.419 166.9836
137.456386 81.388 166.8915
138.452451 81.357 166.7841
139.455735 81.325 166.6589
140.466288 81.292 166.5211
141.484165 81.256 166.3818
142.509418 81.218 166.2532
143.542100 81.178 166.1428
144.582265 81.137 166.0510
145.629968 81.095 165.9736
146.685262 81.055 165.9056
147.748204 81.017 165.8384
148.818849 80.983 165.7615
149.897251 80.953 165.6689
150.983469 80.927 165.5593
152.077557 80.903 165.4370
153.179574 80.880 165.3126
154.289576 80.856 165.1973
155.407622 80.831 165.0995
156.533770 80.802 165.0249
157.668078 80.771 164.9734
158.810606 80.738 164.9390
159.961413 80.703 164.9127
161.120559 80.669 164.8868
162.288105 80.636 164.8542
163.464112 80.603 164.8105
164.648640 80.571 164.7548
165.841752 80.539 164.6910
167.043510 80.507 164.6259
168.253976 80.473 164.5672
169.473213 80.438 164.5217
170.701286 80.403 164.4905
171.938258 80.368 164.4701
173.184194 80.335 164.4554
174.439158 80.302 164.4428
175.703216 80.271 164.4303
176.976434 80.241 164.4181
178.258878 80.212 164.4076
179.550615 80.184 164.4003
180.851713 80.156 164.3972
182.162239 80.128 164.3968
183.482262 80.100 164.3950
184.811850 80.072 164.3882
186.151073 80.044 164.3748
187.500000 80.016 164.3558
188.858702 79.988 164.3334
190.227250 79.961 164.3090
191.605715 79.934 164.2840
192.994169 79.907 164.2585
194.392685 79.879 164.2321
195.801334 79.850 164.2042
197.220191 79.820 164.1755
198.649330 79.790 164.1475
200.088825 79.759 164.1221
201.538751 79.728 164.1010
202.999184 79.698 164.0850
204.470200 79.667 164.0748
205.951875 79.636 164.0700
207.444287 79.605 164.0698
208.947514 79.573 164.0733
210.461634 79.542 164.0798
211.986726 79.510 164.0895
213.522869 79.479 164.1027
215.070144 79.447 164.1191
216.628631 79.416 164.1390
218.198411 79.386 164.1624
219.779567 79.356 164.1895
221.372180 79.327 164.2198
222.976334 79.298 164.2530
224.592112 79.270 164.2886
226.219600 79.243 164.3260
227.858880 79.216 164.3637
229.510039 79.190 164.3990
231.173164 79.164 164.4295
232.848340 79.137 164.4545
234.535655 79.108 164.4753
236.235197 79.079 164.4963
237.947054 79.048 164.5226
239.671317 79.018 164.5588
241.408074 78.990 164.6067
243.157416 78.962 164.6641
244.919435 78.936 164.7277
246.694223 78.909 164.7934
248.481871 78.881 164.8575
250.282473 78.852 164.9164
252.096123 78.822 164.9692
253.922915 78.792 165.0174
255.762945 78.762 165.0645
257.616309 78.732 165.1144
259.483103 78.702 165.1689
261.363424 78.672 165.2275
263.257372 78.642 165.2887
265.165043 78.612 165.3511
267.086538 78.582 165.4126
269.021957 78.554 165.4709
270.971401 78.526 165.5279
272.934972 78.498 165.5883
274.912771 78.470 165.6557
276.904902 78.442 165.7300
278.911469 78.414 165.8091
280.932577 78.386 165.8906
282.968330 78.359 165.9731
285.018835 78.331 166.0559
287.084199 78.304 166.1382
289.164530 78.278 166.2204
291.259935 78.251 166.3035
293.370525 78.224 166.3894
295.496408 78.197 166.4798
297.637697 78.170 166.5750
299.794503 78.144 166.6731
301.966937 78.117 166.7722
304.155114 78.090 166.8716
306.359147 78.062 166.9718
308.579152 78.035 167.0730
310.815244 78.008 167.1746
313.067539 77.982 167.2766
315.336156 77.955 167.3801
317.621211 77.929 167.4867
319.922826 77.903 167.5966
322.241118 77.877 167.7091
324.576210 77.852 167.8239
326.928223 77.826 167.9413
329.297280 77.802 168.0618
331.683504 77.778 168.1851
334.087019 77.754 168.3104
336.507952 77.730 168.4369
338.946427 77.705 168.5634
341.402572 77.680 168.6893
343.876516 77.654 168.8148
346.368387 77.629 168.9417
348.878315 77.603 169.0725
351.406431 77.577 169.2092
353.952867 77.552 169.3516
356.517756 77.527 169.4980
359.101230 77.502 169.6464
361.703426 77.479 169.7949
364.324478 77.455 169.9425
366.964523 77.432 170.0890
369.623699 77.410 170.2343
372.302145 77.387 170.3785
375.000000 77.365 170.5225
377.717405 77.343 170.6672
380.454501 77.320 170.8145
383.211431 77.298 170.9651
385.988339 77.275 171.1185
388.785369 77.252 171.2732
391.602668 77.229 171.4285
394.440383 77.206 171.5856
397.298660 77.184 171.7455
400.177650 77.162 171.9092
403.077502 77.141 172.0771
405.998368 77.121 172.2495
408.940400 77.102 172.4258
411.903750 77.082 172.6044
414.888575 77.063 172.7830
417.895028 77.044 172.9601
420.923268 77.024 173.1355
423.973452 77.005 173.3091
427.045738 76.985 173.4812
430.140287 76.965 173.6525
433.257261 76.945 173.8248
436.396822 76.926 174.0002
439.559133 76.906 174.1793
442.744360 76.887 174.3616
445.952668 76.867 174.5463
449.184225 76.848 174.7324
452.439199 76.828 174.9189
455.717760 76.809 175.1046
459.020079 76.791 175.2885
462.346327 76.773 175.4716
465.696680 76.755 175.6573
469.071310 76.737 175.8504
472.470394 76.719 176.0535
475.894109 76.701 176.2656
479.342634 76.683 176.4835
482.816148 76.666 176.7039
486.314833 76.648 176.9248
489.838871 76.631 177.1447
493.388445 76.614 177.3630
496.963741 76.598 177.5804
500.564945 76.581 177.7977
504.192245 76.565 178.0156
507.845830 76.549 178.2349
511.525890 76.534 178.4557
515.232618 76.518 178.6780
518.966206 76.503 178.9012
522.726849 76.488 179.1250
526.514743 76.473 179.3491
530.330086 76.459 179.5742
534.173076 76.445 179.8011
538.043915 76.431 -179.9684
541.942803 76.416 -179.7336
545.869944 76.402 -179.4943
549.825542 76.387 -179.2512
553.809805 76.373 -179.0049
557.822939 76.359 -178.7560
561.865154 76.346 -178.5048
565.936660 76.332 -178.2512
570.037671 76.319 -177.9952
574.168399 76.307 -177.7368
578.329060 76.294 -177.4762
582.519870 76.282 -177.2139
586.741049 76.270 -176.9509
590.992817 76.258 -176.6875
595.275394 76.246 -176.4239
599.589005 76.234 -176.1593
603.933874 76.222 -175.8928
608.310228 76.211 -175.6229
612.718295 76.201 -175.3490
617.158304 76.191 -175.0712
621.630488 76.183 -174.7910
626.135079 76.174 -174.5094
630.672311 76.165 -174.2267
635.242423 76.157 -173.9428
639.845651 76.149 -173.6576
644.482237 76.140 -173.3705
649.152421 76.132 -173.0811
653.856447 76.123 -172.7877
658.594560 76.116 -172.4888
663.367008 76.109 -172.1831
668.174039 76.103 -171.8698
673.015903 76.098 -171.5495
677.892854 76.094 -171.2244
682.805145 76.090 -170.8973
687.753032 76.086 -170.5701
692.736774 76.083 -170.2430
697.756631 76.080 -169.9149
702.812863 76.077 -169.5847
707.905735 76.075 -169.2516
713.035511 76.073 -168.9147
718.202461 76.071 -168.5734
723.406852 76.071 -168.2276
728.648956 76.071 -167.8781
733.929047 76.073 -167.5262
739.247399 76.075 -167.1729
744.604290 76.078 -166.8186
750.000000 76.081 -166.4625
755.434809 76.084 -166.1033
760.909001 76.089 -165.7402
766.422861 76.094 -165.3726
771.976677 76.099 -165.0006
777.570739 76.106 -164.6251
783.205337 76.114 -164.2464
788.880766 76.122 -163.8649
794.597321 76.132 -163.4807
800.355301 76.143 -163.0945
806.155005 76.154 -162.7074
811.996736 76.167 -162.3202
817.880799 76.182 -161.9327
823.807501 76.197 -161.5446
829.777150 76.213 -161.1552
835.790057 76.231 -160.7640
841.846536 76.249 -160.3712
847.946903 76.269 -159.9769
854.091476 76.290 -159.5823
860.280575 76.313 -159.1877
866.514523 76.336 -158.7939
872.793644 76.360 -158.4010
879.118267 76.386 -158.0099
885.488720 76.412 -157.6213
891.905336 76.440 -157.2364
898.368450 76.469 -156.8562
904.878398 76.499 -156.4814
911.435520 76.530 -156.1119
918.040157 76.562 -155.7466
924.692655 76.594 -155.3841
931.393359 76.626 -155.0223
938.142619 76.660 -154.6594
944.940787 76.694 -154.2949
951.788218 76.730 -153.9304
958.685268 76.768 -153.5682
965.632296 76.806 -153.2102
972.629666 76.845 -152.8565
979.677741 76.885 -152.5055
986.776890 76.926 -152.1546
993.927482 76.968 -151.8024
1001.129891 77.011 -151.4493
1008.384491 77.056 -151.0977
1015.691660 77.103 -150.7504
1023.051781 77.151 -150.4102
1030.465236 77.201 -150.0787
1037.932411 77.253 -149.7571
1045.453698 77.305 -149.4464
1053.029486 77.358 -149.1471
1060.660172 77.412 -148.8591
1068.346153 77.467 -148.5823
1076.087829 77.522 -148.3164
1083.885605 77.577 -148.0607
1091.739887 77.633 -147.8142
1099.651084 77.689 -147.5765
1107.619609 77.745 -147.3468
1115.645878 77.801 -147.1242
1123.730308 77.857 -146.9080
1131.873321 77.913 -146.6981
1140.075341 77.968 -146.4949
1148.336797 78.024 -146.2990
1156.658119 78.080 -146.1102
1165.039741 78.135 -145.9284
1173.482099 78.190 -145.7524
1181.985634 78.245 -145.5817
1190.550789 78.300 -145.4163
1199.178011 78.355 -145.2570
1207.867749 78.409 -145.1042
1216.620457 78.463 -144.9577
1225.436590 78.518 -144.8162
1234.316609 78.572 -144.6786
1243.260976 78.625 -144.5442
1252.270157 78.679 -144.4127
1261.344623 78.733 -144.2844
1270.484846 78.786 -144.1600
1279.691303 78.839 -144.0403
1288.964474 78.892 -143.9249
1298.304842 78.945 -143.8135
1307.712894 78.998 -143.7060
1317.189120 79.050 -143.6025
1326.734016 79.103 -143.5033
1336.348077 79.155 -143.4088
1346.031806 79.207 -143.3192
1355.785708 79.259 -143.2343
1365.610290 79.310 -143.1536
1375.506065 79.362 -143.0769
1385.473549 79.412 -143.0045
1395.513261 79.462 -142.9365
1405.625726 79.512 -142.8727
1415.811469 79.561 -142.8130
1426.071023 79.609 -142.7570
1436.404921 79.656 -142.7037
1446.813703 79.703 -142.6524
1457.297912 79.749 -142.6017
1467.858093 79.794 -142.5508
1478.494798 79.839 -142.4988
1489.208581 79.883 -142.4456
1500.000000 79.926 -142.3907
1510.869618 79.969 -142.3342
1521.818002 80.011 -142.2757
1532.845723 80.053 -142.2150
1543.953355 80.094 -142.1515
1555.141477 80.136 -142.0850
1566.410674 80.177 -142.0151
1577.761531 80.218 -141.9423
1589.194642 80.259 -141.8665
1600.710601 80.301 -141.7875
1612.310010 80.342 -141.7051
1623.993473 80.383 -141.6192
1635.761599 80.424 -141.5298
1647.615002 80.465 -141.4369
1659.554299 80.507 -141.3408
1671.580114 80.549 -141.2418
1683.693072 80.592 -141.1401
1695.893807 80.635 -141.0360
1708.182952 80.678 -140.9295
1720.561150 80.722 -140.8206
1733.029045 80.767 -140.7094
1745.587288 80.813 -140.5962
1758.236533 80.859 -140.4814
1770.977440 80.905 -140.3654
1783.810673 80.953 -140.2485
1796.736900 81.000 -140.1307
1809.756796 81.049 -140.0119
1822.871040 81.099 -139.8921
1836.080315 81.149 -139.7714
1849.385310 81.200 -139.6501
1862.786718 81.252 -139.5288
1876.285239 81.305 -139.4078
1889.881575 81.358 -139.2875
1903.576436 81.413 -139.1683
1917.370535 81.468 -139.0499
1931.264593 81.524 -138.9324
1945.259332 81.581 -138.8157
1959.355483 81.639 -138.7002
1973.553781 81.698 -138.5864
1987.854965 81.758 -138.4744
2002.259781 81.819 -138.3646
2016.768981 81.881 -138.2567
2031.383320 81.944 -138.1512
2046.103561 82.008 -138.0485
2060.930471 82.073 -137.9490
2075.864823 82.140 -137.8528
2090.907395 82.207 -137.7606
2106.058972 82.275 -137.6724
2121.320344 82.344 -137.5884
2136.692305 82.415 -137.5089
2152.175658 82.486 -137.4339
2167.771210 82.559 -137.3636
2183.479774 82.633 -137.2984
2199.302169 82.707 -137.2386
2215.239219 82.783 -137.1848
2231.291755 82.860 -137.1370
2247.460615 82.937 -137.0959
2263.746641 83.016 -137.0618
2280.150683 83.096 -137.0351
2296.673595 83.178 -137.0162
2313.316238 83.260 -137.0054
2330.079481 83.343 -137.0030
2346.964198 83.427 -137.0090
2363.971268 83.513 -137.0240
2381.101578 83.599 -137.0482
2398.356022 83.686 -137.0820
2415.735498 83.775 -137.1260
2433.240913 83.864 -137.1805
2450.873180 83.954 -137.2462
2468.633217 84.045 -137.3237
2486.521951 84.136 -137.4135
2504.540314 84.229 -137.5162
2522.689246 84.322 -137.6322
2540.969692 84.416 -137.7618
2559.382606 84.511 -137.9055
2577.928947 84.606 -138.0637
2596.609683 84.702 -138.2369
2615.425787 84.799 -138.4258
2634.378241 84.895 -138.6309
2653.468031 84.992 -138.8525
2672.696154 85.090 -139.0912
2692.063613 85.187 -139.3471
2711.571415 85.284 -139.6205
2731.220579 85.382 -139.9117
2751.012130 85.478 -140.2207
2770.947098 85.575 -140.5476
2791.026522 85.670 -140.8925
2811.251451 85.765 -141.2551
2831.622938 85.859 -141.6354
2852.142045 85.952 -142.0327
2872.809842 86.044 -142.4461
2893.627406 86.134 -142.8744
2914.595823 86.223 -143.3162
2935.716186 86.311 -143.7699
2956.989596 86.397 -144.2338
2978.417161 86.483 -144.7062
3000.000000 86.568 -145.1858
3021.739237 86.654 -145.6722
3043.636005 86.740 -146.1661
3065.691446 86.827 -146.6699
3087.906710 86.916 -147.1885
3110.282955 87.008 -147.7289
3132.821347 87.102 -148.3000
3155.523062 87.198 -148.9114
3178.389283 87.294 -149.5718
3201.421202 87.390 -150.2881
3224.620020 87.484 -151.0637
3247.986946 87.573 -151.8977
3271.523198 87.657 -152.7858
3295.230004 87.732 -153.7205
3319.108599 87.800 -154.6929
3343.160228 87.858 -155.6942
3367.386145 87.907 -156.7153
3391.787613 87.948 -157.7488
3416.365904 87.979 -158.7880
3441.122300 88.003 -159.8276
3466.058091 88.018 -160.8637
3491.174576 88.026 -161.8932
3516.473066 88.028 -162.9138
3541.954880 88.022 -163.9236
3567.621345 88.010 -164.9214
3593.473800 87.992 -165.9059
3619.513592 87.968 -166.8760
3645.742080 87.938 -167.8302
3672.160630 87.902 -168.7672
3698.770620 87.860 -169.6849
3725.573436 87.812 -170.5809
3752.570477 87.758 -171.4523
3779.763150 87.699 -172.2954
3807.152872 87.633 -173.1064
3834.741071 87.562 -173.8804
3862.529185 87.487 -174.6125
3890.518664 87.406 -175.2981
3918.710966 87.323 -175.9337
3947.107561 87.237 -176.5170
3975.709929 87.151 -177.0479
4004.519563 87.064 -177.5281
4033.537962 86.979 -177.9614
4062.766641 86.896 -178.3527
4092.207123 86.815 -178.7073
4121.860942 86.737 -179.0298
4151.729646 86.662 -179.3247
4181.814790 86.589 -179.5952
4212.117944 86.519 -179.8441
4242.640687 86.452 179.9264
4273.384610 86.388 179.7144
4304.351317 86.326 179.5182
4335.542421 86.267 179.3367
4366.959549 86.211 179.1687
4398.604338 86.157 179.0132
4430.478438 86.106 178.8694
4462.583511 86.059 178.7366
4494.921231 86.014 178.6135
4527.493283 85.972 178.4991
4560.301365 85.934 178.3916
4593.347189 85.899 178.2888
4626.632476 85.868 178.1882
4660.158962 85.842 178.0870
4693.928395 85.819 177.9830
4727.942535 85.800 177.8755
4762.203156 85.784 177.7657
4796.712043 85.773 177.6569
4831.470996 85.768 177.5532
4866.481826 85.770 177.4554
4901.746360 85.784 177.3549
4937.266434 85.812 177.2268
4973.043902 85.856 177.0284
5009.080628 85.913 176.7079
5045.378492 85.978 176.2244
5081.939384 86.040 175.5623
5118.765212 86.093 174.7338
5155.857894 86.130 173.7688
5193.219366 86.147 172.7020
5230.851574 86.144 171.5657
5268.756481 86.119 170.3870
5306.936062 86.073 169.1885
5345.392309 86.006 167.9901
5384.127225 85.919 166.8099
5423.142830 85.813 165.6651
5462.441159 85.689 164.5717
5502.024259 85.548 163.5444
5541.894195 85.391 162.5964
5582.053045 85.222 161.7387
5622.502902 85.041 160.9800
5663.245876 84.851 160.3262
5704.284090 84.654 159.7809
5745.619684 84.453 159.3450
5787.254813 84.250 159.0175
5829.191647 84.046 158.7958
5871.432373 83.843 158.6755
5913.979192 83.643 158.6509
5956.834323 83.446 158.7153
6000.000000 83.255 158.8613
6043.478473 83.070 159.0820
6087.272010 82.892 159.3702
6131.382892 82.721 159.7189
6175.813420 82.557 160.1213
6220.565910 82.401 160.5715
6265.642695 82.253 161.0637
6311.046124 82.112 161.5930
6356.778566 81.979 162.1555
6402.842404 81.854 162.7474
6449.240040 81.736 163.3662
6495.973891 81.626 164.0096
6543.046396 81.523 164.6759
6590.460007 81.428 165.3634
6638.217197 81.342 166.0705
6686.320456 81.264 166.7947
6734.772290 81.194 167.5330
6783.575226 81.134 168.2816
6832.731809 81.084 169.0361
6882.244600 81.044 169.7916
6932.116181 81.014 170.5428
6982.349153 80.994 171.2839
7032.946133 80.985 172.0085
7083.909760 80.987 172.7095
7135.242690 81.000 173.3795
7186.947600 81.023 174.0106
7239.027185 81.055 174.5949
7291.484160 81.097 175.1251
7344.321260 81.148 175.5945
7397.541239 81.206 175.9969
7451.146872 81.271 176.3268
7505.140954 81.343 176.5781
7559.526299 81.420 176.7451
7614.305743 81.500 176.8215
7669.482141 81.584 176.8013
7725.058371 81.670 176.6787
7781.037328 81.756 176.4482
7837.421932 81.840 176.1052
7894.215122 81.920 175.6460
7951.419859 81.994 175.0690
8009.039125 82.060 174.3747
8067.075924 82.115 173.5660
8125.533282 82.157 172.6488
8184.414245 82.183 171.6318
8243.721885 82.191 170.5269
8303.459292 82.179 169.3480
8363.629581 82.145 168.1116
8424.235888 82.088 166.8356
8485.281374 82.006 165.5398
8546.769221 81.900 164.2449
8608.702634 81.768 162.9725
8671.084842 81.613 161.7445
8733.919097 81.433 160.5819
8797.208675 81.232 159.5044
8860.956876 81.011 158.5292
8925.167022 80.772 157.6708
8989.842461 80.518 156.9401
9054.986566 80.251 156.3439
9120.602731 79.976 155.8855
9186.694378 79.693 155.5648
9253.264952 79.406 155.3785
9320.317925 79.116 155.3214
9387.856790 78.826 155.3865
9455.885071 78.536 155.5659
9524.406312 78.248 155.8521
9593.424086 77.962 156.2373
9662.941992 77.679 156.7151
9732.963653 77.400 157.2803
9803.492719 77.123 157.9290
9874.532869 76.850 158.6578
9946.087805 76.581 159.4647
10018.161257 76.315 160.3486
10090.756983 76.054 161.3093
10163.878768 75.797 162.3471
10237.530423 75.544 163.4621
10311.715789 75.297 164.6535
10386.438732 75.056 165.9199
10461.703149 74.821 167.2598
10537.512962 74.592 168.6716
10613.872125 74.371 170.1543
10690.784618 74.157 171.7067
10768.254450 73.952 173.3271
10846.285661 73.757 175.0135
10924.882318 73.572 176.7645
11004.048518 73.398 178.5784
11083.788390 73.236 -179.5468
11164.106090 73.085 -177.6133
11245.005805 72.947 -175.6232
11326.491752 72.823 -173.5786
11408.568180 72.713 -171.4825
11491.239368 72.618 -169.3400
11574.509626 72.540 -167.1580
11658.383294 72.478 -164.9440
11742.864745 72.433 -162.7030
11827.958384 72.405 -160.4355
11913.668646 72.395 -158.1400
12000.000000 72.403 -155.8152
12086.956947 72.431 -153.4625
12174.544019 72.481 -151.0846
12262.765784 72.553 -148.6859
12351.626840 72.651 -146.2717
12441.131819 72.774 -143.8477
12531.285389 72.925 -141.4203
12622.092249 73.107 -138.9968
12713.557132 73.321 -136.5857
12805.684808 73.571 -134.1973
12898.480079 73.861 -131.8444
12991.947783 74.194 -129.5443
13086.092792 74.575 -127.3196
13180.920015 75.011 -125.2010
13276.434395 75.507 -123.2300
13372.640911 76.069 -121.4628
13469.544580 76.701 -119.9722
13567.150452 77.406 -118.8508
13665.463617 78.182 -118.2106
13764.489200 79.022 -118.1787
13864.232362 79.912 -118.8896
13964.698305 80.829 -120.4723
14065.892266 81.744 -123.0341
14167.819519 82.618 -126.6443
14270.485380 83.412 -131.3163
14373.895200 84.081 -136.9908
14478.054370 84.583 -143.5198
14582.968320 84.883 -150.6588
14688.642520 84.957 -158.0757
14795.082478 84.799 -165.3887
14902.293745 84.425 -172.2264
15010.281908 83.869 -178.2893
15119.052599 83.177 176.6092
15228.611486 82.400 172.5302
15338.964283 81.589 169.4235
15450.116741 80.785 167.1630
15562.074656 80.014 165.5953
15674.843864 79.293 164.5800
15788.430244 78.623 164.0117
15902.839718 78.005 163.8184
16018.078250 77.438 163.9486
16134.151848 76.920 164.3558
16251.066563 76.453 164.9888
16368.828491 76.037 165.7881
16487.443769 75.675 166.6872
16606.918584 75.365 167.6157
16727.259161 75.105 168.5028
16848.471777 74.893 169.2805
16970.562748 74.725 169.8857
17093.538442 74.592 170.2621
17217.405268 74.489 170.3611
17342.169684 74.407 170.1449
17467.838194 74.336 169.5876
17594.417350 74.265 168.6790
17721.913751 74.184 167.4246
17850.334044 74.081 165.8461
17979.684923 73.948 163.9786
18109.973131 73.777 161.8667
18241.205462 73.565 159.5586
18373.388756 73.310 157.1003
18506.529905 73.014 154.5275
18640.635849 72.680 151.8587
18775.713581 72.314 149.0895
18911.770141 71.920 146.1921
19048.812624 71.500 143.1209
19186.848172 71.054 139.8268
19325.883983 70.579 136.2798
19465.927305 70.078 132.5042
19606.985439 69.563 128.6264
19749.065738 69.071 124.9333
19892.175609 68.668 121.9096
20036.322514 68.436 120.1651
