* Measurement data measured by REW V5.31.3
* Source: Headset (2- CX31993 HIFI AUDIO), MICROPHONE (Master Volume), R, volume: 0.200
* Format: 256k Log Swept Sine, 1 sweep at -11.9 dBFS with no timing reference
* Dated: 10 21, 25 11:11:33 AM
* REW Settings:
*  C-weighting compensation: Off
*  Target level: 75.0 dB
* Note: ; 
* Measurement: CCA Phoenix Deep R
* Smoothing: 1/12 octave
* Frequency Step: 96 ppo
* Start Frequency: 0.36621094 Hz
*
* Freq(Hz) SPL(dB) Phase(degrees)
0.366211 13.993 -38.9717
0.368865 14.021 -39.0661
0.371538 14.063 -39.2054
0.374230 14.114 -39.3764
0.376942 14.172 -39.5678
0.379673 14.234 -39.7715
0.382424 14.299 -39.9819
0.385196 14.365 -40.1959
0.387987 14.432 -40.4115
0.390798 14.500 -40.6276
0.393630 14.569 -40.8436
0.396483 14.639 -41.0591
0.399356 14.708 -41.2741
0.402250 14.779 -41.4883
0.405165 14.850 -41.7019
0.408101 14.921 -41.9146
0.411058 14.993 -42.1266
0.414037 15.066 -42.3378
0.417037 15.139 -42.5481
0.420059 15.212 -42.7578
0.423103 15.287 -42.9666
0.426169 15.361 -43.1747
0.429257 15.436 -43.3821
0.432368 15.512 -43.5888
0.435501 15.588 -43.7948
0.438656 15.665 -44.0002
0.441835 15.743 -44.2051
0.445037 15.821 -44.4094
0.448262 15.899 -44.6132
0.451510 15.978 -44.8166
0.454782 16.058 -45.0197
0.458077 16.138 -45.2225
0.461397 16.219 -45.4251
0.464740 16.301 -45.6275
0.468108 16.383 -45.8298
0.471500 16.465 -46.0322
0.474917 16.548 -46.2347
0.478358 16.632 -46.4374
0.481825 16.717 -46.6404
0.485316 16.802 -46.8438
0.488833 16.887 -47.0477
0.492375 16.973 -47.2523
0.495943 17.060 -47.4575
0.499537 17.148 -47.6635
0.503157 17.236 -47.8705
0.506803 17.325 -48.0786
0.510475 17.414 -48.2879
0.514175 17.504 -48.4985
0.517900 17.595 -48.7106
0.521653 17.687 -48.9242
0.525434 17.779 -49.1396
0.529241 17.871 -49.3569
0.533076 17.965 -49.5762
0.536939 18.059 -49.7976
0.540830 18.154 -50.0214
0.544749 18.249 -50.2477
0.548696 18.345 -50.4766
0.552673 18.442 -50.7083
0.556677 18.540 -50.9430
0.560711 18.638 -51.1809
0.564774 18.737 -51.4220
0.568867 18.837 -51.6667
0.572989 18.937 -51.9151
0.577141 19.038 -52.1674
0.581324 19.140 -52.4237
0.585536 19.243 -52.6844
0.589779 19.346 -52.9495
0.594053 19.450 -53.2193
0.598358 19.555 -53.4941
0.602694 19.661 -53.7739
0.607061 19.767 -54.0592
0.611460 19.874 -54.3500
0.615891 19.982 -54.6467
0.620354 20.091 -54.9495
0.624849 20.200 -55.2586
0.629377 20.311 -55.5744
0.633938 20.422 -55.8969
0.638532 20.534 -56.2267
0.643159 20.646 -56.5639
0.647819 20.760 -56.9088
0.652514 20.874 -57.2617
0.657242 20.989 -57.6230
0.662005 21.106 -57.9930
0.666802 21.222 -58.3720
0.671634 21.340 -58.7603
0.676501 21.459 -59.1582
0.681403 21.578 -59.5662
0.686341 21.698 -59.9847
0.691314 21.819 -60.4138
0.696324 21.941 -60.8541
0.701370 22.063 -61.3058
0.706452 22.186 -61.7692
0.711571 22.309 -62.2444
0.716728 22.432 -62.7312
0.721921 22.553 -63.2294
0.727153 22.672 -63.7379
0.732422 22.789 -64.2555
0.737729 22.903 -64.7804
0.743075 23.013 -65.3106
0.748460 23.121 -65.8445
0.753883 23.227 -66.3808
0.759346 23.333 -66.9185
0.764849 23.437 -67.4569
0.770391 23.540 -67.9956
0.775974 23.643 -68.5343
0.781597 23.746 -69.0729
0.787261 23.848 -69.6111
0.792966 23.949 -70.1491
0.798712 24.051 -70.6866
0.804500 24.152 -71.2239
0.810329 24.252 -71.7609
0.816201 24.352 -72.2978
0.822116 24.452 -72.8347
0.828073 24.552 -73.3716
0.834074 24.652 -73.9089
0.840118 24.751 -74.4468
0.846206 24.850 -74.9854
0.852338 24.949 -75.5251
0.858514 25.047 -76.0662
0.864735 25.146 -76.6089
0.871001 25.244 -77.1536
0.877313 25.342 -77.7008
0.883670 25.441 -78.2507
0.890074 25.539 -78.8039
0.896524 25.637 -79.3607
0.903020 25.735 -79.9217
0.909564 25.833 -80.4873
0.916155 25.932 -81.0580
0.922794 26.030 -81.6344
0.929481 26.129 -82.2171
0.936216 26.228 -82.8066
0.943000 26.327 -83.4035
0.949834 26.427 -84.0086
0.956717 26.527 -84.6224
0.963649 26.627 -85.2456
0.970632 26.728 -85.8790
0.977666 26.829 -86.5233
0.984750 26.931 -87.1792
0.991886 27.033 -87.8476
0.999074 27.137 -88.5293
1.006314 27.241 -89.2251
1.013606 27.346 -89.9360
1.020951 27.452 -90.6628
1.028349 27.558 -91.4064
1.035801 27.666 -92.1679
1.043307 27.775 -92.9482
1.050867 27.886 -93.7482
1.058482 27.997 -94.5688
1.066152 28.110 -95.4107
1.073878 28.224 -96.2744
1.081660 28.340 -97.1599
1.089498 28.457 -98.0667
1.097393 28.574 -98.9935
1.105345 28.693 -99.9381
1.113355 28.813 -100.8980
1.121423 28.933 -101.8708
1.129549 29.054 -102.8542
1.137734 29.175 -103.8463
1.145979 29.296 -104.8457
1.154283 29.418 -105.8512
1.162647 29.540 -106.8619
1.171072 29.663 -107.8769
1.179558 29.786 -108.8958
1.188106 29.909 -109.9179
1.196715 30.033 -110.9430
1.205387 30.158 -111.9706
1.214122 30.283 -113.0007
1.222920 30.409 -114.0331
1.231782 30.535 -115.0678
1.240708 30.662 -116.1049
1.249699 30.790 -117.1445
1.258754 30.919 -118.1869
1.267876 31.049 -119.2323
1.277063 31.179 -120.2812
1.286318 31.311 -121.3340
1.295639 31.443 -122.3911
1.305027 31.577 -123.4532
1.314484 31.711 -124.5209
1.324009 31.847 -125.5948
1.333604 31.985 -126.6756
1.343268 32.123 -127.7642
1.353002 32.263 -128.8613
1.362806 32.405 -129.9677
1.372681 32.548 -131.0843
1.382628 32.693 -132.2119
1.392647 32.839 -133.3514
1.402739 32.987 -134.5035
1.412904 33.138 -135.6687
1.423142 33.290 -136.8475
1.433455 33.444 -138.0395
1.443843 33.600 -139.2440
1.454305 33.759 -140.4589
1.464844 33.920 -141.6814
1.475459 34.083 -142.9074
1.486150 34.248 -144.1328
1.496920 34.415 -145.3542
1.507767 34.585 -146.5687
1.518693 34.757 -147.7747
1.529698 34.931 -148.9712
1.540783 35.107 -150.1579
1.551948 35.285 -151.3349
1.563194 35.465 -152.5027
1.574521 35.647 -153.6620
1.585931 35.830 -154.8137
1.597423 36.016 -155.9587
1.608999 36.204 -157.0982
1.620658 36.393 -158.2334
1.632402 36.584 -159.3656
1.644232 36.776 -160.4961
1.656146 36.970 -161.6263
1.668147 37.166 -162.7577
1.680235 37.363 -163.8916
1.692411 37.561 -165.0294
1.704675 37.760 -166.1727
1.717028 37.961 -167.3228
1.729470 38.162 -168.4811
1.742003 38.365 -169.6488
1.754626 38.569 -170.8270
1.767341 38.773 -172.0167
1.780147 38.978 -173.2183
1.793047 39.184 -174.4316
1.806040 39.391 -175.6556
1.819128 39.599 -176.8881
1.832310 39.807 -178.1256
1.845587 40.017 -179.3638
1.858961 40.228 179.4019
1.872432 40.440 178.1752
1.886001 40.654 176.9587
1.899667 40.870 175.7541
1.913433 41.087 174.5623
1.927299 41.305 173.3832
1.941265 41.524 172.2166
1.955332 41.745 171.0618
1.969501 41.967 169.9180
1.983773 42.190 168.7839
1.998148 42.414 167.6583
2.012627 42.639 166.5400
2.027212 42.865 165.4276
2.041902 43.091 164.3196
2.056698 43.318 163.2144
2.071602 43.545 162.1107
2.086614 43.773 161.0070
2.101734 44.000 159.9018
2.116964 44.228 158.7939
2.132304 44.456 157.6824
2.147756 44.684 156.5667
2.163320 44.912 155.4467
2.178996 45.139 154.3235
2.194786 45.366 153.1989
2.210690 45.594 152.0757
2.226710 45.821 150.9568
2.242845 46.048 149.8449
2.259098 46.275 148.7418
2.275468 46.502 147.6485
2.291957 46.729 146.5653
2.308566 46.957 145.4921
2.325295 47.184 144.4283
2.342145 47.411 143.3730
2.359117 47.639 142.3252
2.376212 47.866 141.2836
2.393431 48.093 140.2471
2.410775 48.320 139.2143
2.428244 48.547 138.1839
2.445840 48.774 137.1544
2.463564 49.000 136.1246
2.481416 49.226 135.0934
2.499397 49.452 134.0596
2.517509 49.677 133.0229
2.535752 49.902 131.9831
2.554127 50.127 130.9409
2.572635 50.351 129.8978
2.591277 50.574 128.8556
2.610055 50.797 127.8161
2.628968 51.019 126.7809
2.648019 51.241 125.7509
2.667208 51.462 124.7266
2.686535 51.682 123.7080
2.706003 51.902 122.6949
2.725612 52.121 121.6868
2.745363 52.339 120.6830
2.765257 52.557 119.6826
2.785295 52.775 118.6848
2.805478 52.991 117.6886
2.825808 53.208 116.6931
2.846285 53.423 115.6971
2.866910 53.639 114.7001
2.887685 53.853 113.7014
2.908611 54.067 112.7007
2.929688 54.280 111.6985
2.950917 54.493 110.6954
2.972301 54.705 109.6926
2.993839 54.915 108.6910
3.015534 55.125 107.6915
3.037386 55.334 106.6948
3.059396 55.542 105.7011
3.081565 55.749 104.7106
3.103896 55.955 103.7231
3.126388 56.160 102.7385
3.149043 56.365 101.7563
3.171862 56.569 100.7759
3.194847 56.772 99.7968
3.217998 56.974 98.8182
3.241317 57.175 97.8396
3.264805 57.376 96.8605
3.288463 57.576 95.8806
3.312293 57.776 94.9000
3.336295 57.974 93.9188
3.360471 58.171 92.9377
3.384822 58.367 91.9573
3.409350 58.562 90.9780
3.434056 58.756 90.0005
3.458940 58.949 89.0249
3.484005 59.141 88.0515
3.509252 59.332 87.0804
3.534681 59.522 86.1115
3.560295 59.712 85.1445
3.586094 59.900 84.1791
3.612081 60.088 83.2148
3.638255 60.275 82.2513
3.664620 60.461 81.2881
3.691175 60.646 80.3250
3.717923 60.830 79.3620
3.744864 61.013 78.3993
3.772001 61.195 77.4373
3.799335 61.376 76.4765
3.826866 61.556 75.5172
3.854597 61.734 74.5599
3.882529 61.912 73.6047
3.910664 62.089 72.6518
3.939002 62.266 71.7011
3.967546 62.441 70.7525
3.996296 62.616 69.8056
4.025255 62.789 68.8600
4.054423 62.962 67.9155
4.083804 63.134 66.9717
4.113396 63.305 66.0286
4.143204 63.475 65.0864
4.173227 63.644 64.1454
4.203468 63.812 63.2059
4.233928 63.979 62.2682
4.264609 64.146 61.3327
4.295512 64.311 60.3993
4.326639 64.476 59.4680
4.357992 64.640 58.5388
4.389572 64.803 57.6111
4.421380 64.966 56.6849
4.453419 65.128 55.7597
4.485691 65.289 54.8354
4.518196 65.448 53.9122
4.550936 65.608 52.9901
4.583914 65.766 52.0694
4.617131 65.924 51.1502
4.650589 66.080 50.2326
4.684289 66.237 49.3166
4.718233 66.392 48.4021
4.752424 66.547 47.4888
4.786862 66.701 46.5765
4.821549 66.855 45.6650
4.856488 67.007 44.7541
4.891680 67.159 43.8438
4.927127 67.311 42.9341
4.962831 67.461 42.0253
4.998794 67.611 41.1172
5.035017 67.760 40.2100
5.071503 67.908 39.3034
5.108253 68.056 38.3973
5.145270 68.203 37.4914
5.182555 68.350 36.5855
5.220110 68.496 35.6794
5.257937 68.640 34.7732
5.296038 68.785 33.8669
5.334415 68.928 32.9608
5.373071 69.071 32.0548
5.412006 69.213 31.1489
5.451224 69.354 30.2430
5.490725 69.494 29.3368
5.530514 69.634 28.4300
5.570590 69.773 27.5224
5.610957 69.911 26.6141
5.651616 70.048 25.7053
5.692570 70.184 24.7962
5.733821 70.320 23.8871
5.775370 70.454 22.9779
5.817221 70.588 22.0688
5.859375 70.721 21.1595
5.901834 70.852 20.2496
5.944602 70.983 19.3392
5.987679 71.113 18.4282
6.031068 71.242 17.5170
6.074771 71.369 16.6060
6.118792 71.496 15.6956
6.163131 71.622 14.7860
6.207792 71.746 13.8773
6.252776 71.870 12.9691
6.298086 71.992 12.0614
6.343725 72.114 11.1542
6.389694 72.234 10.2476
6.435996 72.353 9.3422
6.482634 72.471 8.4385
6.529610 72.589 7.5369
6.576926 72.705 6.6375
6.624585 72.820 5.7401
6.672590 72.934 4.8447
6.720942 73.047 3.9512
6.769645 73.159 3.0599
6.818700 73.270 2.1711
6.868111 73.380 1.2853
6.917881 73.489 0.4028
6.968010 73.597 -0.4764
7.018504 73.704 -1.3525
7.069362 73.811 -2.2256
7.120590 73.916 -3.0956
7.172189 74.021 -3.9624
7.224161 74.125 -4.8259
7.276511 74.229 -5.6859
7.329239 74.332 -6.5424
7.382350 74.434 -7.3954
7.435845 74.536 -8.2454
7.489729 74.637 -9.0923
7.544002 74.737 -9.9364
7.598669 74.837 -10.7776
7.653732 74.937 -11.6161
7.709194 75.036 -12.4520
7.765058 75.135 -13.2856
7.821327 75.233 -14.1171
7.878004 75.331 -14.9465
7.935091 75.429 -15.7744
7.992592 75.526 -16.6007
8.050510 75.622 -17.4258
8.108847 75.719 -18.2498
8.167607 75.814 -19.0729
8.226793 75.910 -19.8954
8.286408 76.005 -20.7173
8.346454 76.099 -21.5388
8.406936 76.193 -22.3600
8.467856 76.287 -23.1810
8.529218 76.379 -24.0021
8.591024 76.471 -24.8231
8.653278 76.563 -25.6440
8.715983 76.654 -26.4648
8.779143 76.744 -27.2853
8.842760 76.833 -28.1055
8.906839 76.922 -28.9255
8.971381 77.010 -29.7450
9.036392 77.097 -30.5637
9.101873 77.183 -31.3815
9.167829 77.268 -32.1980
9.234263 77.352 -33.0132
9.301178 77.436 -33.8270
9.368578 77.518 -34.6389
9.436467 77.600 -35.4489
9.504847 77.681 -36.2563
9.573723 77.761 -37.0614
9.643099 77.841 -37.8638
9.712976 77.919 -38.6635
9.783361 77.997 -39.4603
9.854255 78.074 -40.2540
9.925663 78.151 -41.0446
9.997588 78.227 -41.8322
10.070035 78.302 -42.6166
10.143007 78.377 -43.3979
10.216507 78.451 -44.1763
10.290540 78.524 -44.9518
10.365109 78.598 -45.7245
10.440219 78.670 -46.4947
10.515873 78.743 -47.2624
10.592076 78.814 -48.0278
10.668830 78.886 -48.7911
10.746141 78.957 -49.5525
10.824012 79.027 -50.3120
10.902447 79.097 -51.0699
10.981451 79.167 -51.8263
11.061027 79.236 -52.5811
11.141180 79.304 -53.3345
11.221913 79.372 -54.0865
11.303232 79.439 -54.8370
11.385140 79.506 -55.5861
11.467641 79.572 -56.3336
11.550741 79.637 -57.0793
11.634442 79.702 -57.8233
11.718750 79.766 -58.5653
11.803669 79.829 -59.3052
11.889203 79.892 -60.0428
11.975357 79.954 -60.7782
12.062136 80.015 -61.5109
12.149543 80.076 -62.2411
12.237583 80.136 -62.9686
12.326262 80.196 -63.6934
12.415583 80.255 -64.4154
12.505552 80.314 -65.1348
12.596172 80.372 -65.8514
12.687449 80.429 -66.5656
12.779387 80.486 -67.2772
12.871992 80.543 -67.9866
12.965268 80.599 -68.6937
13.059220 80.655 -69.3988
13.153852 80.710 -70.1019
13.249170 80.765 -70.8032
13.345179 80.819 -71.5028
13.441884 80.873 -72.2006
13.539289 80.926 -72.8967
13.637401 80.979 -73.5910
13.736223 81.031 -74.2836
13.835761 81.082 -74.9742
13.936021 81.133 -75.6628
14.037007 81.184 -76.3494
14.138725 81.233 -77.0336
14.241180 81.282 -77.7153
14.344377 81.331 -78.3945
14.448323 81.378 -79.0709
14.553021 81.426 -79.7446
14.658478 81.473 -80.4154
14.764700 81.519 -81.0834
14.871691 81.565 -81.7485
14.979457 81.610 -82.4110
15.088005 81.655 -83.0708
15.197339 81.700 -83.7281
15.307465 81.744 -84.3832
15.418389 81.788 -85.0361
15.530117 81.831 -85.6869
15.642655 81.874 -86.3358
15.756008 81.917 -86.9830
15.870182 81.959 -87.6284
15.985184 82.001 -88.2722
16.101019 82.042 -88.9141
16.217694 82.083 -89.5542
16.335214 82.123 -90.1923
16.453586 82.162 -90.8283
16.572815 82.201 -91.4620
16.692909 82.240 -92.0932
16.813872 82.278 -92.7218
16.935713 82.315 -93.3475
17.058436 82.352 -93.9705
17.182048 82.389 -94.5903
17.306556 82.425 -95.2074
17.431967 82.461 -95.8215
17.558286 82.496 -96.4328
17.685521 82.531 -97.0414
17.813677 82.566 -97.6476
17.942762 82.600 -98.2515
18.072783 82.634 -98.8531
18.203746 82.668 -99.4528
18.335658 82.701 -100.0505
18.468526 82.734 -100.6464
18.602356 82.767 -101.2404
18.737156 82.799 -101.8326
18.872934 82.831 -102.4230
19.009695 82.862 -103.0113
19.147447 82.893 -103.5975
19.286197 82.923 -104.1816
19.425953 82.953 -104.7634
19.566721 82.982 -105.3428
19.708510 83.012 -105.9199
19.851326 83.040 -106.4948
19.995177 83.069 -107.0673
20.140070 83.096 -107.6378
20.286013 83.124 -108.2063
20.433014 83.151 -108.7730
20.581080 83.178 -109.3380
20.730219 83.204 -109.9013
20.880439 83.230 -110.4630
21.031747 83.255 -111.0229
21.184152 83.280 -111.5811
21.337661 83.304 -112.1370
21.492282 83.328 -112.6905
21.648024 83.351 -113.2412
21.804895 83.374 -113.7887
21.962902 83.396 -114.3326
22.122054 83.417 -114.8728
22.282360 83.438 -115.4089
22.443827 83.459 -115.9412
22.606464 83.480 -116.4695
22.770280 83.501 -116.9944
22.935283 83.521 -117.5164
23.101481 83.542 -118.0359
23.268884 83.562 -118.5536
23.437500 83.583 -119.0702
23.607338 83.603 -119.5862
23.778406 83.624 -120.1019
23.950714 83.644 -120.6176
24.124271 83.663 -121.1331
24.299086 83.683 -121.6480
24.475167 83.701 -122.1620
24.652524 83.719 -122.6744
24.831166 83.737 -123.1846
25.011103 83.754 -123.6921
25.192344 83.771 -124.1964
25.374898 83.787 -124.6974
25.558775 83.803 -125.1951
25.743984 83.819 -125.6898
25.930536 83.835 -126.1820
26.118439 83.850 -126.6721
26.307704 83.866 -127.1606
26.498341 83.881 -127.6477
26.690359 83.896 -128.1335
26.883768 83.911 -128.6179
27.078579 83.925 -129.1004
27.274801 83.939 -129.5807
27.472446 83.952 -130.0581
27.671522 83.965 -130.5325
27.872042 83.978 -131.0037
28.074014 83.990 -131.4716
28.277450 84.003 -131.9366
28.482360 84.015 -132.3993
28.688755 84.027 -132.8602
28.896645 84.039 -133.3198
29.106042 84.051 -133.7783
29.316957 84.062 -134.2360
29.529400 84.073 -134.6925
29.743382 84.084 -135.1475
29.958915 84.093 -135.6005
30.176009 84.103 -136.0508
30.394677 84.112 -136.4980
30.614929 84.120 -136.9420
30.836778 84.129 -137.3826
31.060234 84.137 -137.8202
31.285309 84.145 -138.2551
31.512015 84.152 -138.6880
31.740364 84.160 -139.1192
31.970368 84.168 -139.5492
32.202039 84.175 -139.9781
32.435388 84.182 -140.4059
32.670428 84.189 -140.8325
32.907171 84.195 -141.2578
33.145630 84.201 -141.6816
33.385817 84.207 -142.1039
33.627745 84.213 -142.5251
33.871425 84.219 -142.9454
34.116871 84.224 -143.3654
34.364096 84.229 -143.7852
34.613113 84.234 -144.2049
34.863934 84.238 -144.6243
35.116572 84.242 -145.0428
35.371041 84.245 -145.4594
35.627354 84.248 -145.8733
35.885525 84.250 -146.2836
36.145566 84.252 -146.6898
36.407492 84.254 -147.0915
36.671316 84.256 -147.4890
36.937051 84.258 -147.8831
37.204712 84.261 -148.2744
37.474313 84.263 -148.6642
37.745867 84.266 -149.0536
38.019389 84.269 -149.4434
38.294893 84.272 -149.8340
38.572394 84.275 -150.2250
38.851905 84.277 -150.6153
39.133442 84.279 -151.0033
39.417019 84.280 -151.3871
39.702651 84.281 -151.7655
39.990353 84.282 -152.1378
40.280140 84.283 -152.5045
40.572026 84.285 -152.8674
40.866028 84.287 -153.2285
41.162160 84.289 -153.5900
41.460438 84.292 -153.9534
41.760877 84.294 -154.3195
42.063494 84.296 -154.6879
42.368303 84.297 -155.0576
42.675322 84.297 -155.4274
42.984565 84.296 -155.7950
43.296048 84.294 -156.1583
43.609789 84.290 -156.5151
43.925804 84.286 -156.8638
44.244108 84.281 -157.2041
44.564719 84.276 -157.5369
44.887654 84.271 -157.8640
45.212928 84.267 -158.1871
45.540560 84.263 -158.5070
45.870565 84.259 -158.8235
46.202962 84.255 -159.1367
46.537768 84.253 -159.4485
46.875000 84.252 -159.7636
47.214676 84.253 -160.0892
47.556813 84.254 -160.4322
47.901429 84.254 -160.7956
48.248542 84.252 -161.1763
48.598171 84.246 -161.5651
48.950334 84.237 -161.9502
49.305048 84.225 -162.3216
49.662333 84.211 -162.6747
50.022206 84.198 -163.0110
50.384688 84.186 -163.3359
50.749796 84.175 -163.6550
51.117550 84.165 -163.9722
51.487969 84.156 -164.2882
51.861072 84.147 -164.6029
52.236879 84.138 -164.9163
52.615409 84.130 -165.2292
52.996681 84.123 -165.5434
53.380717 84.116 -165.8599
53.767536 84.108 -166.1784
54.157158 84.100 -166.4978
54.549603 84.091 -166.8165
54.944892 84.082 -167.1328
55.343045 84.072 -167.4458
55.744084 84.062 -167.7548
56.148028 84.051 -168.0599
56.554900 84.041 -168.3618
56.964720 84.030 -168.6614
57.377510 84.020 -168.9595
57.793291 84.009 -169.2562
58.212085 83.997 -169.5510
58.633914 83.986 -169.8432
59.058799 83.974 -170.1326
59.486764 83.962 -170.4194
59.917829 83.950 -170.7042
60.352019 83.938 -170.9872
60.789354 83.926 -171.2688
61.229859 83.914 -171.5492
61.673556 83.901 -171.8286
62.120468 83.889 -172.1069
62.570618 83.876 -172.3839
63.024031 83.863 -172.6594
63.480729 83.850 -172.9334
63.940736 83.837 -173.2067
64.404077 83.825 -173.4803
64.870776 83.812 -173.7552
65.340856 83.799 -174.0317
65.814343 83.786 -174.3090
66.291261 83.773 -174.5860
66.771635 83.759 -174.8621
67.255489 83.746 -175.1369
67.742850 83.732 -175.4103
68.233743 83.717 -175.6816
68.728193 83.702 -175.9493
69.226226 83.687 -176.2126
69.727867 83.672 -176.4716
70.233144 83.656 -176.7269
70.742083 83.640 -176.9795
71.254709 83.624 -177.2299
71.771050 83.608 -177.4785
72.291132 83.591 -177.7255
72.814984 83.573 -177.9701
73.342631 83.555 -178.2103
73.874102 83.537 -178.4452
74.409424 83.519 -178.6760
74.948626 83.503 -178.9070
75.491734 83.486 -179.1422
76.038779 83.470 -179.3822
76.589787 83.452 -179.6246
77.144788 83.434 -179.8655
77.703811 83.415 179.8983
78.266885 83.395 179.6688
78.834039 83.376 179.4467
79.405303 83.357 179.2305
79.980706 83.338 179.0178
80.560280 83.320 178.8054
81.144053 83.302 178.5914
81.732056 83.284 178.3751
82.324320 83.265 178.1566
82.920876 83.246 177.9373
83.521755 83.226 177.7184
84.126988 83.206 177.5006
84.736607 83.186 177.2836
85.350643 83.166 177.0667
85.969129 83.146 176.8495
86.592097 83.125 176.6328
87.219579 83.105 176.4178
87.851608 83.084 176.2058
88.488217 83.063 175.9977
89.129439 83.042 175.7936
89.775308 83.020 175.5928
90.425856 82.999 175.3947
91.081119 82.978 175.1982
91.741131 82.956 175.0028
92.405925 82.935 174.8080
93.075536 82.912 174.6141
93.750000 82.890 174.4213
94.429351 82.867 174.2304
95.113625 82.844 174.0424
95.802858 82.820 173.8582
96.497085 82.796 173.6777
97.196342 82.773 173.4999
97.900667 82.749 173.3229
98.610096 82.726 173.1461
99.324665 82.702 172.9697
100.044413 82.679 172.7937
100.769376 82.655 172.6182
101.499592 82.631 172.4429
102.235100 82.607 172.2687
102.975938 82.583 172.0964
103.722144 82.559 171.9266
104.473757 82.535 171.7596
105.230817 82.511 171.5954
105.993363 82.487 171.4338
106.761435 82.463 171.2748
107.535072 82.439 171.1178
108.314315 82.414 170.9623
109.099206 82.389 170.8075
109.889783 82.364 170.6524
110.686090 82.339 170.4965
111.488167 82.313 170.3398
112.296056 82.287 170.1833
113.109800 82.261 170.0282
113.929440 82.234 169.8749
114.755020 82.207 169.7239
115.586582 82.180 169.5758
116.424170 82.152 169.4320
117.267827 82.124 169.2947
118.117598 82.096 169.1651
118.973527 82.068 169.0420
119.835658 82.040 168.9230
120.704037 82.014 168.8052
121.578708 81.987 168.6865
122.459718 81.961 168.5657
123.347111 81.935 168.4432
124.240935 81.909 168.3199
125.141236 81.882 168.1966
126.048061 81.855 168.0737
126.961458 81.827 167.9518
127.881473 81.800 167.8317
128.808154 81.772 167.7132
129.741551 81.745 167.5956
130.681712 81.718 167.4783
131.628686 81.692 167.3615
132.582521 81.665 167.2462
133.543269 81.639 167.1345
134.510979 81.613 167.0278
135.485701 81.587 166.9260
136.467486 81.560 166.8282
137.456386 81.533 166.7336
138.452451 81.505 166.6415
139.455735 81.477 166.5513
140.466288 81.448 166.4616
141.484165 81.419 166.3715
142.509418 81.390 166.2804
143.542100 81.360 166.1894
144.582265 81.331 166.1002
145.629968 81.301 166.0143
146.685262 81.271 165.9327
147.748204 81.242 165.8546
148.818849 81.213 165.7790
149.897251 81.183 165.7051
150.983469 81.154 165.6333
152.077557 81.125 165.5643
153.179574 81.096 165.4984
154.289576 81.066 165.4355
155.407622 81.037 165.3744
156.533770 81.008 165.3136
157.668078 80.979 165.2521
158.810606 80.950 165.1898
159.961413 80.920 165.1276
161.120559 80.891 165.0671
162.288105 80.862 165.0099
163.464112 80.833 164.9567
164.648640 80.804 164.9062
165.841752 80.775 164.8569
167.043510 80.746 164.8080
168.253976 80.717 164.7598
169.473213 80.688 164.7136
170.701286 80.659 164.6700
171.938258 80.629 164.6293
173.184194 80.599 164.5913
174.439158 80.570 164.5553
175.703216 80.540 164.5203
176.976434 80.511 164.4855
178.258878 80.481 164.4512
179.550615 80.451 164.4181
180.851713 80.421 164.3870
182.162239 80.391 164.3585
183.482262 80.361 164.3334
184.811850 80.330 164.3112
186.151073 80.301 164.2912
187.500000 80.271 164.2720
188.858702 80.243 164.2525
190.227250 80.214 164.2330
191.605715 80.185 164.2148
192.994169 80.156 164.1998
194.392685 80.127 164.1889
195.801334 80.097 164.1820
197.220191 80.067 164.1780
198.649330 80.037 164.1754
200.088825 80.007 164.1732
201.538751 79.977 164.1711
202.999184 79.947 164.1697
204.470200 79.917 164.1700
205.951875 79.887 164.1726
207.444287 79.856 164.1774
208.947514 79.826 164.1838
210.461634 79.796 164.1910
211.986726 79.766 164.1985
213.522869 79.737 164.2070
215.070144 79.708 164.2180
216.628631 79.680 164.2330
218.198411 79.651 164.2524
219.779567 79.622 164.2757
221.372180 79.593 164.3020
222.976334 79.564 164.3308
224.592112 79.535 164.3621
226.219600 79.506 164.3961
227.858880 79.476 164.4330
229.510039 79.447 164.4725
231.173164 79.417 164.5139
232.848340 79.387 164.5563
234.535655 79.358 164.5993
236.235197 79.329 164.6427
237.947054 79.300 164.6857
239.671317 79.272 164.7275
241.408074 79.245 164.7676
243.157416 79.218 164.8068
244.919435 79.190 164.8464
246.694223 79.162 164.8878
248.481871 79.134 164.9311
250.282473 79.106 164.9766
252.096123 79.078 165.0249
253.922915 79.050 165.0763
255.762945 79.023 165.1311
257.616309 78.996 165.1891
259.483103 78.969 165.2497
261.363424 78.942 165.3124
263.257372 78.914 165.3769
265.165043 78.886 165.4432
267.086538 78.858 165.5118
269.021957 78.829 165.5830
270.971401 78.801 165.6562
272.934972 78.772 165.7305
274.912771 78.745 165.8050
276.904902 78.717 165.8792
278.911469 78.690 165.9536
280.932577 78.663 166.0298
282.968330 78.636 166.1091
285.018835 78.610 166.1921
287.084199 78.584 166.2783
289.164530 78.557 166.3671
291.259935 78.531 166.4570
293.370525 78.505 166.5469
295.496408 78.479 166.6356
297.637697 78.453 166.7238
299.794503 78.427 166.8126
301.966937 78.401 166.9031
304.155114 78.375 166.9955
306.359147 78.349 167.0900
308.579152 78.324 167.1865
310.815244 78.298 167.2855
313.067539 78.272 167.3871
315.336156 78.247 167.4916
317.621211 78.221 167.5985
319.922826 78.196 167.7078
322.241118 78.171 167.8191
324.576210 78.147 167.9321
326.928223 78.122 168.0469
329.297280 78.098 168.1638
331.683504 78.073 168.2824
334.087019 78.049 168.4019
336.507952 78.024 168.5213
338.946427 78.000 168.6401
341.402572 77.976 168.7583
343.876516 77.952 168.8766
346.368387 77.929 168.9968
348.878315 77.905 169.1204
351.406431 77.881 169.2481
353.952867 77.858 169.3798
356.517756 77.835 169.5143
359.101230 77.811 169.6506
361.703426 77.788 169.7880
364.324478 77.765 169.9267
366.964523 77.741 170.0671
369.623699 77.718 170.2089
372.302145 77.694 170.3518
375.000000 77.671 170.4958
377.717405 77.648 170.6421
380.454501 77.624 170.7914
383.211431 77.601 170.9442
385.988339 77.579 171.1000
388.785369 77.556 171.2583
391.602668 77.533 171.4180
394.440383 77.510 171.5785
397.298660 77.487 171.7404
400.177650 77.464 171.9050
403.077502 77.441 172.0729
405.998368 77.419 172.2448
408.940400 77.396 172.4210
411.903750 77.374 172.6013
414.888575 77.352 172.7855
417.895028 77.330 172.9729
420.923268 77.309 173.1632
423.973452 77.288 173.3560
427.045738 77.268 173.5508
430.140287 77.249 173.7473
433.257261 77.230 173.9460
436.396822 77.213 174.1475
439.559133 77.197 174.3517
442.744360 77.183 174.5576
445.952668 77.170 174.7635
449.184225 77.158 174.9673
452.439199 77.146 175.1671
455.717760 77.136 175.3608
459.020079 77.125 175.5472
462.346327 77.114 175.7261
465.696680 77.102 175.8986
469.071310 77.089 176.0664
472.470394 77.076 176.2318
475.894109 77.061 176.3971
479.342634 77.047 176.5643
482.816148 77.031 176.7343
486.314833 77.015 176.9080
489.838871 76.999 177.0854
493.388445 76.982 177.2672
496.963741 76.966 177.4531
500.564945 76.949 177.6434
504.192245 76.933 177.8375
507.845830 76.916 178.0353
511.525890 76.900 178.2363
515.232618 76.884 178.4403
518.966206 76.868 178.6470
522.726849 76.852 178.8563
526.514743 76.836 179.0686
530.330086 76.820 179.2838
534.173076 76.805 179.5018
538.043915 76.790 179.7225
541.942803 76.775 179.9459
545.869944 76.760 -179.8284
549.825542 76.746 -179.6005
553.809805 76.732 -179.3705
557.822939 76.718 -179.1381
561.865154 76.704 -178.9030
565.936660 76.690 -178.6652
570.037671 76.677 -178.4244
574.168399 76.664 -178.1807
578.329060 76.651 -177.9340
582.519870 76.638 -177.6842
586.741049 76.626 -177.4318
590.992817 76.614 -177.1769
595.275394 76.602 -176.9196
599.589005 76.590 -176.6600
603.933874 76.579 -176.3979
608.310228 76.568 -176.1334
612.718295 76.558 -175.8667
617.158304 76.548 -175.5977
621.630488 76.538 -175.3264
626.135079 76.528 -175.0524
630.672311 76.519 -174.7754
635.242423 76.510 -174.4952
639.845651 76.501 -174.2120
644.482237 76.493 -173.9258
649.152421 76.485 -173.6365
653.856447 76.477 -173.3438
658.594560 76.470 -173.0475
663.367008 76.463 -172.7476
668.174039 76.457 -172.4443
673.015903 76.451 -172.1382
677.892854 76.445 -171.8298
682.805145 76.440 -171.5198
687.753032 76.435 -171.2076
692.736774 76.430 -170.8924
697.756631 76.426 -170.5734
702.812863 76.423 -170.2506
707.905735 76.420 -169.9243
713.035511 76.418 -169.5948
718.202461 76.417 -169.2620
723.406852 76.416 -168.9255
728.648956 76.416 -168.5845
733.929047 76.417 -168.2393
739.247399 76.419 -167.8903
744.604290 76.421 -167.5384
750.000000 76.424 -167.1836
755.434809 76.427 -166.8255
760.909001 76.431 -166.4640
766.422861 76.436 -166.0990
771.976677 76.441 -165.7311
777.570739 76.448 -165.3608
783.205337 76.455 -164.9885
788.880766 76.463 -164.6147
794.597321 76.473 -164.2393
800.355301 76.483 -163.8622
806.155005 76.495 -163.4832
811.996736 76.508 -163.1017
817.880799 76.522 -162.7176
823.807501 76.537 -162.3306
829.777150 76.553 -161.9413
835.790057 76.570 -161.5506
841.846536 76.589 -161.1592
847.946903 76.608 -160.7676
854.091476 76.629 -160.3759
860.280575 76.651 -159.9844
866.514523 76.675 -159.5938
872.793644 76.700 -159.2051
879.118267 76.726 -158.8196
885.488720 76.754 -158.4380
891.905336 76.783 -158.0611
898.368450 76.813 -157.6888
904.878398 76.843 -157.3209
911.435520 76.874 -156.9562
918.040157 76.906 -156.5935
924.692655 76.938 -156.2311
931.393359 76.971 -155.8679
938.142619 77.005 -155.5032
944.940787 77.039 -155.1372
951.788218 77.075 -154.7712
958.685268 77.112 -154.4066
965.632296 77.150 -154.0441
972.629666 77.190 -153.6832
979.677741 77.230 -153.3237
986.776890 77.273 -152.9653
993.927482 77.317 -152.6089
1001.129891 77.363 -152.2560
1008.384491 77.411 -151.9092
1015.691660 77.460 -151.5702
1023.051781 77.511 -151.2404
1030.465236 77.564 -150.9202
1037.932411 77.618 -150.6101
1045.453698 77.672 -150.3102
1053.029486 77.728 -150.0209
1060.660172 77.784 -149.7424
1068.346153 77.841 -149.4749
1076.087829 77.898 -149.2181
1083.885605 77.956 -148.9719
1091.739887 78.014 -148.7363
1099.651084 78.072 -148.5106
1107.619609 78.130 -148.2945
1115.645878 78.189 -148.0872
1123.730308 78.247 -147.8883
1131.873321 78.305 -147.6980
1140.075341 78.364 -147.5162
1148.336797 78.422 -147.3428
1156.658119 78.480 -147.1771
1165.039741 78.537 -147.0186
1173.482099 78.595 -146.8667
1181.985634 78.652 -146.7211
1190.550789 78.709 -146.5814
1199.178011 78.766 -146.4474
1207.867749 78.822 -146.3187
1216.620457 78.878 -146.1946
1225.436590 78.934 -146.0747
1234.316609 78.989 -145.9590
1243.260976 79.043 -145.8478
1252.270157 79.098 -145.7415
1261.344623 79.152 -145.6406
1270.484846 79.206 -145.5452
1279.691303 79.259 -145.4554
1288.964474 79.313 -145.3707
1298.304842 79.367 -145.2906
1307.712894 79.420 -145.2136
1317.189120 79.474 -145.1386
1326.734016 79.527 -145.0648
1336.348077 79.580 -144.9925
1346.031806 79.632 -144.9226
1355.785708 79.683 -144.8567
1365.610290 79.734 -144.7963
1375.506065 79.784 -144.7419
1385.473549 79.834 -144.6938
1395.513261 79.884 -144.6509
1405.625726 79.933 -144.6119
1415.811469 79.982 -144.5757
1426.071023 80.030 -144.5416
1436.404921 80.078 -144.5089
1446.813703 80.125 -144.4774
1457.297912 80.171 -144.4470
1467.858093 80.217 -144.4172
1478.494798 80.262 -144.3877
1489.208581 80.306 -144.3579
1500.000000 80.350 -144.3274
1510.869618 80.394 -144.2957
1521.818002 80.436 -144.2623
1532.845723 80.479 -144.2272
1543.953355 80.521 -144.1897
1555.141477 80.563 -144.1498
1566.410674 80.605 -144.1074
1577.761531 80.646 -144.0626
1589.194642 80.688 -144.0156
1600.710601 80.729 -143.9661
1612.310010 80.771 -143.9141
1623.993473 80.812 -143.8596
1635.761599 80.853 -143.8024
1647.615002 80.894 -143.7423
1659.554299 80.936 -143.6791
1671.580114 80.978 -143.6128
1683.693072 81.020 -143.5435
1695.893807 81.062 -143.4713
1708.182952 81.105 -143.3962
1720.561150 81.149 -143.3188
1733.029045 81.193 -143.2389
1745.587288 81.237 -143.1570
1758.236533 81.282 -143.0732
1770.977440 81.328 -142.9879
1783.810673 81.374 -142.9012
1796.736900 81.422 -142.8132
1809.756796 81.469 -142.7242
1822.871040 81.518 -142.6346
1836.080315 81.567 -142.5446
1849.385310 81.617 -142.4543
1862.786718 81.668 -142.3639
1876.285239 81.719 -142.2736
1889.881575 81.772 -142.1833
1903.576436 81.825 -142.0935
1917.370535 81.879 -142.0044
1931.264593 81.934 -141.9162
1945.259332 81.990 -141.8292
1959.355483 82.047 -141.7437
1973.553781 82.105 -141.6596
1987.854965 82.164 -141.5773
2002.259781 82.224 -141.4966
2016.768981 82.285 -141.4180
2031.383320 82.347 -141.3418
2046.103561 82.410 -141.2684
2060.930471 82.474 -141.1982
2075.864823 82.539 -141.1315
2090.907395 82.605 -141.0684
2106.058972 82.672 -141.0090
2121.320344 82.740 -140.9537
2136.692305 82.809 -140.9027
2152.175658 82.879 -140.8564
2167.771210 82.951 -140.8151
2183.479774 83.023 -140.7790
2199.302169 83.097 -140.7485
2215.239219 83.171 -140.7239
2231.291755 83.247 -140.7054
2247.460615 83.324 -140.6933
2263.746641 83.402 -140.6880
2280.150683 83.482 -140.6898
2296.673595 83.562 -140.6991
2313.316238 83.644 -140.7163
2330.079481 83.726 -140.7420
2346.964198 83.810 -140.7766
2363.971268 83.895 -140.8206
2381.101578 83.981 -140.8742
2398.356022 84.068 -140.9379
2415.735498 84.157 -141.0120
2433.240913 84.246 -141.0972
2450.873180 84.336 -141.1940
2468.633217 84.427 -141.3028
2486.521951 84.520 -141.4242
2504.540314 84.613 -141.5586
2522.689246 84.707 -141.7067
2540.969692 84.802 -141.8691
2559.382606 84.898 -142.0463
2577.928947 84.995 -142.2388
2596.609683 85.092 -142.4471
2615.425787 85.190 -142.6720
2634.378241 85.289 -142.9140
2653.468031 85.389 -143.1739
2672.696154 85.488 -143.4523
2692.063613 85.589 -143.7499
2711.571415 85.690 -144.0674
2731.220579 85.791 -144.4055
2751.012130 85.892 -144.7648
2770.947098 85.993 -145.1458
2791.026522 86.094 -145.5491
2811.251451 86.195 -145.9753
2831.622938 86.295 -146.4248
2852.142045 86.395 -146.8984
2872.809842 86.495 -147.3968
2893.627406 86.593 -147.9204
2914.595823 86.690 -148.4698
2935.716186 86.786 -149.0452
2956.989596 86.881 -149.6466
2978.417161 86.974 -150.2743
3000.000000 87.065 -150.9286
3021.739237 87.153 -151.6095
3043.636005 87.240 -152.3170
3065.691446 87.323 -153.0508
3087.906710 87.404 -153.8105
3110.282955 87.481 -154.5958
3132.821347 87.555 -155.4059
3155.523062 87.626 -156.2404
3178.389283 87.692 -157.0981
3201.421202 87.754 -157.9781
3224.620020 87.811 -158.8793
3247.986946 87.863 -159.7998
3271.523198 87.911 -160.7382
3295.230004 87.953 -161.6925
3319.108599 87.989 -162.6609
3343.160228 88.020 -163.6412
3367.386145 88.046 -164.6313
3391.787613 88.065 -165.6292
3416.365904 88.078 -166.6322
3441.122300 88.085 -167.6379
3466.058091 88.086 -168.6436
3491.174576 88.081 -169.6467
3516.473066 88.070 -170.6448
3541.954880 88.052 -171.6351
3567.621345 88.029 -172.6151
3593.473800 87.999 -173.5819
3619.513592 87.964 -174.5333
3645.742080 87.923 -175.4670
3672.160630 87.877 -176.3809
3698.770620 87.826 -177.2727
3725.573436 87.770 -178.1405
3752.570477 87.709 -178.9822
3779.763150 87.645 -179.7960
3807.152872 87.576 179.4194
3834.741071 87.504 178.6654
3862.529185 87.429 177.9431
3890.518664 87.352 177.2535
3918.710966 87.271 176.5972
3947.107561 87.189 175.9747
3975.709929 87.105 175.3862
4004.519563 87.020 174.8316
4033.537962 86.935 174.3109
4062.766641 86.849 173.8237
4092.207123 86.763 173.3696
4121.860942 86.677 172.9479
4151.729646 86.593 172.5575
4181.814790 86.510 172.1972
4212.117944 86.428 171.8655
4242.640687 86.349 171.5607
4273.384610 86.272 171.2805
4304.351317 86.198 171.0228
4335.542421 86.127 170.7846
4366.959549 86.059 170.5631
4398.604338 85.995 170.3550
4430.478438 85.935 170.1564
4462.583511 85.878 169.9637
4494.921231 85.826 169.7728
4527.493283 85.778 169.5793
4560.301365 85.733 169.3792
4593.347189 85.692 169.1686
4626.632476 85.654 168.9443
4660.158962 85.618 168.7048
4693.928395 85.584 168.4498
4727.942535 85.552 168.1815
4762.203156 85.520 167.9050
4796.712043 85.491 167.6262
4831.470996 85.465 167.3497
4866.481826 85.446 167.0726
4901.746360 85.436 166.7781
4937.266434 85.438 166.4320
4973.043902 85.450 165.9897
5009.080628 85.467 165.4123
5045.378492 85.482 164.6827
5081.939384 85.486 163.8109
5118.765212 85.473 162.8257
5155.857894 85.440 161.7631
5193.219366 85.385 160.6571
5230.851574 85.310 159.5369
5268.756481 85.214 158.4255
5306.936062 85.099 157.3420
5345.392309 84.966 156.3016
5384.127225 84.817 155.3179
5423.142830 84.654 154.4020
5462.441159 84.477 153.5635
5502.024259 84.289 152.8101
5541.894195 84.092 152.1475
5582.053045 83.887 151.5797
5622.502902 83.675 151.1091
5663.245876 83.460 150.7365
5704.284090 83.242 150.4608
5745.619684 83.023 150.2800
5787.254813 82.804 150.1910
5829.191647 82.587 150.1897
5871.432373 82.372 150.2717
5913.979192 82.160 150.4319
5956.834323 81.953 150.6656
6000.000000 81.750 150.9675
6043.478473 81.553 151.3328
6087.272010 81.361 151.7564
6131.382892 81.176 152.2336
6175.813420 80.996 152.7601
6220.565910 80.823 153.3320
6265.642695 80.656 153.9457
6311.046124 80.495 154.5980
6356.778566 80.341 155.2856
6402.842404 80.193 156.0057
6449.240040 80.053 156.7554
6495.973891 79.918 157.5328
6543.046396 79.791 158.3358
6590.460007 79.670 159.1628
6638.217197 79.556 160.0120
6686.320456 79.448 160.8818
6734.772290 79.348 161.7708
6783.575226 79.254 162.6776
6832.731809 79.168 163.6011
6882.244600 79.089 164.5403
6932.116181 79.017 165.4944
6982.349153 78.953 166.4624
7032.946133 78.897 167.4426
7083.909760 78.849 168.4327
7135.242690 78.810 169.4296
7186.947600 78.780 170.4293
7239.027185 78.758 171.4282
7291.484160 78.745 172.4233
7344.321260 78.741 173.4121
7397.541239 78.745 174.3926
7451.146872 78.759 175.3629
7505.140954 78.782 176.3209
7559.526299 78.815 177.2638
7614.305743 78.857 178.1883
7669.482141 78.910 179.0905
7725.058371 78.973 179.9656
7781.037328 79.047 -179.1912
7837.421932 79.131 -178.3859
7894.215122 79.228 -177.6257
7951.419859 79.336 -176.9189
8009.039125 79.456 -176.2748
8067.075924 79.589 -175.7037
8125.533282 79.733 -175.2172
8184.414245 79.889 -174.8280
8243.721885 80.057 -174.5504
8303.459292 80.235 -174.3997
8363.629581 80.423 -174.3917
8424.235888 80.618 -174.5427
8485.281374 80.818 -174.8682
8546.769221 81.020 -175.3827
8608.702634 81.221 -176.0983
8671.084842 81.416 -177.0239
8733.919097 81.601 -178.1639
8797.208675 81.770 -179.5171
8860.956876 81.919 178.9241
8925.167022 82.041 177.1741
8989.842461 82.132 175.2545
9054.986566 82.187 173.1935
9120.602731 82.202 171.0255
9186.694378 82.176 168.7892
9253.264952 82.106 166.5259
9320.317925 81.993 164.2774
9387.856790 81.837 162.0835
9455.885071 81.640 159.9807
9524.406312 81.406 158.0005
9593.424086 81.138 156.1691
9662.941992 80.839 154.5067
9732.963653 80.515 153.0277
9803.492719 80.169 151.7413
9874.532869 79.806 150.6522
9946.087805 79.428 149.7611
10018.161257 79.040 149.0662
10090.756983 78.643 148.5637
10163.878768 78.242 148.2494
10237.530423 77.837 148.1182
10311.715789 77.432 148.1648
10386.438732 77.028 148.3835
10461.703149 76.628 148.7677
10537.512962 76.232 149.3102
10613.872125 75.842 150.0030
10690.784618 75.459 150.8379
10768.254450 75.084 151.8068
10846.285661 74.718 152.9025
10924.882318 74.362 154.1179
11004.048518 74.015 155.4464
11083.788390 73.680 156.8815
11164.106090 73.356 158.4174
11245.005805 73.045 160.0485
11326.491752 72.747 161.7692
11408.568180 72.463 163.5728
11491.239368 72.194 165.4515
11574.509626 71.940 167.3955
11658.383294 71.700 169.3956
11742.864745 71.474 171.4457
11827.958384 71.262 173.5443
11913.668646 71.064 175.6920
12000.000000 70.880 177.8889
12086.956947 70.711 -179.8661
12174.544019 70.557 -177.5753
12262.765784 70.420 -175.2415
12351.626840 70.299 -172.8676
12441.131819 70.195 -170.4569
12531.285389 70.108 -168.0137
12622.092249 70.039 -165.5419
12713.557132 69.989 -163.0454
12805.684808 69.958 -160.5273
12898.480079 69.946 -157.9911
12991.947783 69.954 -155.4406
13086.092792 69.985 -152.8807
13180.920015 70.037 -150.3184
13276.434395 70.114 -147.7621
13372.640911 70.216 -145.2220
13469.544580 70.344 -142.7112
13567.150452 70.500 -140.2451
13665.463617 70.685 -137.8424
13764.489200 70.898 -135.5251
13864.232362 71.141 -133.3180
13964.698305 71.411 -131.2484
14065.892266 71.704 -129.3423
14167.819519 72.018 -127.6198
14270.485380 72.346 -126.0873
14373.895200 72.682 -124.7296
14478.054370 73.024 -123.5010
14582.968320 73.374 -122.3217
14688.642520 73.742 -121.0857
14795.082478 74.153 -119.6877
14902.293745 74.641 -118.0723
15010.281908 75.243 -116.2945
15119.052599 75.988 -114.5601
15228.611486 76.877 -113.2059
15338.964283 77.888 -112.6144
15450.116741 78.975 -113.1125
15562.074656 80.083 -114.9115
15674.843864 81.156 -118.1000
15788.430244 82.141 -122.6621
15902.839718 82.988 -128.4933
16018.078250 83.652 -135.4031
16134.151848 84.096 -143.1119
16251.066563 84.294 -151.2585
16368.828491 84.242 -159.4341
16487.443769 83.952 -167.2428
16606.918584 83.459 -174.3620
16727.259161 82.807 179.4232
16848.471777 82.045 174.2150
16970.562748 81.226 170.0136
17093.538442 80.395 166.7347
17217.405268 79.594 164.2297
17342.169684 78.852 162.3081
17467.838194 78.186 160.7616
17594.417350 77.603 159.3877
17721.913751 77.094 158.0084
17850.334044 76.643 156.4838
17979.684923 76.230 154.7195
18109.973131 75.829 152.6699
18241.205462 75.415 150.3377
18373.388756 74.965 147.7697
18506.529905 74.461 145.0480
18640.635849 73.887 142.2790
18775.713581 73.237 139.5804
18911.770141 72.509 137.0676
19048.812624 71.705 134.8400
19186.848172 70.836 132.9722
19325.883983 69.918 131.5057
19465.927305 68.973 130.4465
19606.985439 68.044 129.7637
19749.065738 67.195 129.3919
19892.175609 66.526 129.2374
20036.322514 66.150 129.1967
