* Measurement data measured by REW V5.31.3
* Source: Headset (2- CX31993 HIFI AUDIO), MICROPHONE (Master Volume), R, volume: 0.250
* Format: 256k Log Swept Sine, 1 sweep at -12.0 dBFS with no timing reference
* Dated: 11 9, 24 11:46:08 AM
* REW Settings:
*  C-weighting compensation: Off
*  Target level: 75.0 dB
* Note: ; 
* Measurement: DUNU Kima 2 R
* Smoothing: 1/12 octave
* Frequency Step: 96 ppo
* Start Frequency: 0.36621094 Hz
*
* Freq(Hz) SPL(dB) Phase(degrees)
0.366211 42.812 12.9787
0.368865 42.831 13.0196
0.371538 42.858 13.0806
0.374230 42.891 13.1565
0.376942 42.929 13.2430
0.379673 42.970 13.3369
0.382424 43.012 13.4361
0.385196 43.055 13.5393
0.387987 43.099 13.6458
0.390798 43.144 13.7552
0.393630 43.189 13.8671
0.396483 43.234 13.9816
0.399356 43.280 14.0986
0.402250 43.326 14.2179
0.405165 43.373 14.3396
0.408101 43.420 14.4636
0.411058 43.467 14.5899
0.414037 43.514 14.7185
0.417037 43.562 14.8494
0.420059 43.610 14.9826
0.423103 43.659 15.1180
0.426169 43.708 15.2555
0.429257 43.757 15.3953
0.432368 43.807 15.5371
0.435501 43.856 15.6811
0.438656 43.907 15.8271
0.441835 43.957 15.9752
0.445037 44.008 16.1252
0.448262 44.060 16.2772
0.451510 44.112 16.4311
0.454782 44.164 16.5868
0.458077 44.216 16.7443
0.461397 44.269 16.9035
0.464740 44.323 17.0645
0.468108 44.376 17.2270
0.471500 44.430 17.3911
0.474917 44.485 17.5566
0.478358 44.540 17.7236
0.481825 44.595 17.8920
0.485316 44.651 18.0616
0.488833 44.707 18.2324
0.492375 44.763 18.4043
0.495943 44.820 18.5772
0.499537 44.877 18.7511
0.503157 44.935 18.9259
0.506803 44.993 19.1013
0.510475 45.052 19.2775
0.514175 45.111 19.4542
0.517900 45.170 19.6314
0.521653 45.230 19.8089
0.525434 45.290 19.9867
0.529241 45.351 20.1646
0.533076 45.412 20.3426
0.536939 45.474 20.5204
0.540830 45.536 20.6980
0.544749 45.598 20.8754
0.548696 45.661 21.0522
0.552673 45.725 21.2285
0.556677 45.788 21.4041
0.560711 45.853 21.5788
0.564774 45.918 21.7526
0.568867 45.983 21.9253
0.572989 46.049 22.0968
0.577141 46.115 22.2668
0.581324 46.182 22.4354
0.585536 46.249 22.6024
0.589779 46.316 22.7675
0.594053 46.384 22.9308
0.598358 46.453 23.0919
0.602694 46.522 23.2509
0.607061 46.592 23.4075
0.611460 46.662 23.5617
0.615891 46.733 23.7132
0.620354 46.804 23.8619
0.624849 46.876 24.0078
0.629377 46.948 24.1506
0.633938 47.021 24.2902
0.638532 47.094 24.4265
0.643159 47.168 24.5593
0.647819 47.242 24.6885
0.652514 47.317 24.8140
0.657242 47.392 24.9357
0.662005 47.468 25.0534
0.666802 47.545 25.1669
0.671634 47.622 25.2763
0.676501 47.699 25.3813
0.681403 47.778 25.4818
0.686341 47.856 25.5778
0.691314 47.936 25.6691
0.696324 48.016 25.7557
0.701370 48.096 25.8376
0.706452 48.178 25.9146
0.711571 48.260 25.9871
0.716728 48.344 26.0552
0.721921 48.428 26.1193
0.727153 48.515 26.1803
0.732422 48.604 26.2389
0.737729 48.694 26.2965
0.743075 48.788 26.3540
0.748460 48.883 26.4122
0.753883 48.980 26.4718
0.759346 49.078 26.5328
0.764849 49.179 26.5954
0.770391 49.281 26.6593
0.775974 49.384 26.7245
0.781597 49.488 26.7905
0.787261 49.594 26.8572
0.792966 49.702 26.9242
0.798712 49.810 26.9913
0.804500 49.921 27.0581
0.810329 50.032 27.1242
0.816201 50.145 27.1895
0.822116 50.259 27.2537
0.828073 50.374 27.3163
0.834074 50.491 27.3772
0.840118 50.608 27.4360
0.846206 50.728 27.4926
0.852338 50.848 27.5465
0.858514 50.969 27.5975
0.864735 51.092 27.6454
0.871001 51.216 27.6899
0.877313 51.341 27.7307
0.883670 51.467 27.7676
0.890074 51.594 27.8004
0.896524 51.722 27.8287
0.903020 51.851 27.8524
0.909564 51.982 27.8712
0.916155 52.113 27.8849
0.922794 52.245 27.8933
0.929481 52.378 27.8962
0.936216 52.512 27.8932
0.943000 52.646 27.8844
0.949834 52.782 27.8693
0.956717 52.918 27.8479
0.963649 53.055 27.8199
0.970632 53.192 27.7852
0.977666 53.330 27.7436
0.984750 53.468 27.6948
0.991886 53.607 27.6388
0.999074 53.746 27.5753
1.006314 53.886 27.5043
1.013606 54.026 27.4254
1.020951 54.166 27.3387
1.028349 54.306 27.2439
1.035801 54.447 27.1409
1.043307 54.587 27.0296
1.050867 54.727 26.9101
1.058482 54.867 26.7822
1.066152 55.007 26.6460
1.073878 55.147 26.5020
1.081660 55.286 26.3505
1.089498 55.426 26.1924
1.097393 55.565 26.0288
1.105345 55.704 25.8612
1.113355 55.843 25.6910
1.121423 55.983 25.5192
1.129549 56.123 25.3466
1.137734 56.263 25.1737
1.145979 56.403 25.0006
1.154283 56.544 24.8273
1.162647 56.685 24.6536
1.171072 56.827 24.4794
1.179558 56.969 24.3045
1.188106 57.111 24.1286
1.196715 57.254 23.9514
1.205387 57.397 23.7727
1.214122 57.541 23.5923
1.222920 57.684 23.4098
1.231782 57.828 23.2251
1.240708 57.973 23.0379
1.249699 58.117 22.8480
1.258754 58.262 22.6551
1.267876 58.408 22.4589
1.277063 58.553 22.2593
1.286318 58.699 22.0560
1.295639 58.845 21.8487
1.305027 58.991 21.6373
1.314484 59.138 21.4214
1.324009 59.285 21.2010
1.333604 59.431 20.9757
1.343268 59.579 20.7453
1.353002 59.726 20.5095
1.362806 59.873 20.2683
1.372681 60.021 20.0213
1.382628 60.169 19.7684
1.392647 60.316 19.5094
1.402739 60.464 19.2441
1.412904 60.612 18.9724
1.423142 60.760 18.6943
1.433455 60.908 18.4099
1.443843 61.056 18.1197
1.454305 61.204 17.8243
1.464844 61.352 17.5246
1.475459 61.500 17.2216
1.486150 61.648 16.9166
1.496920 61.795 16.6103
1.507767 61.942 16.3033
1.518693 62.090 15.9958
1.529698 62.237 15.6878
1.540783 62.383 15.3793
1.551948 62.530 15.0700
1.563194 62.676 14.7596
1.574521 62.822 14.4479
1.585931 62.968 14.1346
1.597423 63.114 13.8192
1.608999 63.260 13.5016
1.620658 63.405 13.1813
1.632402 63.551 12.8581
1.644232 63.696 12.5316
1.656146 63.841 12.2015
1.668147 63.986 11.8674
1.680235 64.130 11.5291
1.692411 64.275 11.1862
1.704675 64.419 10.8383
1.717028 64.564 10.4852
1.729470 64.708 10.1266
1.742003 64.853 9.7620
1.754626 64.997 9.3913
1.767341 65.141 9.0141
1.780147 65.285 8.6303
1.793047 65.430 8.2399
1.806040 65.574 7.8428
1.819128 65.718 7.4393
1.832310 65.861 7.0301
1.845587 66.005 6.6156
1.858961 66.148 6.1968
1.872432 66.291 5.7742
1.886001 66.433 5.3484
1.899667 66.575 4.9198
1.913433 66.716 4.4886
1.927299 66.857 4.0551
1.941265 66.998 3.6192
1.955332 67.138 3.1812
1.969501 67.277 2.7410
1.983773 67.416 2.2986
1.998148 67.555 1.8541
2.012627 67.693 1.4072
2.027212 67.831 0.9581
2.041902 67.968 0.5066
2.056698 68.106 0.0525
2.071602 68.242 -0.4042
2.086614 68.379 -0.8638
2.101734 68.515 -1.3263
2.116964 68.651 -1.7920
2.132304 68.787 -2.2611
2.147756 68.923 -2.7337
2.163320 69.058 -3.2101
2.178996 69.193 -3.6904
2.194786 69.328 -4.1747
2.210690 69.462 -4.6630
2.226710 69.596 -5.1552
2.242845 69.729 -5.6511
2.259098 69.862 -6.1503
2.275468 69.994 -6.6527
2.291957 70.125 -7.1580
2.308566 70.256 -7.6657
2.325295 70.385 -8.1758
2.342145 70.515 -8.6878
2.359117 70.643 -9.2017
2.376212 70.771 -9.7172
2.393431 70.899 -10.2342
2.410775 71.026 -10.7525
2.428244 71.153 -11.2721
2.445840 71.279 -11.7928
2.463564 71.404 -12.3148
2.481416 71.530 -12.8381
2.499397 71.654 -13.3626
2.517509 71.779 -13.8887
2.535752 71.903 -14.4167
2.554127 72.026 -14.9467
2.572635 72.149 -15.4794
2.591277 72.272 -16.0149
2.610055 72.393 -16.5536
2.628968 72.514 -17.0953
2.648019 72.634 -17.6399
2.667208 72.754 -18.1871
2.686535 72.872 -18.7366
2.706003 72.990 -19.2880
2.725612 73.107 -19.8407
2.745363 73.223 -20.3945
2.765257 73.339 -20.9490
2.785295 73.454 -21.5038
2.805478 73.569 -22.0586
2.825808 73.683 -22.6133
2.846285 73.796 -23.1675
2.866910 73.909 -23.7215
2.887685 74.022 -24.2751
2.908611 74.134 -24.8288
2.929688 74.245 -25.3830
2.950917 74.356 -25.9383
2.972301 74.466 -26.4951
2.993839 74.575 -27.0538
3.015534 74.684 -27.6143
3.037386 74.791 -28.1765
3.059396 74.898 -28.7400
3.081565 75.004 -29.3045
3.103896 75.110 -29.8693
3.126388 75.214 -30.4342
3.149043 75.318 -30.9985
3.171862 75.422 -31.5619
3.194847 75.525 -32.1241
3.217998 75.627 -32.6847
3.241317 75.729 -33.2436
3.264805 75.830 -33.8010
3.288463 75.931 -34.3572
3.312293 76.031 -34.9126
3.336295 76.131 -35.4679
3.360471 76.230 -36.0233
3.384822 76.328 -36.5790
3.409350 76.425 -37.1350
3.434056 76.522 -37.6912
3.458940 76.618 -38.2470
3.484005 76.713 -38.8023
3.509252 76.808 -39.3565
3.534681 76.903 -39.9094
3.560295 76.996 -40.4604
3.586094 77.090 -41.0095
3.612081 77.183 -41.5564
3.638255 77.275 -42.1012
3.664620 77.367 -42.6442
3.691175 77.459 -43.1858
3.717923 77.550 -43.7262
3.744864 77.641 -44.2658
3.772001 77.731 -44.8047
3.799335 77.820 -45.3428
3.826866 77.909 -45.8800
3.854597 77.997 -46.4160
3.882529 78.085 -46.9508
3.910664 78.173 -47.4840
3.939002 78.260 -48.0154
3.967546 78.347 -48.5449
3.996296 78.433 -49.0724
4.025255 78.520 -49.5982
4.054423 78.606 -50.1223
4.083804 78.691 -50.6450
4.113396 78.776 -51.1665
4.143204 78.861 -51.6870
4.173227 78.946 -52.2066
4.203468 79.030 -52.7251
4.233928 79.113 -53.2426
4.264609 79.197 -53.7591
4.295512 79.280 -54.2744
4.326639 79.363 -54.7887
4.357992 79.446 -55.3019
4.389572 79.528 -55.8140
4.421380 79.610 -56.3253
4.453419 79.692 -56.8359
4.485691 79.774 -57.3459
4.518196 79.855 -57.8553
4.550936 79.936 -58.3644
4.583914 80.017 -58.8729
4.617131 80.097 -59.3811
4.650589 80.177 -59.8889
4.684289 80.257 -60.3964
4.718233 80.337 -60.9037
4.752424 80.416 -61.4108
4.786862 80.495 -61.9179
4.821549 80.574 -62.4251
4.856488 80.652 -62.9324
4.891680 80.730 -63.4400
4.927127 80.808 -63.9478
4.962831 80.885 -64.4557
4.998794 80.962 -64.9636
5.035017 81.039 -65.4717
5.071503 81.115 -65.9800
5.108253 81.191 -66.4884
5.145270 81.266 -66.9972
5.182555 81.341 -67.5066
5.220110 81.416 -68.0164
5.257937 81.490 -68.5268
5.296038 81.563 -69.0376
5.334415 81.636 -69.5486
5.373071 81.709 -70.0597
5.412006 81.781 -70.5707
5.451224 81.853 -71.0817
5.490725 81.924 -71.5926
5.530514 81.994 -72.1037
5.570590 82.064 -72.6149
5.610957 82.134 -73.1264
5.651616 82.202 -73.6379
5.692570 82.271 -74.1493
5.733821 82.338 -74.6603
5.775370 82.405 -75.1706
5.817221 82.472 -75.6803
5.859375 82.538 -76.1892
5.901834 82.603 -76.6974
5.944602 82.668 -77.2051
5.987679 82.732 -77.7121
6.031068 82.795 -78.2185
6.074771 82.858 -78.7239
6.118792 82.920 -79.2282
6.163131 82.982 -79.7312
6.207792 83.043 -80.2328
6.252776 83.104 -80.7330
6.298086 83.164 -81.2319
6.343725 83.223 -81.7296
6.389694 83.282 -82.2260
6.435996 83.341 -82.7210
6.482634 83.399 -83.2145
6.529610 83.456 -83.7064
6.576926 83.513 -84.1967
6.624585 83.569 -84.6854
6.672590 83.625 -85.1726
6.720942 83.681 -85.6583
6.769645 83.736 -86.1426
6.818700 83.790 -86.6254
6.868111 83.844 -87.1068
6.917881 83.898 -87.5868
6.968010 83.951 -88.0654
7.018504 84.004 -88.5427
7.069362 84.056 -89.0187
7.120590 84.108 -89.4935
7.172189 84.159 -89.9671
7.224161 84.211 -90.4396
7.276511 84.261 -90.9109
7.329239 84.311 -91.3812
7.382350 84.361 -91.8504
7.435845 84.410 -92.3186
7.489729 84.459 -92.7859
7.544002 84.507 -93.2521
7.598669 84.555 -93.7172
7.653732 84.603 -94.1813
7.709194 84.649 -94.6442
7.765058 84.696 -95.1061
7.821327 84.742 -95.5668
7.878004 84.787 -96.0264
7.935091 84.832 -96.4846
7.992592 84.876 -96.9414
8.050510 84.920 -97.3967
8.108847 84.963 -97.8504
8.167607 85.006 -98.3025
8.226793 85.048 -98.7529
8.286408 85.090 -99.2014
8.346454 85.131 -99.6481
8.406936 85.172 -100.0927
8.467856 85.212 -100.5352
8.529218 85.252 -100.9756
8.591024 85.292 -101.4138
8.653278 85.331 -101.8500
8.715983 85.370 -102.2840
8.779143 85.408 -102.7159
8.842760 85.446 -103.1457
8.906839 85.484 -103.5736
8.971381 85.522 -103.9995
9.036392 85.559 -104.4238
9.101873 85.596 -104.8465
9.167829 85.633 -105.2678
9.234263 85.670 -105.6880
9.301178 85.707 -106.1071
9.368578 85.743 -106.5256
9.436467 85.780 -106.9435
9.504847 85.816 -107.3612
9.573723 85.852 -107.7788
9.643099 85.887 -108.1966
9.712976 85.923 -108.6147
9.783361 85.958 -109.0332
9.854255 85.993 -109.4523
9.925663 86.027 -109.8720
9.997588 86.061 -110.2924
10.070035 86.094 -110.7133
10.143007 86.127 -111.1346
10.216507 86.159 -111.5560
10.290540 86.190 -111.9774
10.365109 86.221 -112.3983
10.440219 86.251 -112.8184
10.515873 86.280 -113.2372
10.592076 86.308 -113.6540
10.668830 86.336 -114.0682
10.746141 86.362 -114.4793
10.824012 86.388 -114.8867
10.902447 86.413 -115.2897
10.981451 86.437 -115.6875
11.061027 86.461 -116.0796
11.141180 86.485 -116.4655
11.221913 86.508 -116.8448
11.303232 86.530 -117.2171
11.385140 86.553 -117.5823
11.467641 86.576 -117.9402
11.550741 86.599 -118.2911
11.634442 86.623 -118.6355
11.718750 86.647 -118.9737
11.803669 86.672 -119.3066
11.889203 86.698 -119.6351
11.975357 86.725 -119.9605
12.062136 86.753 -120.2841
12.149543 86.782 -120.6073
12.237583 86.813 -120.9318
12.326262 86.845 -121.2590
12.415583 86.878 -121.5908
12.505552 86.912 -121.9286
12.596172 86.946 -122.2738
12.687449 86.981 -122.6276
12.779387 87.017 -122.9910
12.871992 87.052 -123.3646
12.965268 87.088 -123.7488
13.059220 87.122 -124.1433
13.153852 87.155 -124.5476
13.249170 87.187 -124.9607
13.345179 87.218 -125.3814
13.441884 87.246 -125.8078
13.539289 87.273 -126.2378
13.637401 87.297 -126.6689
13.736223 87.319 -127.0988
13.835761 87.338 -127.5246
13.936021 87.355 -127.9437
14.037007 87.371 -128.3537
14.138725 87.385 -128.7523
14.241180 87.397 -129.1378
14.344377 87.409 -129.5087
14.448323 87.420 -129.8645
14.553021 87.431 -130.2052
14.658478 87.443 -130.5317
14.764700 87.456 -130.8453
14.871691 87.470 -131.1483
14.979457 87.487 -131.4437
15.088005 87.505 -131.7346
15.197339 87.525 -132.0245
15.307465 87.547 -132.3169
15.418389 87.571 -132.6150
15.530117 87.596 -132.9214
15.642655 87.621 -133.2383
15.756008 87.647 -133.5667
15.870182 87.672 -133.9066
15.985184 87.696 -134.2569
16.101019 87.718 -134.6156
16.217694 87.738 -134.9796
16.335214 87.755 -135.3451
16.453586 87.770 -135.7079
16.572815 87.783 -136.0635
16.692909 87.793 -136.4078
16.813872 87.802 -136.7372
16.935713 87.810 -137.0490
17.058436 87.818 -137.3419
17.182048 87.826 -137.6163
17.306556 87.836 -137.8738
17.431967 87.849 -138.1179
17.558286 87.864 -138.3535
17.685521 87.882 -138.5864
17.813677 87.904 -138.8228
17.942762 87.928 -139.0691
18.072783 87.955 -139.3308
18.203746 87.983 -139.6120
18.335658 88.011 -139.9153
18.468526 88.038 -140.2409
18.602356 88.064 -140.5870
18.737156 88.086 -140.9497
18.872934 88.104 -141.3234
19.009695 88.118 -141.7010
19.147447 88.128 -142.0750
19.286197 88.134 -142.4377
19.425953 88.136 -142.7825
19.566721 88.135 -143.1039
19.708510 88.133 -143.3987
19.851326 88.131 -143.6659
19.995177 88.130 -143.9069
20.140070 88.131 -144.1254
20.286013 88.135 -144.3268
20.433014 88.142 -144.5176
20.581080 88.152 -144.7048
20.730219 88.166 -144.8947
20.880439 88.182 -145.0923
21.031747 88.200 -145.3011
21.184152 88.218 -145.5227
21.337661 88.237 -145.7570
21.492282 88.255 -146.0026
21.648024 88.273 -146.2572
21.804895 88.290 -146.5185
21.962902 88.305 -146.7845
22.122054 88.320 -147.0538
22.282360 88.335 -147.3263
22.443827 88.348 -147.6022
22.606464 88.361 -147.8822
22.770280 88.373 -148.1669
22.935283 88.384 -148.4561
23.101481 88.393 -148.7482
23.268884 88.399 -149.0403
23.437500 88.404 -149.3282
23.607338 88.406 -149.6069
23.778406 88.405 -149.8712
23.950714 88.404 -150.1169
24.124271 88.402 -150.3416
24.299086 88.402 -150.5456
24.475167 88.403 -150.7319
24.652524 88.407 -150.9063
24.831166 88.415 -151.0763
25.011103 88.427 -151.2499
25.192344 88.441 -151.4346
25.374898 88.457 -151.6357
25.558775 88.474 -151.8552
25.743984 88.490 -152.0925
25.930536 88.505 -152.3439
26.118439 88.518 -152.6040
26.307704 88.529 -152.8676
26.498341 88.539 -153.1301
26.690359 88.548 -153.3898
26.883768 88.557 -153.6473
27.078579 88.566 -153.9056
27.274801 88.575 -154.1691
27.472446 88.584 -154.4415
27.671522 88.591 -154.7242
27.872042 88.596 -155.0152
28.074014 88.597 -155.3082
28.277450 88.594 -155.5935
28.482360 88.587 -155.8593
28.688755 88.576 -156.0945
28.896645 88.565 -156.2915
29.106042 88.555 -156.4481
29.316957 88.549 -156.5697
29.529400 88.549 -156.6686
29.743382 88.556 -156.7624
29.958915 88.570 -156.8704
30.176009 88.589 -157.0099
30.394677 88.610 -157.1921
30.614929 88.631 -157.4200
30.836778 88.648 -157.6874
31.060234 88.659 -157.9805
31.285309 88.662 -158.2809
31.512015 88.658 -158.5692
31.740364 88.650 -158.8290
31.970368 88.638 -159.0500
32.202039 88.627 -159.2300
32.435388 88.618 -159.3747
32.670428 88.613 -159.4960
32.907171 88.614 -159.6090
33.145630 88.620 -159.7280
33.385817 88.630 -159.8636
33.627745 88.641 -160.0211
33.871425 88.652 -160.2002
34.116871 88.662 -160.3962
34.364096 88.671 -160.6027
34.613113 88.678 -160.8134
34.863934 88.684 -161.0242
35.116572 88.690 -161.2335
35.371041 88.696 -161.4419
35.627354 88.701 -161.6510
35.885525 88.707 -161.8618
36.145566 88.712 -162.0743
36.407492 88.716 -162.2866
36.671316 88.719 -162.4963
36.937051 88.722 -162.7010
37.204712 88.724 -162.8993
37.474313 88.726 -163.0917
37.745867 88.729 -163.2796
38.019389 88.732 -163.4647
38.294893 88.734 -163.6484
38.572394 88.737 -163.8309
38.851905 88.739 -164.0113
39.133442 88.740 -164.1891
39.417019 88.741 -164.3640
39.702651 88.742 -164.5372
39.990353 88.743 -164.7105
40.280140 88.743 -164.8856
40.572026 88.742 -165.0631
40.866028 88.740 -165.2420
41.162160 88.737 -165.4195
41.460438 88.732 -165.5926
41.760877 88.726 -165.7586
42.063494 88.720 -165.9161
42.368303 88.714 -166.0651
42.675322 88.708 -166.2065
42.984565 88.704 -166.3414
43.296048 88.701 -166.4715
43.609789 88.699 -166.5991
43.925804 88.700 -166.7276
44.244108 88.703 -166.8607
44.564719 88.709 -167.0020
44.887654 88.716 -167.1539
45.212928 88.724 -167.3172
45.540560 88.734 -167.4925
45.870565 88.745 -167.6814
46.202962 88.757 -167.8873
46.537768 88.768 -168.1141
46.875000 88.778 -168.3630
47.214676 88.784 -168.6288
47.556813 88.784 -168.8983
47.901429 88.779 -169.1529
48.248542 88.768 -169.3748
48.598171 88.756 -169.5535
48.950334 88.745 -169.6903
49.305048 88.737 -169.7969
49.662333 88.733 -169.8896
50.022206 88.732 -169.9823
50.384688 88.733 -170.0825
50.749796 88.734 -170.1904
51.117550 88.735 -170.3030
51.487969 88.736 -170.4173
51.861072 88.736 -170.5331
52.236879 88.737 -170.6520
52.615409 88.738 -170.7762
52.996681 88.739 -170.9071
53.380717 88.739 -171.0445
53.767536 88.738 -171.1869
54.157158 88.737 -171.3316
54.549603 88.735 -171.4755
54.944892 88.733 -171.6163
55.343045 88.730 -171.7534
55.744084 88.729 -171.8889
56.148028 88.728 -172.0259
56.554900 88.727 -172.1670
56.964720 88.726 -172.3122
57.377510 88.724 -172.4592
57.793291 88.721 -172.6044
58.212085 88.718 -172.7455
58.633914 88.714 -172.8822
59.058799 88.711 -173.0168
59.486764 88.709 -173.1524
59.917829 88.708 -173.2930
60.352019 88.706 -173.4420
60.789354 88.705 -173.6014
61.229859 88.702 -173.7701
61.673556 88.697 -173.9429
62.120468 88.691 -174.1118
62.570618 88.683 -174.2683
63.024031 88.676 -174.4081
63.480729 88.671 -174.5336
63.940736 88.668 -174.6537
64.404077 88.667 -174.7794
64.870776 88.667 -174.9169
65.340856 88.665 -175.0646
65.814343 88.661 -175.2136
66.291261 88.654 -175.3528
66.771635 88.645 -175.4748
67.255489 88.636 -175.5789
67.742850 88.627 -175.6702
68.233743 88.618 -175.7565
68.728193 88.611 -175.8456
69.226226 88.604 -175.9434
69.727867 88.598 -176.0546
70.233144 88.591 -176.1834
70.742083 88.584 -176.3341
71.254709 88.575 -176.5090
71.771050 88.563 -176.7052
72.291132 88.547 -176.9118
72.814984 88.526 -177.1104
73.342631 88.501 -177.2786
73.874102 88.474 -177.3974
74.409424 88.451 -177.4599
74.948626 88.435 -177.4769
75.491734 88.429 -177.4734
76.038779 88.431 -177.4780
76.589787 88.440 -177.5108
77.144788 88.453 -177.5805
77.703811 88.466 -177.6892
78.266885 88.479 -177.8375
78.834039 88.488 -178.0231
79.405303 88.491 -178.2384
79.980706 88.487 -178.4692
80.560280 88.476 -178.6986
81.144053 88.458 -178.9111
81.732056 88.437 -179.0974
82.324320 88.413 -179.2555
82.920876 88.390 -179.3893
83.521755 88.367 -179.5052
84.126988 88.347 -179.6093
84.736607 88.328 -179.7068
85.350643 88.310 -179.8018
85.969129 88.293 -179.8949
86.592097 88.275 -179.9837
87.219579 88.255 179.9359
87.851608 88.235 179.8685
88.488217 88.212 179.8199
89.129439 88.188 179.7965
89.775308 88.164 179.8020
90.425856 88.142 179.8354
91.081119 88.121 179.8930
91.741131 88.104 179.9705
92.405925 88.091 -179.9364
93.075536 88.083 -179.8328
93.750000 88.081 -179.7246
94.429351 88.086 -179.6190
95.113625 88.097 -179.5263
95.802858 88.114 -179.4600
96.497085 88.135 -179.4331
97.196342 88.158 -179.4520
97.900667 88.180 -179.5144
98.610096 88.199 -179.6122
99.324665 88.215 -179.7351
100.044413 88.226 -179.8733
100.769376 88.235 179.9814
101.499592 88.241 179.8347
102.235100 88.248 179.6891
102.975938 88.254 179.5456
103.722144 88.261 179.4049
104.473757 88.268 179.2678
105.230817 88.275 179.1335
105.993363 88.280 179.0009
106.761435 88.283 178.8718
107.535072 88.280 178.7492
108.314315 88.274 178.6335
109.099206 88.265 178.5206
109.889783 88.253 178.4028
110.686090 88.240 178.2711
111.488167 88.226 178.1184
112.296056 88.214 177.9445
113.109800 88.202 177.7558
113.929440 88.193 177.5632
114.755020 88.184 177.3776
115.586582 88.177 177.2097
116.424170 88.171 177.0681
117.267827 88.165 176.9551
118.117598 88.159 176.8640
118.973527 88.151 176.7824
119.835658 88.141 176.7002
120.704037 88.128 176.6142
121.578708 88.115 176.5239
122.459718 88.101 176.4245
123.347111 88.090 176.3095
124.240935 88.080 176.1793
125.141236 88.070 176.0443
126.048061 88.060 175.9178
126.961458 88.050 175.8064
127.881473 88.041 175.7065
128.808154 88.030 175.6086
129.741551 88.018 175.5062
130.681712 88.004 175.4008
131.628686 87.988 175.2978
132.582521 87.972 175.1999
133.543269 87.956 175.1051
134.510979 87.942 175.0123
135.485701 87.927 174.9251
136.467486 87.911 174.8501
137.456386 87.894 174.7917
138.452451 87.877 174.7500
139.455735 87.860 174.7193
140.466288 87.845 174.6909
141.484165 87.831 174.6563
142.509418 87.819 174.6132
143.542100 87.806 174.5647
144.582265 87.794 174.5146
145.629968 87.783 174.4616
146.685262 87.772 174.4000
147.748204 87.761 174.3223
148.818849 87.752 174.2225
149.897251 87.744 174.0985
150.983469 87.737 173.9531
152.077557 87.731 173.7926
153.179574 87.725 173.6271
154.289576 87.716 173.4693
155.407622 87.703 173.3345
156.533770 87.685 173.2372
157.668078 87.665 173.1808
158.810606 87.642 173.1542
159.961413 87.618 173.1415
161.120559 87.594 173.1320
162.288105 87.569 173.1242
163.464112 87.543 173.1225
164.648640 87.519 173.1329
165.841752 87.497 173.1600
167.043510 87.479 173.2050
168.253976 87.464 173.2656
169.473213 87.454 173.3355
170.701286 87.447 173.4052
171.938258 87.444 173.4638
173.184194 87.442 173.5000
174.439158 87.441 173.5043
175.703216 87.441 173.4722
176.976434 87.439 173.4048
178.258878 87.437 173.3073
179.550615 87.434 173.1876
180.851713 87.430 173.0549
182.162239 87.424 172.9179
183.482262 87.416 172.7836
184.811850 87.406 172.6559
186.151073 87.393 172.5357
187.500000 87.379 172.4225
188.858702 87.364 172.3156
190.227250 87.347 172.2148
191.605715 87.330 172.1210
192.994169 87.313 172.0352
194.392685 87.295 171.9578
195.801334 87.277 171.8878
197.220191 87.259 171.8239
198.649330 87.240 171.7653
200.088825 87.222 171.7120
201.538751 87.204 171.6647
202.999184 87.185 171.6233
204.470200 87.166 171.5851
205.951875 87.147 171.5448
207.444287 87.127 171.4967
208.947514 87.107 171.4397
210.461634 87.086 171.3787
211.986726 87.064 171.3195
213.522869 87.043 171.2651
215.070144 87.023 171.2161
216.628631 87.002 171.1709
218.198411 86.982 171.1283
219.779567 86.962 171.0877
221.372180 86.941 171.0496
222.976334 86.921 171.0143
224.592112 86.901 170.9816
226.219600 86.882 170.9499
227.858880 86.862 170.9176
229.510039 86.842 170.8836
231.173164 86.822 170.8488
232.848340 86.801 170.8165
234.535655 86.780 170.7901
236.235197 86.758 170.7700
237.947054 86.736 170.7537
239.671317 86.714 170.7385
241.408074 86.692 170.7234
243.157416 86.670 170.7102
244.919435 86.648 170.7013
246.694223 86.626 170.6975
248.481871 86.604 170.6974
250.282473 86.582 170.6990
252.096123 86.560 170.7004
253.922915 86.538 170.7012
255.762945 86.515 170.7022
257.616309 86.493 170.7049
259.483103 86.471 170.7108
261.363424 86.449 170.7205
263.257372 86.427 170.7335
265.165043 86.405 170.7485
267.086538 86.382 170.7642
269.021957 86.360 170.7805
270.971401 86.337 170.7975
272.934972 86.315 170.8152
274.912771 86.292 170.8329
276.904902 86.270 170.8497
278.911469 86.248 170.8654
280.932577 86.226 170.8809
282.968330 86.203 170.8987
285.018835 86.181 170.9207
287.084199 86.158 170.9474
289.164530 86.135 170.9787
291.259935 86.111 171.0135
293.370525 86.087 171.0508
295.496408 86.063 171.0898
297.637697 86.039 171.1289
299.794503 86.013 171.1672
301.966937 85.987 171.2048
304.155114 85.959 171.2442
306.359147 85.930 171.2875
308.579152 85.901 171.3344
310.815244 85.872 171.3822
313.067539 85.847 171.4269
315.336156 85.826 171.4675
317.621211 85.808 171.5081
319.922826 85.791 171.5540
322.241118 85.773 171.6075
324.576210 85.755 171.6683
326.928223 85.735 171.7350
329.297280 85.713 171.8062
331.683504 85.691 171.8795
334.087019 85.669 171.9539
336.507952 85.646 172.0289
338.946427 85.622 172.1042
341.402572 85.599 172.1801
343.876516 85.575 172.2565
346.368387 85.551 172.3332
348.878315 85.527 172.4106
351.406431 85.503 172.4893
353.952867 85.480 172.5703
356.517756 85.456 172.6541
359.101230 85.433 172.7409
361.703426 85.410 172.8305
364.324478 85.387 172.9230
366.964523 85.364 173.0182
369.623699 85.341 173.1159
372.302145 85.318 173.2156
375.000000 85.295 173.3169
377.717405 85.271 173.4197
380.454501 85.248 173.5240
383.211431 85.224 173.6298
385.988339 85.201 173.7370
388.785369 85.178 173.8465
391.602668 85.155 173.9592
394.440383 85.133 174.0757
397.298660 85.111 174.1955
400.177650 85.089 174.3175
403.077502 85.066 174.4411
405.998368 85.044 174.5661
408.940400 85.021 174.6928
411.903750 84.999 174.8218
414.888575 84.976 174.9536
417.895028 84.954 175.0888
420.923268 84.931 175.2270
423.973452 84.909 175.3674
427.045738 84.888 175.5100
430.140287 84.866 175.6550
433.257261 84.845 175.8028
436.396822 84.824 175.9529
439.559133 84.802 176.1048
442.744360 84.781 176.2585
445.952668 84.760 176.4142
449.184225 84.739 176.5729
452.439199 84.718 176.7349
455.717760 84.698 176.9007
459.020079 84.677 177.0698
462.346327 84.656 177.2419
465.696680 84.636 177.4163
469.071310 84.616 177.5931
472.470394 84.595 177.7726
475.894109 84.575 177.9550
479.342634 84.555 178.1403
482.816148 84.535 178.3284
486.314833 84.515 178.5194
489.838871 84.496 178.7140
493.388445 84.477 178.9127
496.963741 84.458 179.1160
500.564945 84.440 179.3243
504.192245 84.422 179.5374
507.845830 84.406 179.7552
511.525890 84.390 179.9769
515.232618 84.376 -179.7993
518.966206 84.363 -179.5760
522.726849 84.351 -179.3573
526.514743 84.340 -179.1474
530.330086 84.329 -178.9493
534.173076 84.318 -178.7632
538.043915 84.306 -178.5861
541.942803 84.292 -178.4128
545.869944 84.276 -178.2379
549.825542 84.259 -178.0573
553.809805 84.240 -177.8686
557.822939 84.221 -177.6707
561.865154 84.201 -177.4630
565.936660 84.180 -177.2454
570.037671 84.160 -177.0175
574.168399 84.140 -176.7793
578.329060 84.121 -176.5315
582.519870 84.102 -176.2749
586.741049 84.084 -176.0107
590.992817 84.067 -175.7400
595.275394 84.051 -175.4635
599.589005 84.036 -175.1817
603.933874 84.022 -174.8948
608.310228 84.008 -174.6038
612.718295 83.995 -174.3100
617.158304 83.982 -174.0158
621.630488 83.969 -173.7233
626.135079 83.958 -173.4331
630.672311 83.946 -173.1432
635.242423 83.935 -172.8504
639.845651 83.925 -172.5529
644.482237 83.915 -172.2505
649.152421 83.905 -171.9435
653.856447 83.897 -171.6324
658.594560 83.888 -171.3177
663.367008 83.880 -170.9993
668.174039 83.872 -170.6772
673.015903 83.865 -170.3512
677.892854 83.859 -170.0214
682.805145 83.853 -169.6877
687.753032 83.848 -169.3505
692.736774 83.843 -169.0099
697.756631 83.840 -168.6660
702.812863 83.836 -168.3185
707.905735 83.834 -167.9673
713.035511 83.832 -167.6125
718.202461 83.831 -167.2540
723.406852 83.830 -166.8919
728.648956 83.830 -166.5262
733.929047 83.831 -166.1565
739.247399 83.833 -165.7828
744.604290 83.836 -165.4055
750.000000 83.839 -165.0250
755.434809 83.844 -164.6413
760.909001 83.849 -164.2548
766.422861 83.856 -163.8653
771.976677 83.863 -163.4724
777.570739 83.871 -163.0759
783.205337 83.880 -162.6756
788.880766 83.890 -162.2719
794.597321 83.901 -161.8651
800.355301 83.913 -161.4556
806.155005 83.927 -161.0436
811.996736 83.941 -160.6296
817.880799 83.957 -160.2135
823.807501 83.975 -159.7954
829.777150 83.993 -159.3754
835.790057 84.013 -158.9534
841.846536 84.034 -158.5297
847.946903 84.057 -158.1045
854.091476 84.081 -157.6782
860.280575 84.106 -157.2511
866.514523 84.133 -156.8236
872.793644 84.161 -156.3959
879.118267 84.190 -155.9685
885.488720 84.221 -155.5418
891.905336 84.254 -155.1163
898.368450 84.288 -154.6926
904.878398 84.324 -154.2711
911.435520 84.361 -153.8518
918.040157 84.401 -153.4352
924.692655 84.442 -153.0214
931.393359 84.484 -152.6111
938.142619 84.528 -152.2047
944.940787 84.573 -151.8029
951.788218 84.620 -151.4061
958.685268 84.668 -151.0145
965.632296 84.718 -150.6284
972.629666 84.769 -150.2482
979.677741 84.822 -149.8743
986.776890 84.875 -149.5072
993.927482 84.930 -149.1474
1001.129891 84.986 -148.7952
1008.384491 85.044 -148.4513
1015.691660 85.102 -148.1160
1023.051781 85.162 -147.7896
1030.465236 85.223 -147.4723
1037.932411 85.284 -147.1643
1045.453698 85.347 -146.8656
1053.029486 85.411 -146.5764
1060.660172 85.475 -146.2971
1068.346153 85.540 -146.0276
1076.087829 85.605 -145.7680
1083.885605 85.671 -145.5183
1091.739887 85.738 -145.2786
1099.651084 85.805 -145.0488
1107.619609 85.872 -144.8291
1115.645878 85.939 -144.6191
1123.730308 86.007 -144.4187
1131.873321 86.074 -144.2278
1140.075341 86.142 -144.0460
1148.336797 86.209 -143.8730
1156.658119 86.276 -143.7085
1165.039741 86.343 -143.5521
1173.482099 86.410 -143.4035
1181.985634 86.477 -143.2626
1190.550789 86.543 -143.1290
1199.178011 86.609 -143.0024
1207.867749 86.675 -142.8826
1216.620457 86.740 -142.7692
1225.436590 86.805 -142.6617
1234.316609 86.870 -142.5596
1243.260976 86.934 -142.4626
1252.270157 86.997 -142.3702
1261.344623 87.060 -142.2819
1270.484846 87.123 -142.1973
1279.691303 87.185 -142.1161
1288.964474 87.248 -142.0385
1298.304842 87.310 -141.9642
1307.712894 87.371 -141.8930
1317.189120 87.433 -141.8242
1326.734016 87.494 -141.7574
1336.348077 87.556 -141.6924
1346.031806 87.616 -141.6290
1355.785708 87.677 -141.5669
1365.610290 87.737 -141.5061
1375.506065 87.797 -141.4467
1385.473549 87.857 -141.3887
1395.513261 87.917 -141.3320
1405.625726 87.977 -141.2766
1415.811469 88.037 -141.2223
1426.071023 88.097 -141.1689
1436.404921 88.157 -141.1164
1446.813703 88.217 -141.0648
1457.297912 88.277 -141.0140
1467.858093 88.338 -140.9641
1478.494798 88.399 -140.9149
1489.208581 88.460 -140.8667
1500.000000 88.522 -140.8196
1510.869618 88.584 -140.7738
1521.818002 88.646 -140.7291
1532.845723 88.709 -140.6857
1543.953355 88.772 -140.6434
1555.141477 88.836 -140.6021
1566.410674 88.900 -140.5619
1577.761531 88.965 -140.5231
1589.194642 89.031 -140.4859
1600.710601 89.097 -140.4507
1612.310010 89.164 -140.4180
1623.993473 89.232 -140.3887
1635.761599 89.301 -140.3636
1647.615002 89.371 -140.3438
1659.554299 89.442 -140.3300
1671.580114 89.513 -140.3226
1683.693072 89.585 -140.3219
1695.893807 89.658 -140.3276
1708.182952 89.731 -140.3396
1720.561150 89.805 -140.3574
1733.029045 89.879 -140.3807
1745.587288 89.954 -140.4091
1758.236533 90.029 -140.4427
1770.977440 90.105 -140.4814
1783.810673 90.182 -140.5257
1796.736900 90.261 -140.5761
1809.756796 90.340 -140.6335
1822.871040 90.421 -140.6993
1836.080315 90.502 -140.7751
1849.385310 90.585 -140.8629
1862.786718 90.669 -140.9644
1876.285239 90.754 -141.0811
1889.881575 90.839 -141.2138
1903.576436 90.925 -141.3630
1917.370535 91.011 -141.5284
1931.264593 91.096 -141.7097
1945.259332 91.182 -141.9061
1959.355483 91.266 -142.1171
1973.553781 91.351 -142.3419
1987.854965 91.435 -142.5803
2002.259781 91.518 -142.8320
2016.768981 91.601 -143.0973
2031.383320 91.683 -143.3764
2046.103561 91.765 -143.6696
2060.930471 91.846 -143.9772
2075.864823 91.926 -144.2994
2090.907395 92.005 -144.6366
2106.058972 92.084 -144.9890
2121.320344 92.161 -145.3569
2136.692305 92.237 -145.7403
2152.175658 92.312 -146.1393
2167.771210 92.385 -146.5538
2183.479774 92.456 -146.9839
2199.302169 92.526 -147.4297
2215.239219 92.594 -147.8906
2231.291755 92.659 -148.3660
2247.460615 92.722 -148.8552
2263.746641 92.782 -149.3573
2280.150683 92.839 -149.8711
2296.673595 92.893 -150.3955
2313.316238 92.943 -150.9290
2330.079481 92.990 -151.4698
2346.964198 93.033 -152.0157
2363.971268 93.072 -152.5643
2381.101578 93.107 -153.1122
2398.356022 93.138 -153.6556
2415.735498 93.166 -154.1904
2433.240913 93.189 -154.7119
2450.873180 93.210 -155.2155
2468.633217 93.228 -155.6969
2486.521951 93.245 -156.1528
2504.540314 93.262 -156.5818
2522.689246 93.281 -156.9848
2540.969692 93.303 -157.3670
2559.382606 93.330 -157.7374
2577.928947 93.362 -158.1097
2596.609683 93.399 -158.5000
2615.425787 93.442 -158.9250
2634.378241 93.487 -159.3988
2653.468031 93.533 -159.9303
2672.696154 93.576 -160.5212
2692.063613 93.614 -161.1667
2711.571415 93.645 -161.8559
2731.220579 93.666 -162.5752
2751.012130 93.678 -163.3098
2770.947098 93.681 -164.0461
2791.026522 93.675 -164.7728
2811.251451 93.661 -165.4813
2831.622938 93.641 -166.1655
2852.142045 93.614 -166.8214
2872.809842 93.583 -167.4466
2893.627406 93.547 -168.0406
2914.595823 93.509 -168.6032
2935.716186 93.467 -169.1351
2956.989596 93.424 -169.6370
2978.417161 93.379 -170.1096
3000.000000 93.334 -170.5540
3021.739237 93.287 -170.9715
3043.636005 93.240 -171.3634
3065.691446 93.192 -171.7308
3087.906710 93.144 -172.0746
3110.282955 93.097 -172.3959
3132.821347 93.049 -172.6954
3155.523062 93.002 -172.9742
3178.389283 92.955 -173.2331
3201.421202 92.909 -173.4730
3224.620020 92.864 -173.6945
3247.986946 92.820 -173.8983
3271.523198 92.777 -174.0853
3295.230004 92.734 -174.2564
3319.108599 92.693 -174.4128
3343.160228 92.654 -174.5558
3367.386145 92.616 -174.6871
3391.787613 92.580 -174.8082
3416.365904 92.545 -174.9206
3441.122300 92.511 -175.0257
3466.058091 92.478 -175.1244
3491.174576 92.447 -175.2168
3516.473066 92.416 -175.3030
3541.954880 92.386 -175.3828
3567.621345 92.357 -175.4560
3593.473800 92.328 -175.5228
3619.513592 92.299 -175.5827
3645.742080 92.269 -175.6331
3672.160630 92.238 -175.6672
3698.770620 92.206 -175.6728
3725.573436 92.173 -175.6342
3752.570477 92.143 -175.5383
3779.763150 92.120 -175.3844
3807.152872 92.108 -175.1903
3834.741071 92.109 -174.9877
3862.529185 92.122 -174.8100
3890.518664 92.145 -174.6809
3918.710966 92.174 -174.6102
3947.107561 92.206 -174.5963
3975.709929 92.239 -174.6315
4004.519563 92.273 -174.7076
4033.537962 92.305 -174.8172
4062.766641 92.337 -174.9558
4092.207123 92.369 -175.1203
4121.860942 92.400 -175.3093
4151.729646 92.430 -175.5221
4181.814790 92.460 -175.7588
4212.117944 92.490 -176.0196
4242.640687 92.518 -176.3046
4273.384610 92.545 -176.6141
4304.351317 92.571 -176.9481
4335.542421 92.595 -177.3061
4366.959549 92.617 -177.6877
4398.604338 92.636 -178.0918
4430.478438 92.653 -178.5171
4462.583511 92.668 -178.9621
4494.921231 92.680 -179.4257
4527.493283 92.689 -179.9072
4560.301365 92.695 179.5939
4593.347189 92.698 179.0770
4626.632476 92.698 178.5417
4660.158962 92.695 177.9874
4693.928395 92.688 177.4138
4727.942535 92.676 176.8210
4762.203156 92.660 176.2101
4796.712043 92.639 175.5830
4831.470996 92.612 174.9427
4866.481826 92.578 174.2930
4901.746360 92.538 173.6387
4937.266434 92.491 172.9849
4973.043902 92.437 172.3369
5009.080628 92.376 171.6998
5045.378492 92.309 171.0781
5081.939384 92.235 170.4760
5118.765212 92.156 169.8972
5155.857894 92.071 169.3451
5193.219366 91.981 168.8226
5230.851574 91.886 168.3324
5268.756481 91.787 167.8773
5306.936062 91.684 167.4599
5345.392309 91.577 167.0825
5384.127225 91.468 166.7472
5423.142830 91.356 166.4556
5462.441159 91.242 166.2086
5502.024259 91.128 166.0066
5541.894195 91.013 165.8496
5582.053045 90.897 165.7371
5622.502902 90.783 165.6684
5663.245876 90.669 165.6426
5704.284090 90.557 165.6591
5745.619684 90.446 165.7174
5787.254813 90.337 165.8174
5829.191647 90.231 165.9591
5871.432373 90.127 166.1425
5913.979192 90.026 166.3678
5956.834323 89.928 166.6346
6000.000000 89.835 166.9426
6043.478473 89.747 167.2910
6087.272010 89.663 167.6785
6131.382892 89.586 168.1033
6175.813420 89.516 168.5631
6220.565910 89.453 169.0554
6265.642695 89.397 169.5771
6311.046124 89.351 170.1249
6356.778566 89.313 170.6949
6402.842404 89.285 171.2827
6449.240040 89.268 171.8840
6495.973891 89.261 172.4943
6543.046396 89.265 173.1089
6590.460007 89.281 173.7230
6638.217197 89.310 174.3315
6686.320456 89.351 174.9286
6734.772290 89.407 175.5074
6783.575226 89.476 176.0599
6832.731809 89.561 176.5773
6882.244600 89.661 177.0493
6932.116181 89.778 177.4650
6982.349153 89.911 177.8120
7032.946133 90.061 178.0766
7083.909760 90.229 178.2430
7135.242690 90.414 178.2935
7186.947600 90.618 178.2070
7239.027185 90.839 177.9593
7291.484160 91.076 177.5219
7344.321260 91.329 176.8623
7397.541239 91.593 175.9454
7451.146872 91.865 174.7352
7505.140954 92.137 173.1980
7559.526299 92.401 171.3063
7614.305743 92.647 169.0441
7669.482141 92.863 166.4105
7725.058371 93.036 163.4232
7781.037328 93.154 160.1204
7837.421932 93.206 156.5606
7894.215122 93.183 152.8203
7951.419859 93.078 148.9897
8009.039125 92.889 145.1681
8067.075924 92.616 141.4559
8125.533282 92.263 137.9489
8184.414245 91.838 134.7314
8243.721885 91.350 131.8721
8303.459292 90.810 129.4207
8363.629581 90.231 127.4076
8424.235888 89.626 125.8434
8485.281374 89.006 124.7218
8546.769221 88.382 124.0222
8608.702634 87.765 123.7129
8671.084842 87.160 123.7543
8733.919097 86.575 124.1018
8797.208675 86.013 124.7098
8860.956876 85.475 125.5365
8925.167022 84.962 126.5467
8989.842461 84.472 127.7137
9054.986566 84.005 129.0174
9120.602731 83.558 130.4432
9186.694378 83.131 131.9798
9253.264952 82.723 133.6187
9320.317925 82.332 135.3538
9387.856790 81.958 137.1795
9455.885071 81.602 139.0906
9524.406312 81.263 141.0819
9593.424086 80.940 143.1481
9662.941992 80.635 145.2840
9732.963653 80.347 147.4839
9803.492719 80.077 149.7416
9874.532869 79.824 152.0501
9946.087805 79.589 154.4002
10018.161257 79.372 156.7809
10090.756983 79.172 159.1810
10163.878768 78.989 161.5916
10237.530423 78.821 164.0095
10311.715789 78.668 166.4380
10386.438732 78.528 168.8844
10461.703149 78.403 171.3557
10537.512962 78.294 173.8540
10613.872125 78.203 176.3758
10690.784618 78.131 178.9109
10768.254450 78.078 -178.5546
10846.285661 78.047 -176.0357
10924.882318 78.036 -173.5475
11004.048518 78.046 -171.1040
11083.788390 78.075 -168.7189
11164.106090 78.122 -166.4047
11245.005805 78.187 -164.1739
11326.491752 78.268 -162.0381
11408.568180 78.364 -160.0075
11491.239368 78.471 -158.0899
11574.509626 78.587 -156.2885
11658.383294 78.710 -154.6005
11742.864745 78.836 -153.0160
11827.958384 78.963 -151.5169
11913.668646 79.090 -150.0771
12000.000000 79.217 -148.6640
12086.956947 79.346 -147.2417
12174.544019 79.483 -145.7747
12262.765784 79.633 -144.2338
12351.626840 79.806 -142.6020
12441.131819 80.013 -140.8806
12531.285389 80.266 -139.0952
12622.092249 80.576 -137.3012
12713.557132 80.954 -135.5870
12805.684808 81.404 -134.0739
12898.480079 81.925 -132.9079
12991.947783 82.508 -132.2444
13086.092792 83.134 -132.2270
13180.920015 83.778 -132.9665
13276.434395 84.411 -134.5242
13372.640911 85.001 -136.9032
13469.544580 85.518 -140.0457
13567.150452 85.934 -143.8363
13665.463617 86.229 -148.1106
13764.489200 86.391 -152.6691
13864.232362 86.414 -157.2962
13964.698305 86.307 -161.7838
14065.892266 86.083 -165.9526
14167.819519 85.762 -169.6687
14270.485380 85.371 -172.8532
14373.895200 84.932 -175.4823
14478.054370 84.469 -177.5806
14582.968320 83.998 -179.2077
14688.642520 83.528 179.5618
14795.082478 83.063 178.6648
14902.293745 82.597 178.0783
15010.281908 82.123 177.8436
15119.052599 81.640 178.0730
15228.611486 81.156 178.9192
15338.964283 80.701 -179.5048
15450.116741 80.315 -177.2333
15562.074656 80.042 -174.5092
15674.843864 79.904 -171.7251
15788.430244 79.892 -169.2742
15902.839718 79.977 -167.4235
16018.078250 80.118 -166.2837
16134.151848 80.279 -165.8492
16251.066563 80.429 -166.0518
16368.828491 80.545 -166.7971
16487.443769 80.611 -167.9816
16606.918584 80.614 -169.4990
16727.259161 80.549 -171.2421
16848.471777 80.411 -173.1047
16970.562748 80.201 -174.9845
17093.538442 79.920 -176.7868
17217.405268 79.577 -178.4289
17342.169684 79.179 -179.8438
17467.838194 78.738 179.0165
17594.417350 78.265 178.1782
17721.913751 77.773 177.6445
17850.334044 77.275 177.3960
17979.684923 76.782 177.3922
18109.973131 76.302 177.5753
18241.205462 75.843 177.8772
18373.388756 75.407 178.2273
18506.529905 74.993 178.5637
18640.635849 74.598 178.8415
18775.713581 74.215 179.0396
18911.770141 73.837 179.1598
19048.812624 73.459 179.2213
19186.848172 73.079 179.2493
19325.883983 72.700 179.2631
19465.927305 72.331 179.2685
19606.985439 71.985 179.2587
19749.065738 71.687 179.2253
19892.175609 71.464 179.1744
20036.322514 71.344 179.1334
