* Measurement data measured by REW V5.31.3
* Source: Headset (2- CX31993 HIFI AUDIO), MICROPHONE (Master Volume), R, volume: 0.300
* Format: 256k Log Swept Sine, 1 sweep at -11.9 dBFS with no timing reference
* Dated: 09 27, 25 12:16:06 PM
* REW Settings:
*  C-weighting compensation: Off
*  Target level: 75.0 dB
* Note: ; 
* Measurement: Elysian Pilgrim L
* Smoothing: 1/12 octave
* Frequency Step: 96 ppo
* Start Frequency: 0.36621094 Hz
*
* Freq(Hz) SPL(dB) Phase(degrees)
0.366211 46.475 -27.5789
0.368865 46.477 -27.6346
0.371538 46.479 -27.7179
0.374230 46.482 -27.8219
0.376942 46.485 -27.9411
0.379673 46.488 -28.0711
0.382424 46.492 -28.2093
0.385196 46.495 -28.3538
0.387987 46.499 -28.5038
0.390798 46.502 -28.6586
0.393630 46.506 -28.8181
0.396483 46.510 -28.9820
0.399356 46.514 -29.1503
0.402250 46.517 -29.3231
0.405165 46.521 -29.5004
0.408101 46.525 -29.6820
0.411058 46.529 -29.8682
0.414037 46.533 -30.0589
0.417037 46.536 -30.2541
0.420059 46.540 -30.4538
0.423103 46.544 -30.6582
0.426169 46.548 -30.8672
0.429257 46.552 -31.0808
0.432368 46.556 -31.2990
0.435501 46.560 -31.5220
0.438656 46.565 -31.7497
0.441835 46.569 -31.9821
0.445037 46.573 -32.2193
0.448262 46.577 -32.4613
0.451510 46.581 -32.7080
0.454782 46.586 -32.9596
0.458077 46.590 -33.2160
0.461397 46.594 -33.4772
0.464740 46.598 -33.7433
0.468108 46.603 -34.0143
0.471500 46.607 -34.2902
0.474917 46.612 -34.5710
0.478358 46.616 -34.8567
0.481825 46.621 -35.1473
0.485316 46.625 -35.4429
0.488833 46.630 -35.7435
0.492375 46.634 -36.0490
0.495943 46.639 -36.3595
0.499537 46.644 -36.6750
0.503157 46.648 -36.9955
0.506803 46.653 -37.3210
0.510475 46.658 -37.6516
0.514175 46.663 -37.9871
0.517900 46.667 -38.3278
0.521653 46.672 -38.6735
0.525434 46.677 -39.0243
0.529241 46.682 -39.3801
0.533076 46.687 -39.7411
0.536939 46.692 -40.1073
0.540830 46.697 -40.4785
0.544749 46.702 -40.8549
0.548696 46.707 -41.2366
0.552673 46.713 -41.6234
0.556677 46.718 -42.0155
0.560711 46.723 -42.4128
0.564774 46.728 -42.8154
0.568867 46.734 -43.2234
0.572989 46.739 -43.6368
0.577141 46.744 -44.0555
0.581324 46.750 -44.4797
0.585536 46.755 -44.9095
0.589779 46.761 -45.3448
0.594053 46.766 -45.7857
0.598358 46.772 -46.2323
0.602694 46.778 -46.6846
0.607061 46.783 -47.1428
0.611460 46.789 -47.6070
0.615891 46.795 -48.0771
0.620354 46.801 -48.5534
0.624849 46.806 -49.0358
0.629377 46.812 -49.5246
0.633938 46.818 -50.0199
0.638532 46.824 -50.5217
0.643159 46.830 -51.0303
0.647819 46.836 -51.5458
0.652514 46.842 -52.0683
0.657242 46.848 -52.5981
0.662005 46.855 -53.1353
0.666802 46.861 -53.6802
0.671634 46.867 -54.2330
0.676501 46.874 -54.7939
0.681403 46.880 -55.3632
0.686341 46.886 -55.9411
0.691314 46.893 -56.5280
0.696324 46.899 -57.1243
0.701370 46.906 -57.7302
0.706452 46.913 -58.3462
0.711571 46.921 -58.9729
0.716728 46.929 -59.6109
0.721921 46.938 -60.2607
0.727153 46.948 -60.9234
0.732422 46.960 -61.5997
0.737729 46.973 -62.2908
0.743075 46.989 -62.9973
0.748460 47.005 -63.7198
0.753883 47.023 -64.4588
0.759346 47.041 -65.2141
0.764849 47.060 -65.9857
0.770391 47.080 -66.7734
0.775974 47.099 -67.5769
0.781597 47.119 -68.3958
0.787261 47.139 -69.2298
0.792966 47.160 -70.0785
0.798712 47.180 -70.9414
0.804500 47.201 -71.8182
0.810329 47.223 -72.7084
0.816201 47.245 -73.6115
0.822116 47.267 -74.5271
0.828073 47.290 -75.4548
0.834074 47.313 -76.3941
0.840118 47.337 -77.3445
0.846206 47.361 -78.3058
0.852338 47.386 -79.2773
0.858514 47.412 -80.2588
0.864735 47.438 -81.2499
0.871001 47.465 -82.2501
0.877313 47.493 -83.2593
0.883670 47.521 -84.2770
0.890074 47.551 -85.3030
0.896524 47.581 -86.3371
0.903020 47.612 -87.3791
0.909564 47.644 -88.4288
0.916155 47.677 -89.4860
0.922794 47.712 -90.5508
0.929481 47.747 -91.6231
0.936216 47.784 -92.7029
0.943000 47.822 -93.7903
0.949834 47.861 -94.8854
0.956717 47.902 -95.9884
0.963649 47.944 -97.0995
0.970632 47.987 -98.2190
0.977666 48.032 -99.3472
0.984750 48.079 -100.4845
0.991886 48.128 -101.6314
0.999074 48.178 -102.7884
1.006314 48.230 -103.9561
1.013606 48.285 -105.1351
1.020951 48.341 -106.3260
1.028349 48.399 -107.5297
1.035801 48.460 -108.7469
1.043307 48.523 -109.9784
1.050867 48.588 -111.2252
1.058482 48.656 -112.4882
1.066152 48.726 -113.7683
1.073878 48.800 -115.0664
1.081660 48.876 -116.3831
1.089498 48.955 -117.7189
1.097393 49.037 -119.0738
1.105345 49.122 -120.4469
1.113355 49.211 -121.8371
1.121423 49.303 -123.2424
1.129549 49.399 -124.6608
1.137734 49.498 -126.0901
1.145979 49.601 -127.5279
1.154283 49.707 -128.9721
1.162647 49.817 -130.4205
1.171072 49.930 -131.8712
1.179558 50.046 -133.3223
1.188106 50.165 -134.7722
1.196715 50.288 -136.2192
1.205387 50.414 -137.6619
1.214122 50.543 -139.0992
1.222920 50.675 -140.5300
1.231782 50.810 -141.9534
1.240708 50.948 -143.3686
1.249699 51.088 -144.7750
1.258754 51.231 -146.1723
1.267876 51.377 -147.5602
1.277063 51.525 -148.9386
1.286318 51.676 -150.3074
1.295639 51.829 -151.6668
1.305027 51.984 -153.0171
1.314484 52.141 -154.3586
1.324009 52.300 -155.6919
1.333604 52.460 -157.0174
1.343268 52.623 -158.3358
1.353002 52.786 -159.6479
1.362806 52.951 -160.9544
1.372681 53.117 -162.2561
1.382628 53.284 -163.5540
1.392647 53.452 -164.8489
1.402739 53.620 -166.1416
1.412904 53.789 -167.4329
1.423142 53.958 -168.7235
1.433455 54.128 -170.0135
1.443843 54.298 -171.3029
1.454305 54.468 -172.5905
1.464844 54.640 -173.8748
1.475459 54.813 -175.1531
1.486150 54.987 -176.4228
1.496920 55.163 -177.6814
1.507767 55.342 -178.9268
1.518693 55.523 179.8420
1.529698 55.706 178.6259
1.540783 55.892 177.4251
1.551948 56.079 176.2395
1.563194 56.269 175.0686
1.574521 56.461 173.9118
1.585931 56.655 172.7683
1.597423 56.850 171.6372
1.608999 57.047 170.5174
1.620658 57.246 169.4078
1.632402 57.447 168.3071
1.644232 57.648 167.2140
1.656146 57.851 166.1272
1.668147 58.055 165.0454
1.680235 58.259 163.9670
1.692411 58.465 162.8908
1.704675 58.671 161.8152
1.717028 58.877 160.7387
1.729470 59.083 159.6600
1.742003 59.290 158.5777
1.754626 59.496 157.4905
1.767341 59.702 156.3971
1.780147 59.907 155.2967
1.793047 60.112 154.1887
1.806040 60.316 153.0732
1.819128 60.519 151.9510
1.832310 60.722 150.8240
1.845587 60.925 149.6945
1.858961 61.127 148.5654
1.872432 61.329 147.4393
1.886001 61.531 146.3181
1.899667 61.733 145.2035
1.913433 61.935 144.0963
1.927299 62.137 142.9969
1.941265 62.339 141.9057
1.955332 62.541 140.8224
1.969501 62.743 139.7468
1.983773 62.945 138.6783
1.998148 63.147 137.6162
2.012627 63.349 136.5598
2.027212 63.551 135.5082
2.041902 63.753 134.4604
2.056698 63.955 133.4153
2.071602 64.157 132.3718
2.086614 64.358 131.3286
2.101734 64.560 130.2845
2.116964 64.761 129.2383
2.132304 64.962 128.1891
2.147756 65.163 127.1357
2.163320 65.363 126.0776
2.178996 65.563 125.0146
2.194786 65.763 123.9474
2.210690 65.962 122.8769
2.226710 66.161 121.8047
2.242845 66.359 120.7327
2.259098 66.557 119.6620
2.275468 66.754 118.5941
2.291957 66.950 117.5295
2.308566 67.146 116.4688
2.325295 67.341 115.4122
2.342145 67.536 114.3597
2.359117 67.730 113.3110
2.376212 67.924 112.2658
2.393431 68.117 111.2235
2.410775 68.310 110.1834
2.428244 68.502 109.1448
2.445840 68.694 108.1066
2.463564 68.886 107.0680
2.481416 69.077 106.0280
2.499397 69.268 104.9854
2.517509 69.458 103.9394
2.535752 69.648 102.8894
2.554127 69.838 101.8348
2.572635 70.027 100.7759
2.591277 70.215 99.7132
2.610055 70.403 98.6476
2.628968 70.590 97.5802
2.648019 70.776 96.5120
2.667208 70.961 95.4439
2.686535 71.146 94.3766
2.706003 71.330 93.3107
2.725612 71.513 92.2464
2.745363 71.695 91.1840
2.765257 71.876 90.1233
2.785295 72.057 89.0640
2.805478 72.238 88.0059
2.825808 72.417 86.9483
2.846285 72.596 85.8906
2.866910 72.775 84.8318
2.887685 72.953 83.7713
2.908611 73.130 82.7081
2.929688 73.307 81.6414
2.950917 73.483 80.5710
2.972301 73.658 79.4968
2.993839 73.832 78.4194
3.015534 74.006 77.3394
3.037386 74.178 76.2577
3.059396 74.349 75.1753
3.081565 74.520 74.0930
3.103896 74.689 73.0114
3.126388 74.858 71.9309
3.149043 75.026 70.8519
3.171862 75.193 69.7745
3.194847 75.359 68.6985
3.217998 75.525 67.6234
3.241317 75.690 66.5487
3.264805 75.854 65.4735
3.288463 76.018 64.3967
3.312293 76.180 63.3175
3.336295 76.342 62.2351
3.360471 76.502 61.1495
3.384822 76.662 60.0610
3.409350 76.820 58.9704
3.434056 76.978 57.8785
3.458940 77.134 56.7864
3.484005 77.290 55.6949
3.509252 77.444 54.6047
3.534681 77.598 53.5165
3.560295 77.750 52.4304
3.586094 77.902 51.3463
3.612081 78.054 50.2639
3.638255 78.204 49.1823
3.664620 78.353 48.1005
3.691175 78.501 47.0174
3.717923 78.649 45.9322
3.744864 78.795 44.8448
3.772001 78.940 43.7554
3.799335 79.084 42.6650
3.826866 79.227 41.5744
3.854597 79.369 40.4846
3.882529 79.510 39.3965
3.910664 79.650 38.3109
3.939002 79.790 37.2280
3.967546 79.928 36.1479
3.996296 80.065 35.0701
4.025255 80.202 33.9938
4.054423 80.337 32.9179
4.083804 80.472 31.8414
4.113396 80.605 30.7640
4.143204 80.738 29.6857
4.173227 80.869 28.6072
4.203468 81.000 27.5292
4.233928 81.129 26.4528
4.264609 81.257 25.3787
4.295512 81.385 24.3076
4.326639 81.512 23.2397
4.357992 81.637 22.1750
4.389572 81.762 21.1128
4.421380 81.886 20.0521
4.453419 82.010 18.9921
4.485691 82.132 17.9324
4.518196 82.253 16.8729
4.550936 82.373 15.8142
4.583914 82.492 14.7569
4.617131 82.611 13.7018
4.650589 82.728 12.6494
4.684289 82.845 11.6004
4.718233 82.961 10.5546
4.752424 83.076 9.5118
4.786862 83.190 8.4712
4.821549 83.304 7.4321
4.856488 83.416 6.3940
4.891680 83.528 5.3569
4.927127 83.639 4.3212
4.962831 83.749 3.2874
4.998794 83.858 2.2559
5.035017 83.966 1.2274
5.071503 84.074 0.2020
5.108253 84.181 -0.8206
5.145270 84.287 -1.8406
5.182555 84.393 -2.8589
5.220110 84.498 -3.8757
5.257937 84.601 -4.8912
5.296038 84.705 -5.9052
5.334415 84.807 -6.9172
5.373071 84.909 -7.9270
5.412006 85.009 -8.9341
5.451224 85.110 -9.9384
5.490725 85.209 -10.9403
5.530514 85.308 -11.9401
5.570590 85.406 -12.9384
5.610957 85.503 -13.9352
5.651616 85.600 -14.9306
5.692570 85.696 -15.9243
5.733821 85.791 -16.9158
5.775370 85.885 -17.9050
5.817221 85.979 -18.8917
5.859375 86.072 -19.8762
5.901834 86.164 -20.8588
5.944602 86.255 -21.8397
5.987679 86.346 -22.8192
6.031068 86.436 -23.7972
6.074771 86.525 -24.7734
6.118792 86.614 -25.7473
6.163131 86.702 -26.7190
6.207792 86.789 -27.6882
6.252776 86.875 -28.6554
6.298086 86.961 -29.6207
6.343725 87.046 -30.5845
6.389694 87.130 -31.5466
6.435996 87.213 -32.5067
6.482634 87.296 -33.4648
6.529610 87.378 -34.4204
6.576926 87.459 -35.3737
6.624585 87.539 -36.3248
6.672590 87.619 -37.2740
6.720942 87.698 -38.2214
6.769645 87.776 -39.1669
6.818700 87.854 -40.1104
6.868111 87.931 -41.0516
6.917881 88.007 -41.9906
6.968010 88.082 -42.9272
7.018504 88.157 -43.8618
7.069362 88.231 -44.7946
7.120590 88.304 -45.7255
7.172189 88.377 -46.6544
7.224161 88.449 -47.5813
7.276511 88.520 -48.5060
7.329239 88.590 -49.4285
7.382350 88.660 -50.3491
7.435845 88.729 -51.2678
7.489729 88.797 -52.1848
7.544002 88.865 -53.0999
7.598669 88.931 -54.0128
7.653732 88.997 -54.9237
7.709194 89.063 -55.8325
7.765058 89.127 -56.7393
7.821327 89.191 -57.6442
7.878004 89.254 -58.5470
7.935091 89.316 -59.4476
7.992592 89.377 -60.3458
8.050510 89.437 -61.2415
8.108847 89.497 -62.1346
8.167607 89.555 -63.0252
8.226793 89.613 -63.9132
8.286408 89.670 -64.7984
8.346454 89.727 -65.6804
8.406936 89.782 -66.5591
8.467856 89.836 -67.4343
8.529218 89.890 -68.3062
8.591024 89.943 -69.1744
8.653278 89.995 -70.0389
8.715983 90.047 -70.8994
8.779143 90.097 -71.7558
8.842760 90.148 -72.6080
8.906839 90.197 -73.4560
8.971381 90.246 -74.2999
9.036392 90.294 -75.1396
9.101873 90.342 -75.9752
9.167829 90.389 -76.8067
9.234263 90.436 -77.6343
9.301178 90.483 -78.4581
9.368578 90.529 -79.2785
9.436467 90.575 -80.0957
9.504847 90.621 -80.9101
9.573723 90.666 -81.7219
9.643099 90.712 -82.5316
9.712976 90.757 -83.3395
9.783361 90.801 -84.1460
9.854255 90.846 -84.9516
9.925663 90.890 -85.7567
9.997588 90.934 -86.5615
10.070035 90.977 -87.3665
10.143007 91.020 -88.1718
10.216507 91.063 -88.9775
10.290540 91.104 -89.7839
10.365109 91.145 -90.5909
10.440219 91.186 -91.3986
10.515873 91.225 -92.2064
10.592076 91.263 -93.0141
10.668830 91.300 -93.8214
10.746141 91.336 -94.6277
10.824012 91.371 -95.4325
10.902447 91.405 -96.2349
10.981451 91.437 -97.0339
11.061027 91.468 -97.8291
11.141180 91.498 -98.6194
11.221913 91.527 -99.4042
11.303232 91.554 -100.1824
11.385140 91.581 -100.9534
11.467641 91.607 -101.7166
11.550741 91.632 -102.4714
11.634442 91.657 -103.2178
11.718750 91.681 -103.9553
11.803669 91.705 -104.6843
11.889203 91.730 -105.4048
11.975357 91.754 -106.1177
12.062136 91.779 -106.8238
12.149543 91.805 -107.5239
12.237583 91.831 -108.2192
12.326262 91.858 -108.9110
12.415583 91.886 -109.6010
12.505552 91.915 -110.2905
12.596172 91.945 -110.9809
12.687449 91.975 -111.6736
12.779387 92.005 -112.3699
12.871992 92.036 -113.0707
12.965268 92.067 -113.7769
13.059220 92.098 -114.4888
13.153852 92.128 -115.2065
13.249170 92.158 -115.9299
13.345179 92.186 -116.6584
13.441884 92.214 -117.3911
13.539289 92.240 -118.1267
13.637401 92.264 -118.8638
13.736223 92.287 -119.6010
13.835761 92.308 -120.3363
13.936021 92.328 -121.0681
14.037007 92.346 -121.7949
14.138725 92.362 -122.5152
14.241180 92.378 -123.2277
14.344377 92.392 -123.9314
14.448323 92.406 -124.6257
14.553021 92.419 -125.3107
14.658478 92.432 -125.9863
14.764700 92.445 -126.6531
14.871691 92.459 -127.3120
14.979457 92.473 -127.9641
15.088005 92.487 -128.6108
15.197339 92.502 -129.2533
15.307465 92.517 -129.8929
15.418389 92.533 -130.5310
15.530117 92.549 -131.1683
15.642655 92.565 -131.8055
15.756008 92.582 -132.4429
15.870182 92.598 -133.0806
15.985184 92.613 -133.7182
16.101019 92.629 -134.3552
16.217694 92.644 -134.9910
16.335214 92.658 -135.6250
16.453586 92.672 -136.2565
16.572815 92.686 -136.8853
16.692909 92.700 -137.5112
16.813872 92.713 -138.1349
16.935713 92.727 -138.7571
17.058436 92.742 -139.3791
17.182048 92.756 -140.0024
17.306556 92.772 -140.6290
17.431967 92.787 -141.2606
17.558286 92.802 -141.8990
17.685521 92.817 -142.5455
17.813677 92.831 -143.2008
17.942762 92.844 -143.8650
18.072783 92.855 -144.5373
18.203746 92.863 -145.2159
18.335658 92.869 -145.8984
18.468526 92.872 -146.5814
18.602356 92.872 -147.2612
18.737156 92.869 -147.9336
18.872934 92.863 -148.5948
19.009695 92.855 -149.2411
19.147447 92.845 -149.8698
19.286197 92.834 -150.4792
19.425953 92.822 -151.0690
19.566721 92.811 -151.6401
19.708510 92.802 -152.1952
19.851326 92.794 -152.7379
19.995177 92.788 -153.2728
20.140070 92.785 -153.8053
20.286013 92.784 -154.3404
20.433014 92.785 -154.8827
20.581080 92.787 -155.4359
20.730219 92.789 -156.0021
20.880439 92.792 -156.5818
21.031747 92.793 -157.1741
21.184152 92.792 -157.7761
21.337661 92.789 -158.3842
21.492282 92.783 -158.9937
21.648024 92.775 -159.5999
21.804895 92.765 -160.1984
21.962902 92.754 -160.7861
22.122054 92.742 -161.3607
22.282360 92.730 -161.9220
22.443827 92.718 -162.4713
22.606464 92.708 -163.0117
22.770280 92.700 -163.5471
22.935283 92.694 -164.0822
23.101481 92.690 -164.6215
23.268884 92.686 -165.1691
23.437500 92.684 -165.7275
23.607338 92.682 -166.2979
23.778406 92.679 -166.8793
23.950714 92.674 -167.4697
24.124271 92.668 -168.0654
24.299086 92.659 -168.6622
24.475167 92.649 -169.2557
24.652524 92.637 -169.8424
24.831166 92.624 -170.4194
25.011103 92.610 -170.9855
25.192344 92.596 -171.5410
25.374898 92.583 -172.0874
25.558775 92.571 -172.6272
25.743984 92.560 -173.1634
25.930536 92.550 -173.6987
26.118439 92.541 -174.2354
26.307704 92.531 -174.7745
26.498341 92.522 -175.3162
26.690359 92.512 -175.8599
26.883768 92.502 -176.4042
27.078579 92.491 -176.9480
27.274801 92.480 -177.4903
27.472446 92.469 -178.0310
27.671522 92.457 -178.5706
27.872042 92.445 -179.1100
28.074014 92.433 -179.6505
28.277450 92.421 179.8071
28.482360 92.408 179.2632
28.688755 92.393 178.7189
28.896645 92.377 178.1768
29.106042 92.359 177.6401
29.316957 92.340 177.1125
29.529400 92.321 176.5964
29.743382 92.301 176.0931
29.958915 92.282 175.6016
30.176009 92.264 175.1188
30.394677 92.248 174.6396
30.614929 92.234 174.1586
30.836778 92.221 173.6702
31.060234 92.210 173.1708
31.285309 92.198 172.6591
31.512015 92.184 172.1368
31.740364 92.169 171.6082
31.970368 92.151 171.0789
32.202039 92.132 170.5547
32.435388 92.110 170.0403
32.670428 92.088 169.5379
32.907171 92.067 169.0467
33.145630 92.046 168.5634
33.385817 92.027 168.0833
33.627745 92.009 167.6012
33.871425 91.991 167.1136
34.116871 91.973 166.6192
34.364096 91.954 166.1192
34.613113 91.934 165.6168
34.863934 91.912 165.1160
35.116572 91.889 164.6205
35.371041 91.866 164.1322
35.627354 91.842 163.6506
35.885525 91.819 163.1732
36.145566 91.797 162.6962
36.407492 91.776 162.2157
36.671316 91.754 161.7285
36.937051 91.733 161.2334
37.204712 91.710 160.7310
37.474313 91.686 160.2231
37.745867 91.660 159.7129
38.019389 91.632 159.2034
38.294893 91.603 158.6974
38.572394 91.573 158.1967
38.851905 91.542 157.7020
39.133442 91.511 157.2133
39.417019 91.480 156.7290
39.702651 91.449 156.2471
39.990353 91.419 155.7650
40.280140 91.388 155.2808
40.572026 91.358 154.7937
40.866028 91.326 154.3043
41.162160 91.294 153.8148
41.460438 91.261 153.3286
41.760877 91.226 152.8486
42.063494 91.192 152.3765
42.368303 91.157 151.9123
42.675322 91.123 151.4537
42.984565 91.090 150.9979
43.296048 91.057 150.5417
43.609789 91.025 150.0835
43.925804 90.992 149.6230
44.244108 90.958 149.1617
44.564719 90.924 148.7017
44.887654 90.889 148.2452
45.212928 90.854 147.7936
45.540560 90.819 147.3473
45.870565 90.783 146.9049
46.202962 90.749 146.4644
46.537768 90.715 146.0225
46.875000 90.681 145.5764
47.214676 90.647 145.1240
47.556813 90.612 144.6651
47.901429 90.576 144.2015
48.248542 90.539 143.7369
48.598171 90.499 143.2756
48.950334 90.458 142.8210
49.305048 90.417 142.3754
49.662333 90.375 141.9386
50.022206 90.333 141.5094
50.384688 90.291 141.0857
50.749796 90.250 140.6655
51.117550 90.209 140.2473
51.487969 90.168 139.8301
51.861072 90.128 139.4136
52.236879 90.087 138.9975
52.615409 90.046 138.5816
52.996681 90.005 138.1656
53.380717 89.964 137.7486
53.767536 89.923 137.3295
54.157158 89.882 136.9072
54.549603 89.840 136.4815
54.944892 89.798 136.0533
55.343045 89.754 135.6245
55.744084 89.710 135.1974
56.148028 89.665 134.7739
56.554900 89.620 134.3546
56.964720 89.575 133.9387
57.377510 89.530 133.5258
57.793291 89.485 133.1158
58.212085 89.440 132.7100
58.633914 89.394 132.3101
59.058799 89.348 131.9169
59.486764 89.303 131.5299
59.917829 89.258 131.1475
60.352019 89.214 130.7676
60.789354 89.170 130.3887
61.229859 89.125 130.0095
61.673556 89.081 129.6298
62.120468 89.035 129.2495
62.570618 88.989 128.8695
63.024031 88.941 128.4911
63.480729 88.893 128.1150
63.940736 88.844 127.7412
64.404077 88.795 127.3691
64.870776 88.745 126.9984
65.340856 88.695 126.6291
65.814343 88.645 126.2617
66.291261 88.595 125.8961
66.771635 88.545 125.5312
67.255489 88.496 125.1661
67.742850 88.446 124.8003
68.233743 88.397 124.4341
68.728193 88.348 124.0682
69.226226 88.298 123.7032
69.727867 88.248 123.3399
70.233144 88.198 122.9789
70.742083 88.148 122.6207
71.254709 88.098 122.2657
71.771050 88.047 121.9141
72.291132 87.996 121.5662
72.814984 87.945 121.2227
73.342631 87.894 120.8831
73.874102 87.844 120.5464
74.409424 87.794 120.2112
74.948626 87.744 119.8756
75.491734 87.695 119.5388
76.038779 87.646 119.1995
76.589787 87.597 118.8564
77.144788 87.548 118.5089
77.703811 87.497 118.1587
78.266885 87.445 117.8110
78.834039 87.391 117.4719
79.405303 87.336 117.1459
79.980706 87.280 116.8335
80.560280 87.224 116.5333
81.144053 87.169 116.2431
81.732056 87.114 115.9605
82.324320 87.060 115.6828
82.920876 87.008 115.4073
83.521755 86.956 115.1310
84.126988 86.905 114.8513
84.736607 86.855 114.5668
85.350643 86.805 114.2787
85.969129 86.754 113.9902
86.592097 86.704 113.7040
87.219579 86.654 113.4210
87.851608 86.605 113.1411
88.488217 86.555 112.8636
89.129439 86.506 112.5876
89.775308 86.457 112.3109
90.425856 86.408 112.0309
91.081119 86.359 111.7460
91.741131 86.308 111.4564
92.405925 86.255 111.1648
93.075536 86.201 110.8749
93.750000 86.146 110.5911
94.429351 86.089 110.3162
95.113625 86.033 110.0494
95.802858 85.978 109.7885
96.497085 85.925 109.5305
97.196342 85.872 109.2729
97.900667 85.820 109.0134
98.610096 85.769 108.7505
99.324665 85.718 108.4848
100.044413 85.666 108.2194
100.769376 85.615 107.9570
101.499592 85.565 107.6987
102.235100 85.515 107.4438
102.975938 85.467 107.1896
103.722144 85.420 106.9324
104.473757 85.374 106.6699
105.230817 85.327 106.4020
105.993363 85.279 106.1323
106.761435 85.229 105.8677
107.535072 85.177 105.6162
108.314315 85.124 105.3831
109.099206 85.071 105.1682
109.889783 85.019 104.9659
110.686090 84.969 104.7690
111.488167 84.921 104.5710
112.296056 84.874 104.3677
113.109800 84.828 104.1586
113.929440 84.782 103.9459
114.755020 84.736 103.7322
115.586582 84.688 103.5190
116.424170 84.639 103.3055
117.267827 84.589 103.0905
118.117598 84.539 102.8737
118.973527 84.490 102.6554
119.835658 84.442 102.4349
120.704037 84.396 102.2122
121.578708 84.353 101.9897
122.459718 84.310 101.7734
123.347111 84.267 101.5708
124.240935 84.222 101.3903
125.141236 84.174 101.2413
126.048061 84.122 101.1286
126.961458 84.069 101.0432
127.881473 84.015 100.9657
128.808154 83.963 100.8779
129.741551 83.912 100.7723
130.681712 83.864 100.6541
131.628686 83.817 100.5365
132.582521 83.774 100.4343
133.543269 83.731 100.3618
134.510979 83.687 100.3300
135.485701 83.640 100.3413
136.467486 83.592 100.3878
137.456386 83.543 100.4493
138.452451 83.496 100.4943
139.455735 83.457 100.4849
140.466288 83.427 100.3923
141.484165 83.407 100.2144
142.509418 83.397 99.9684
143.542100 83.397 99.6760
144.582265 83.404 99.3604
145.629968 83.412 99.0458
146.685262 83.418 98.7501
147.748204 83.419 98.4778
148.818849 83.413 98.2219
149.897251 83.402 97.9703
150.983469 83.384 97.7141
152.077557 83.364 97.4482
153.179574 83.342 97.1693
154.289576 83.321 96.8766
155.407622 83.300 96.5746
156.533770 83.280 96.2696
157.668078 83.259 95.9672
158.810606 83.237 95.6702
159.961413 83.214 95.3790
161.120559 83.189 95.0891
162.288105 83.162 94.7947
163.464112 83.133 94.4927
164.648640 83.102 94.1844
165.841752 83.071 93.8758
167.043510 83.040 93.5756
168.253976 83.009 93.2928
169.473213 82.980 93.0303
170.701286 82.953 92.7831
171.938258 82.926 92.5439
173.184194 82.898 92.3068
174.439158 82.870 92.0685
175.703216 82.843 91.8268
176.976434 82.817 91.5790
178.258878 82.793 91.3247
179.550615 82.772 91.0694
180.851713 82.752 90.8232
182.162239 82.733 90.5941
183.482262 82.713 90.3809
184.811850 82.692 90.1740
186.151073 82.669 89.9627
187.500000 82.641 89.7424
188.858702 82.611 89.5154
190.227250 82.579 89.2850
191.605715 82.548 89.0516
192.994169 82.518 88.8137
194.392685 82.492 88.5699
195.801334 82.468 88.3192
197.220191 82.446 88.0619
198.649330 82.425 87.8007
200.088825 82.405 87.5389
201.538751 82.385 87.2789
202.999184 82.365 87.0211
204.470200 82.345 86.7645
205.951875 82.325 86.5087
207.444287 82.304 86.2545
208.947514 82.284 86.0038
210.461634 82.263 85.7574
211.986726 82.243 85.5135
213.522869 82.222 85.2671
215.070144 82.201 85.0116
216.628631 82.179 84.7443
218.198411 82.157 84.4679
219.779567 82.135 84.1880
221.372180 82.114 83.9099
222.976334 82.093 83.6365
224.592112 82.073 83.3678
226.219600 82.054 83.1015
227.858880 82.035 82.8356
229.510039 82.017 82.5694
231.173164 81.998 82.3035
232.848340 81.979 82.0387
234.535655 81.958 81.7762
236.235197 81.935 81.5182
237.947054 81.911 81.2651
239.671317 81.887 81.0145
241.408074 81.862 80.7644
243.157416 81.838 80.5147
244.919435 81.813 80.2669
246.694223 81.789 80.0222
248.481871 81.764 79.7810
250.282473 81.738 79.5443
252.096123 81.714 79.3130
253.922915 81.691 79.0879
255.762945 81.669 78.8686
257.616309 81.648 78.6564
259.483103 81.627 78.4548
261.363424 81.607 78.2678
263.257372 81.586 78.0983
265.165043 81.566 77.9474
267.086538 81.548 77.8138
269.021957 81.534 77.6943
270.971401 81.525 77.5858
272.934972 81.521 77.4860
274.912771 81.523 77.3905
276.904902 81.531 77.2878
278.911469 81.544 77.1606
280.932577 81.560 76.9921
282.968330 81.579 76.7715
285.018835 81.597 76.4955
287.084199 81.615 76.1673
289.164530 81.629 75.7943
291.259935 81.640 75.3890
293.370525 81.645 74.9672
295.496408 81.646 74.5437
297.637697 81.643 74.1289
299.794503 81.635 73.7281
301.966937 81.624 73.3423
304.155114 81.610 72.9697
306.359147 81.593 72.6074
308.579152 81.574 72.2521
310.815244 81.555 71.9018
313.067539 81.536 71.5560
315.336156 81.518 71.2157
317.621211 81.501 70.8834
319.922826 81.484 70.5612
322.241118 81.468 70.2485
324.576210 81.451 69.9428
326.928223 81.434 69.6426
329.297280 81.416 69.3487
331.683504 81.400 69.0630
334.087019 81.383 68.7865
336.507952 81.366 68.5170
338.946427 81.350 68.2510
341.402572 81.334 67.9857
343.876516 81.318 67.7193
346.368387 81.301 67.4509
348.878315 81.284 67.1806
351.406431 81.267 66.9099
353.952867 81.251 66.6407
356.517756 81.236 66.3749
359.101230 81.221 66.1135
361.703426 81.205 65.8569
364.324478 81.190 65.6046
366.964523 81.175 65.3564
369.623699 81.160 65.1124
372.302145 81.144 64.8724
375.000000 81.129 64.6353
377.717405 81.114 64.3987
380.454501 81.099 64.1600
383.211431 81.085 63.9181
385.988339 81.071 63.6742
388.785369 81.057 63.4316
391.602668 81.044 63.1944
394.440383 81.032 62.9650
397.298660 81.021 62.7429
400.177650 81.011 62.5254
403.077502 81.002 62.3088
405.998368 80.994 62.0887
408.940400 80.985 61.8607
411.903750 80.976 61.6216
414.888575 80.965 61.3706
417.895028 80.952 61.1102
420.923268 80.936 60.8451
423.973452 80.919 60.5817
427.045738 80.900 60.3267
430.140287 80.880 60.0853
433.257261 80.860 59.8604
436.396822 80.841 59.6523
439.559133 80.822 59.4586
442.744360 80.804 59.2750
445.952668 80.788 59.0970
449.184225 80.773 58.9208
452.439199 80.759 58.7448
455.717760 80.746 58.5686
459.020079 80.734 58.3932
462.346327 80.722 58.2191
465.696680 80.710 58.0462
469.071310 80.698 57.8744
472.470394 80.687 57.7036
475.894109 80.675 57.5340
479.342634 80.664 57.3661
482.816148 80.652 57.2000
486.314833 80.641 57.0357
489.838871 80.630 56.8735
493.388445 80.618 56.7139
496.963741 80.607 56.5573
500.564945 80.596 56.4041
504.192245 80.585 56.2540
507.845830 80.574 56.1069
511.525890 80.563 55.9630
515.232618 80.553 55.8223
518.966206 80.542 55.6846
522.726849 80.532 55.5499
526.514743 80.522 55.4185
530.330086 80.512 55.2903
534.173076 80.502 55.1656
538.043915 80.492 55.0447
541.942803 80.482 54.9274
545.869944 80.473 54.8134
549.825542 80.463 54.7020
553.809805 80.453 54.5934
557.822939 80.444 54.4879
561.865154 80.435 54.3862
565.936660 80.426 54.2885
570.037671 80.417 54.1948
574.168399 80.408 54.1049
578.329060 80.400 54.0189
582.519870 80.391 53.9378
586.741049 80.384 53.8623
590.992817 80.376 53.7927
595.275394 80.369 53.7283
599.589005 80.362 53.6683
603.933874 80.354 53.6122
608.310228 80.347 53.5593
612.718295 80.340 53.5094
617.158304 80.332 53.4629
621.630488 80.325 53.4206
626.135079 80.318 53.3837
630.672311 80.312 53.3528
635.242423 80.306 53.3273
639.845651 80.300 53.3064
644.482237 80.295 53.2896
649.152421 80.291 53.2765
653.856447 80.287 53.2675
658.594560 80.284 53.2637
663.367008 80.281 53.2667
668.174039 80.278 53.2775
673.015903 80.277 53.2957
677.892854 80.275 53.3195
682.805145 80.274 53.3470
687.753032 80.274 53.3772
692.736774 80.273 53.4099
697.756631 80.274 53.4467
702.812863 80.274 53.4891
707.905735 80.275 53.5386
713.035511 80.277 53.5955
718.202461 80.280 53.6602
723.406852 80.283 53.7324
728.648956 80.287 53.8117
733.929047 80.291 53.8973
739.247399 80.295 53.9882
744.604290 80.301 54.0831
750.000000 80.307 54.1813
755.434809 80.313 54.2833
760.909001 80.321 54.3906
766.422861 80.330 54.5051
771.976677 80.339 54.6271
777.570739 80.350 54.7562
783.205337 80.362 54.8910
788.880766 80.376 55.0309
794.597321 80.390 55.1758
800.355301 80.407 55.3259
806.155005 80.424 55.4812
811.996736 80.443 55.6423
817.880799 80.464 55.8098
823.807501 80.485 55.9838
829.777150 80.508 56.1630
835.790057 80.533 56.3454
841.846536 80.559 56.5299
847.946903 80.586 56.7171
854.091476 80.615 56.9085
860.280575 80.647 57.1049
866.514523 80.680 57.3057
872.793644 80.715 57.5099
879.118267 80.753 57.7164
885.488720 80.793 57.9238
891.905336 80.836 58.1301
898.368450 80.881 58.3343
904.878398 80.927 58.5368
911.435520 80.976 58.7390
918.040157 81.026 58.9422
924.692655 81.078 59.1472
931.393359 81.131 59.3540
938.142619 81.187 59.5613
944.940787 81.243 59.7672
951.788218 81.302 59.9697
958.685268 81.362 60.1673
965.632296 81.425 60.3589
972.629666 81.490 60.5436
979.677741 81.557 60.7209
986.776890 81.627 60.8907
993.927482 81.699 61.0528
1001.129891 81.773 61.2062
1008.384491 81.850 61.3499
1015.691660 81.928 61.4831
1023.051781 82.009 61.6055
1030.465236 82.092 61.7165
1037.932411 82.177 61.8156
1045.453698 82.263 61.9017
1053.029486 82.352 61.9739
1060.660172 82.442 62.0312
1068.346153 82.534 62.0731
1076.087829 82.627 62.0985
1083.885605 82.722 62.1069
1091.739887 82.818 62.0976
1099.651084 82.915 62.0699
1107.619609 83.013 62.0237
1115.645878 83.112 61.9585
1123.730308 83.212 61.8741
1131.873321 83.312 61.7703
1140.075341 83.412 61.6471
1148.336797 83.513 61.5041
1156.658119 83.613 61.3409
1165.039741 83.714 61.1569
1173.482099 83.814 60.9520
1181.985634 83.913 60.7261
1190.550789 84.012 60.4798
1199.178011 84.110 60.2136
1207.867749 84.206 59.9282
1216.620457 84.302 59.6243
1225.436590 84.396 59.3027
1234.316609 84.489 58.9641
1243.260976 84.580 58.6095
1252.270157 84.669 58.2401
1261.344623 84.757 57.8568
1270.484846 84.842 57.4606
1279.691303 84.924 57.0524
1288.964474 85.005 56.6329
1298.304842 85.083 56.2026
1307.712894 85.159 55.7625
1317.189120 85.232 55.3137
1326.734016 85.303 54.8574
1336.348077 85.371 54.3947
1346.031806 85.437 53.9268
1355.785708 85.501 53.4551
1365.610290 85.562 52.9810
1375.506065 85.622 52.5057
1385.473549 85.678 52.0306
1395.513261 85.733 51.5568
1405.625726 85.786 51.0851
1415.811469 85.836 50.6163
1426.071023 85.885 50.1505
1436.404921 85.932 49.6877
1446.813703 85.977 49.2281
1457.297912 86.021 48.7720
1467.858093 86.063 48.3201
1478.494798 86.103 47.8726
1489.208581 86.142 47.4301
1500.000000 86.181 46.9929
1510.869618 86.218 46.5615
1521.818002 86.254 46.1365
1532.845723 86.290 45.7181
1543.953355 86.324 45.3065
1555.141477 86.358 44.9011
1566.410674 86.392 44.5015
1577.761531 86.425 44.1072
1589.194642 86.457 43.7181
1600.710601 86.489 43.3344
1612.310010 86.521 42.9558
1623.993473 86.553 42.5822
1635.761599 86.585 42.2130
1647.615002 86.616 41.8475
1659.554299 86.648 41.4854
1671.580114 86.680 41.1266
1683.693072 86.712 40.7712
1695.893807 86.744 40.4189
1708.182952 86.776 40.0691
1720.561150 86.809 39.7210
1733.029045 86.842 39.3740
1745.587288 86.875 39.0276
1758.236533 86.908 38.6817
1770.977440 86.941 38.3361
1783.810673 86.975 37.9910
1796.736900 87.009 37.6459
1809.756796 87.044 37.3007
1822.871040 87.078 36.9543
1836.080315 87.113 36.6061
1849.385310 87.149 36.2553
1862.786718 87.184 35.9016
1876.285239 87.220 35.5447
1889.881575 87.257 35.1844
1903.576436 87.293 34.8202
1917.370535 87.330 34.4517
1931.264593 87.367 34.0787
1945.259332 87.404 33.7009
1959.355483 87.440 33.3178
1973.553781 87.477 32.9289
1987.854965 87.514 32.5341
2002.259781 87.550 32.1334
2016.768981 87.587 31.7269
2031.383320 87.623 31.3147
2046.103561 87.659 30.8967
2060.930471 87.694 30.4727
2075.864823 87.729 30.0427
2090.907395 87.764 29.6065
2106.058972 87.798 29.1641
2121.320344 87.832 28.7154
2136.692305 87.865 28.2605
2152.175658 87.898 27.7995
2167.771210 87.930 27.3323
2183.479774 87.961 26.8590
2199.302169 87.991 26.3799
2215.239219 88.020 25.8952
2231.291755 88.049 25.4051
2247.460615 88.076 24.9094
2263.746641 88.103 24.4081
2280.150683 88.129 23.9015
2296.673595 88.154 23.3897
2313.316238 88.179 22.8729
2330.079481 88.202 22.3506
2346.964198 88.225 21.8226
2363.971268 88.248 21.2882
2381.101578 88.269 20.7471
2398.356022 88.290 20.1985
2415.735498 88.311 19.6409
2433.240913 88.332 19.0728
2450.873180 88.351 18.4921
2468.633217 88.371 17.8970
2486.521951 88.389 17.2855
2504.540314 88.407 16.6550
2522.689246 88.423 16.0025
2540.969692 88.437 15.3253
2559.382606 88.448 14.6212
2577.928947 88.457 13.8887
2596.609683 88.460 13.1277
2615.425787 88.457 12.3396
2634.378241 88.448 11.5278
2653.468031 88.430 10.6982
2672.696154 88.404 9.8584
2692.063613 88.367 9.0176
2711.571415 88.320 8.1866
2731.220579 88.262 7.3772
2751.012130 88.195 6.6013
2770.947098 88.118 5.8707
2791.026522 88.033 5.1954
2811.251451 87.940 4.5833
2831.622938 87.842 4.0401
2852.142045 87.740 3.5696
2872.809842 87.635 3.1736
2893.627406 87.530 2.8525
2914.595823 87.425 2.6050
2935.716186 87.323 2.4289
2956.989596 87.224 2.3203
2978.417161 87.131 2.2737
3000.000000 87.044 2.2820
3021.739237 86.965 2.3362
3043.636005 86.894 2.4256
3065.691446 86.831 2.5378
3087.906710 86.778 2.6599
3110.282955 86.733 2.7794
3132.821347 86.694 2.8862
3155.523062 86.661 2.9736
3178.389283 86.631 3.0388
3201.421202 86.603 3.0831
3224.620020 86.576 3.1105
3247.986946 86.549 3.1270
3271.523198 86.522 3.1387
3295.230004 86.494 3.1515
3319.108599 86.466 3.1705
3343.160228 86.437 3.1995
3367.386145 86.409 3.2411
3391.787613 86.381 3.2968
3416.365904 86.355 3.3665
3441.122300 86.330 3.4501
3466.058091 86.308 3.5467
3491.174576 86.287 3.6553
3516.473066 86.270 3.7745
3541.954880 86.255 3.9031
3567.621345 86.243 4.0394
3593.473800 86.233 4.1823
3619.513592 86.227 4.3300
3645.742080 86.224 4.4813
3672.160630 86.224 4.6348
3698.770620 86.227 4.7893
3725.573436 86.232 4.9439
3752.570477 86.241 5.0977
3779.763150 86.252 5.2502
3807.152872 86.266 5.4015
3834.741071 86.283 5.5518
3862.529185 86.302 5.7017
3890.518664 86.324 5.8521
3918.710966 86.348 6.0046
3947.107561 86.376 6.1612
3975.709929 86.406 6.3246
4004.519563 86.440 6.4971
4033.537962 86.480 6.6799
4062.766641 86.525 6.8724
4092.207123 86.577 7.0710
4121.860942 86.639 7.2688
4151.729646 86.710 7.4550
4181.814790 86.793 7.6155
4212.117944 86.886 7.7336
4242.640687 86.991 7.7916
4273.384610 87.104 7.7728
4304.351317 87.225 7.6629
4335.542421 87.350 7.4518
4366.959549 87.478 7.1339
4398.604338 87.605 6.7073
4430.478438 87.730 6.1737
4462.583511 87.849 5.5372
4494.921231 87.961 4.8036
4527.493283 88.065 3.9797
4560.301365 88.159 3.0730
4593.347189 88.241 2.0916
4626.632476 88.310 1.0439
4660.158962 88.366 -0.0613
4693.928395 88.407 -1.2147
4727.942535 88.434 -2.4059
4762.203156 88.444 -3.6240
4796.712043 88.438 -4.8572
4831.470996 88.415 -6.0934
4866.481826 88.376 -7.3204
4901.746360 88.321 -8.5261
4937.266434 88.251 -9.6989
4973.043902 88.166 -10.8277
5009.080628 88.067 -11.9028
5045.378492 87.956 -12.9156
5081.939384 87.833 -13.8587
5118.765212 87.701 -14.7263
5155.857894 87.561 -15.5141
5193.219366 87.414 -16.2189
5230.851574 87.262 -16.8392
5268.756481 87.107 -17.3748
5306.936062 86.950 -17.8267
5345.392309 86.791 -18.1974
5384.127225 86.633 -18.4905
5423.142830 86.476 -18.7096
5462.441159 86.322 -18.8591
5502.024259 86.170 -18.9438
5541.894195 86.022 -18.9684
5582.053045 85.878 -18.9384
5622.502902 85.739 -18.8584
5663.245876 85.604 -18.7336
5704.284090 85.473 -18.5688
5745.619684 85.347 -18.3680
5787.254813 85.226 -18.1345
5829.191647 85.109 -17.8707
5871.432373 84.996 -17.5782
5913.979192 84.888 -17.2582
5956.834323 84.784 -16.9115
6000.000000 84.683 -16.5386
6043.478473 84.587 -16.1397
6087.272010 84.495 -15.7152
6131.382892 84.406 -15.2651
6175.813420 84.322 -14.7889
6220.565910 84.242 -14.2865
6265.642695 84.167 -13.7573
6311.046124 84.097 -13.2005
6356.778566 84.032 -12.6149
6402.842404 83.972 -11.9986
6449.240040 83.919 -11.3499
6495.973891 83.873 -10.6683
6543.046396 83.835 -9.9546
6590.460007 83.806 -9.2113
6638.217197 83.789 -8.4420
6686.320456 83.783 -7.6520
6734.772290 83.790 -6.8476
6783.575226 83.810 -6.0369
6832.731809 83.846 -5.2289
6882.244600 83.897 -4.4337
6932.116181 83.964 -3.6626
6982.349153 84.048 -2.9282
7032.946133 84.150 -2.2448
7083.909760 84.269 -1.6287
7135.242690 84.407 -1.0983
7186.947600 84.561 -0.6741
7239.027185 84.732 -0.3782
7291.484160 84.917 -0.2336
7344.321260 85.116 -0.2639
7397.541239 85.323 -0.4921
7451.146872 85.537 -0.9398
7505.140954 85.751 -1.6262
7559.526299 85.960 -2.5666
7614.305743 86.157 -3.7697
7669.482141 86.335 -5.2357
7725.058371 86.485 -6.9542
7781.037328 86.600 -8.9031
7837.421932 86.672 -11.0488
7894.215122 86.695 -13.3470
7951.419859 86.664 -15.7433
8009.039125 86.574 -18.1750
8067.075924 86.424 -20.5731
8125.533282 86.214 -22.8642
8184.414245 85.946 -24.9738
8243.721885 85.626 -26.8311
8303.459292 85.261 -28.3760
8363.629581 84.861 -29.5638
8424.235888 84.438 -30.3676
8485.281374 84.002 -30.7793
8546.769221 83.566 -30.8094
8608.702634 83.139 -30.4857
8671.084842 82.730 -29.8502
8733.919097 82.346 -28.9554
8797.208675 81.989 -27.8572
8860.956876 81.661 -26.6085
8925.167022 81.360 -25.2527
8989.842461 81.083 -23.8208
9054.986566 80.827 -22.3298
9120.602731 80.589 -20.7852
9186.694378 80.367 -19.1857
9253.264952 80.160 -17.5272
9320.317925 79.968 -15.8053
9387.856790 79.792 -14.0184
9455.885071 79.633 -12.1691
9524.406312 79.493 -10.2644
9593.424086 79.372 -8.3156
9662.941992 79.271 -6.3373
9732.963653 79.191 -4.3462
9803.492719 79.133 -2.3599
9874.532869 79.095 -0.3962
9946.087805 79.077 1.5275
10018.161257 79.077 3.3947
10090.756983 79.095 5.1905
10163.878768 79.128 6.9031
10237.530423 79.174 8.5248
10311.715789 79.230 10.0527
10386.438732 79.294 11.4893
10461.703149 79.365 12.8414
10537.512962 79.442 14.1182
10613.872125 79.524 15.3275
10690.784618 79.613 16.4745
10768.254450 79.707 17.5596
10846.285661 79.809 18.5786
10924.882318 79.919 19.5236
11004.048518 80.037 20.3855
11083.788390 80.162 21.1556
11164.106090 80.293 21.8268
11245.005805 80.431 22.3931
11326.491752 80.574 22.8489
11408.568180 80.723 23.1869
11491.239368 80.877 23.3954
11574.509626 81.035 23.4578
11658.383294 81.195 23.3528
11742.864745 81.352 23.0605
11827.958384 81.500 22.5676
11913.668646 81.631 21.8730
12000.000000 81.738 20.9921
12086.956947 81.812 19.9583
12174.544019 81.848 18.8237
12262.765784 81.840 17.6555
12351.626840 81.789 16.5314
12441.131819 81.695 15.5321
12531.285389 81.564 14.7344
12622.092249 81.404 14.2036
12713.557132 81.227 13.9880
12805.684808 81.045 14.1147
12898.480079 80.872 14.5877
12991.947783 80.721 15.3871
13086.092792 80.607 16.4700
13180.920015 80.541 17.7724
13276.434395 80.531 19.2118
13372.640911 80.585 20.6907
13469.544580 80.705 22.0994
13567.150452 80.889 23.3212
13665.463617 81.131 24.2390
13764.489200 81.420 24.7433
13864.232362 81.740 24.7421
13964.698305 82.070 24.1696
14065.892266 82.387 22.9938
14167.819519 82.666 21.2237
14270.485380 82.883 18.9137
14373.895200 83.017 16.1652
14478.054370 83.049 13.1224
14582.968320 82.971 9.9614
14688.642520 82.779 6.8714
14795.082478 82.484 4.0345
14902.293745 82.099 1.6036
15010.281908 81.649 -0.3165
15119.052599 81.162 -1.6813
15228.611486 80.665 -2.5144
15338.964283 80.186 -2.9067
15450.116741 79.747 -3.0050
15562.074656 79.359 -2.9867
15674.843864 79.023 -3.0247
15788.430244 78.728 -3.2515
15902.839718 78.454 -3.7343
16018.078250 78.180 -4.4598
16134.151848 77.888 -5.3270
16251.066563 77.572 -6.1569
16368.828491 77.249 -6.7503
16487.443769 76.967 -7.0062
16606.918584 76.792 -7.0636
16727.259161 76.773 -7.3528
16848.471777 76.907 -8.4549
16970.562748 77.123 -10.8449
17093.538442 77.309 -14.6877
17217.405268 77.354 -19.7808
17342.169684 77.179 -25.6273
17467.838194 76.756 -31.6080
17594.417350 76.105 -37.1918
17721.913751 75.274 -42.0645
17850.334044 74.322 -46.1277
17979.684923 73.297 -49.4205
18109.973131 72.233 -52.0298
18241.205462 71.147 -54.0416
18373.388756 70.047 -55.5334
18506.529905 68.935 -56.5807
18640.635849 67.801 -57.2473
18775.713581 66.632 -57.5531
18911.770141 65.406 -57.4297
19048.812624 64.101 -56.6839
19186.848172 62.698 -54.9818
19325.883983 61.195 -51.8596
19465.927305 59.610 -46.7772
19606.985439 57.992 -39.3238
19749.065738 56.448 -29.8201
19892.175609 55.164 -20.2485
20036.322514 54.407 -14.0862
