* Measurement data measured by REW V5.31.3
* Source: Headset (2- CX31993 HIFI AUDIO), MICROPHONE (Master Volume), R, volume: 0.300
* Format: 256k Log Swept Sine, 1 sweep at -11.9 dBFS with no timing reference
* Dated: 09 27, 25 12:14:57 PM
* REW Settings:
*  C-weighting compensation: Off
*  Target level: 75.0 dB
* Note: ; 
* Measurement: Elysian Pilgrim R
* Smoothing: 1/12 octave
* Frequency Step: 96 ppo
* Start Frequency: 0.36621094 Hz
*
* Freq(Hz) SPL(dB) Phase(degrees)
0.366211 43.212 -24.5179
0.368865 43.215 -24.5767
0.371538 43.220 -24.6645
0.374230 43.225 -24.7740
0.376942 43.232 -24.8992
0.379673 43.239 -25.0356
0.382424 43.247 -25.1802
0.385196 43.254 -25.3313
0.387987 43.262 -25.4877
0.390798 43.270 -25.6488
0.393630 43.278 -25.8145
0.396483 43.286 -25.9844
0.399356 43.294 -26.1587
0.402250 43.302 -26.3371
0.405165 43.310 -26.5199
0.408101 43.318 -26.7068
0.411058 43.326 -26.8981
0.414037 43.335 -27.0937
0.417037 43.343 -27.2936
0.420059 43.352 -27.4978
0.423103 43.360 -27.7064
0.426169 43.369 -27.9194
0.429257 43.377 -28.1368
0.432368 43.386 -28.3586
0.435501 43.395 -28.5848
0.438656 43.404 -28.8155
0.441835 43.412 -29.0506
0.445037 43.421 -29.2902
0.448262 43.430 -29.5343
0.451510 43.440 -29.7829
0.454782 43.449 -30.0360
0.458077 43.458 -30.2936
0.461397 43.467 -30.5558
0.464740 43.477 -30.8225
0.468108 43.486 -31.0938
0.471500 43.495 -31.3696
0.474917 43.505 -31.6501
0.478358 43.515 -31.9351
0.481825 43.524 -32.2247
0.485316 43.534 -32.5189
0.488833 43.544 -32.8177
0.492375 43.554 -33.1212
0.495943 43.564 -33.4293
0.499537 43.574 -33.7420
0.503157 43.584 -34.0594
0.506803 43.594 -34.3815
0.510475 43.604 -34.7083
0.514175 43.615 -35.0398
0.517900 43.625 -35.3760
0.521653 43.636 -35.7170
0.525434 43.646 -36.0627
0.529241 43.657 -36.4133
0.533076 43.668 -36.7686
0.536939 43.679 -37.1288
0.540830 43.689 -37.4938
0.544749 43.700 -37.8638
0.548696 43.711 -38.2387
0.552673 43.723 -38.6185
0.556677 43.734 -39.0034
0.560711 43.745 -39.3934
0.564774 43.756 -39.7885
0.568867 43.768 -40.1887
0.572989 43.779 -40.5942
0.577141 43.791 -41.0051
0.581324 43.803 -41.4212
0.585536 43.814 -41.8429
0.589779 43.826 -42.2700
0.594053 43.838 -42.7028
0.598358 43.850 -43.1414
0.602694 43.862 -43.5857
0.607061 43.875 -44.0360
0.611460 43.887 -44.4924
0.615891 43.899 -44.9550
0.620354 43.912 -45.4239
0.624849 43.924 -45.8993
0.629377 43.937 -46.3814
0.633938 43.950 -46.8703
0.638532 43.963 -47.3662
0.643159 43.976 -47.8693
0.647819 43.989 -48.3799
0.652514 44.002 -48.8981
0.657242 44.015 -49.4242
0.662005 44.028 -49.9585
0.666802 44.042 -50.5012
0.671634 44.055 -51.0527
0.676501 44.069 -51.6132
0.681403 44.083 -52.1831
0.686341 44.097 -52.7627
0.691314 44.111 -53.3524
0.696324 44.125 -53.9527
0.701370 44.139 -54.5640
0.706452 44.154 -55.1868
0.711571 44.169 -55.8216
0.716728 44.185 -56.4691
0.721921 44.201 -57.1298
0.727153 44.220 -57.8046
0.732422 44.240 -58.4941
0.737729 44.262 -59.1990
0.743075 44.285 -59.9199
0.748460 44.311 -60.6568
0.753883 44.337 -61.4100
0.759346 44.364 -62.1792
0.764849 44.392 -62.9641
0.770391 44.420 -63.7644
0.775974 44.449 -64.5797
0.781597 44.478 -65.4095
0.787261 44.508 -66.2533
0.792966 44.538 -67.1108
0.798712 44.568 -67.9812
0.804500 44.599 -68.8643
0.810329 44.630 -69.7594
0.816201 44.662 -70.6661
0.822116 44.695 -71.5839
0.828073 44.727 -72.5124
0.834074 44.761 -73.4509
0.840118 44.795 -74.3992
0.846206 44.830 -75.3568
0.852338 44.866 -76.3232
0.858514 44.902 -77.2981
0.864735 44.939 -78.2812
0.871001 44.977 -79.2722
0.877313 45.015 -80.2707
0.883670 45.055 -81.2766
0.890074 45.095 -82.2896
0.896524 45.137 -83.3095
0.903020 45.179 -84.3364
0.909564 45.222 -85.3701
0.916155 45.267 -86.4107
0.922794 45.313 -87.4581
0.929481 45.359 -88.5124
0.936216 45.408 -89.5739
0.943000 45.457 -90.6426
0.949834 45.508 -91.7189
0.956717 45.560 -92.8031
0.963649 45.614 -93.8955
0.970632 45.669 -94.9966
0.977666 45.726 -96.1069
0.984750 45.784 -97.2268
0.991886 45.844 -98.3570
0.999074 45.906 -99.4981
1.006314 45.970 -100.6508
1.013606 46.036 -101.8160
1.020951 46.103 -102.9943
1.028349 46.173 -104.1868
1.035801 46.245 -105.3942
1.043307 46.319 -106.6175
1.050867 46.396 -107.8578
1.058482 46.475 -109.1160
1.066152 46.557 -110.3929
1.073878 46.641 -111.6895
1.081660 46.728 -113.0062
1.089498 46.818 -114.3430
1.097393 46.911 -115.6994
1.105345 47.007 -117.0741
1.113355 47.106 -118.4650
1.121423 47.209 -119.8698
1.129549 47.315 -121.2857
1.137734 47.424 -122.7101
1.145979 47.537 -124.1405
1.154283 47.653 -125.5746
1.162647 47.773 -127.0102
1.171072 47.896 -128.4454
1.179558 48.022 -129.8782
1.188106 48.152 -131.3072
1.196715 48.284 -132.7309
1.205387 48.420 -134.1481
1.214122 48.559 -135.5578
1.222920 48.701 -136.9590
1.231782 48.845 -138.3512
1.240708 48.993 -139.7338
1.249699 49.143 -141.1066
1.258754 49.295 -142.4693
1.267876 49.450 -143.8219
1.277063 49.608 -145.1647
1.286318 49.768 -146.4978
1.295639 49.930 -147.8216
1.305027 50.094 -149.1366
1.314484 50.260 -150.4435
1.324009 50.428 -151.7428
1.333604 50.598 -153.0354
1.343268 50.769 -154.3221
1.353002 50.941 -155.6038
1.362806 51.115 -156.8814
1.372681 51.290 -158.1559
1.382628 51.465 -159.4283
1.392647 51.642 -160.6996
1.402739 51.819 -161.9707
1.412904 51.996 -163.2424
1.423142 52.174 -164.5153
1.433455 52.352 -165.7896
1.443843 52.530 -167.0647
1.454305 52.709 -168.3393
1.464844 52.889 -169.6113
1.475459 53.070 -170.8776
1.486150 53.252 -172.1348
1.496920 53.436 -173.3800
1.507767 53.623 -174.6112
1.518693 53.811 -175.8269
1.529698 54.001 -177.0266
1.540783 54.194 -178.2100
1.551948 54.389 -179.3776
1.563194 54.585 179.4700
1.574521 54.784 178.3321
1.585931 54.984 177.2076
1.597423 55.187 176.0953
1.608999 55.390 174.9941
1.620658 55.595 173.9026
1.632402 55.802 172.8193
1.644232 56.010 171.7430
1.656146 56.219 170.6721
1.668147 56.428 169.6050
1.680235 56.639 168.5403
1.692411 56.850 167.4765
1.704675 57.062 166.4120
1.717028 57.275 165.3452
1.729470 57.487 164.2748
1.742003 57.699 163.1993
1.754626 57.912 162.1173
1.767341 58.124 161.0278
1.780147 58.335 159.9299
1.793047 58.547 158.8231
1.806040 58.757 157.7079
1.819128 58.967 156.5854
1.832310 59.176 155.4578
1.845587 59.385 154.3282
1.858961 59.594 153.1999
1.872432 59.803 152.0757
1.886001 60.012 150.9577
1.899667 60.220 149.8475
1.913433 60.429 148.7458
1.927299 60.638 147.6531
1.941265 60.846 146.5693
1.955332 61.055 145.4940
1.969501 61.264 144.4266
1.983773 61.473 143.3665
1.998148 61.681 142.3128
2.012627 61.890 141.2645
2.027212 62.099 140.2204
2.041902 62.307 139.1795
2.056698 62.516 138.1404
2.071602 62.724 137.1020
2.086614 62.933 136.0628
2.101734 63.141 135.0216
2.116964 63.349 133.9772
2.132304 63.557 132.9283
2.147756 63.765 131.8741
2.163320 63.972 130.8142
2.178996 64.179 129.7487
2.194786 64.386 128.6785
2.210690 64.593 127.6052
2.226710 64.798 126.5308
2.242845 65.004 125.4572
2.259098 65.209 124.3862
2.275468 65.413 123.3188
2.291957 65.617 122.2559
2.308566 65.820 121.1975
2.325295 66.023 120.1439
2.342145 66.225 119.0948
2.359117 66.427 118.0496
2.376212 66.628 117.0078
2.393431 66.829 115.9685
2.410775 67.029 114.9311
2.428244 67.229 113.8943
2.445840 67.429 112.8571
2.463564 67.628 111.8186
2.481416 67.827 110.7774
2.499397 68.025 109.7327
2.517509 68.224 108.6834
2.535752 68.422 107.6291
2.554127 68.619 106.5696
2.572635 68.816 105.5056
2.591277 69.012 104.4379
2.610055 69.208 103.3678
2.628968 69.403 102.2965
2.648019 69.597 101.2253
2.667208 69.791 100.1548
2.686535 69.983 99.0858
2.706003 70.175 98.0185
2.725612 70.366 96.9531
2.745363 70.557 95.8895
2.765257 70.747 94.8274
2.785295 70.936 93.7663
2.805478 71.124 92.7056
2.825808 71.313 91.6445
2.846285 71.500 90.5823
2.866910 71.687 89.5181
2.887685 71.874 88.4509
2.908611 72.060 87.3801
2.929688 72.245 86.3051
2.950917 72.430 85.2260
2.972301 72.613 84.1432
2.993839 72.796 83.0573
3.015534 72.978 81.9692
3.037386 73.159 80.8799
3.059396 73.339 79.7901
3.081565 73.519 78.7006
3.103896 73.697 77.6119
3.126388 73.875 76.5241
3.149043 74.051 75.4374
3.171862 74.227 74.3517
3.194847 74.403 73.2665
3.217998 74.577 72.1813
3.241317 74.751 71.0955
3.264805 74.924 70.0079
3.288463 75.097 68.9179
3.312293 75.268 67.8247
3.336295 75.439 66.7278
3.360471 75.608 65.6274
3.384822 75.777 64.5241
3.409350 75.944 63.4186
3.434056 76.111 62.3119
3.458940 76.276 61.2049
3.484005 76.441 60.0983
3.509252 76.604 58.9928
3.534681 76.767 57.8886
3.560295 76.929 56.7860
3.586094 77.090 55.6846
3.612081 77.250 54.5839
3.638255 77.409 53.4830
3.664620 77.567 52.3810
3.691175 77.724 51.2767
3.717923 77.881 50.1697
3.744864 78.036 49.0599
3.772001 78.190 47.9478
3.799335 78.342 46.8344
3.826866 78.494 45.7205
3.854597 78.645 44.6071
3.882529 78.794 43.4952
3.910664 78.943 42.3853
3.939002 79.091 41.2776
3.967546 79.237 40.1722
3.996296 79.383 39.0683
4.025255 79.528 37.9651
4.054423 79.672 36.8615
4.083804 79.814 35.7564
4.113396 79.956 34.6498
4.143204 80.096 33.5417
4.173227 80.235 32.4330
4.203468 80.373 31.3245
4.233928 80.510 30.2173
4.264609 80.646 29.1124
4.295512 80.781 28.0103
4.326639 80.915 26.9111
4.357992 81.048 25.8149
4.389572 81.180 24.7207
4.421380 81.310 23.6276
4.453419 81.440 22.5347
4.485691 81.569 21.4414
4.518196 81.696 20.3481
4.550936 81.823 19.2552
4.583914 81.948 18.1636
4.617131 82.072 17.0743
4.650589 82.196 15.9880
4.684289 82.318 14.9052
4.718233 82.440 13.8259
4.752424 82.560 12.7498
4.786862 82.680 11.6758
4.821549 82.798 10.6034
4.856488 82.915 9.5319
4.891680 83.032 8.4614
4.927127 83.147 7.3925
4.962831 83.261 6.3256
4.998794 83.375 5.2617
5.035017 83.487 4.2012
5.071503 83.599 3.1445
5.108253 83.710 2.0913
5.145270 83.820 1.0413
5.182555 83.929 -0.0065
5.220110 84.037 -1.0524
5.257937 84.144 -2.0964
5.296038 84.250 -3.1385
5.334415 84.355 -4.1781
5.373071 84.460 -5.2146
5.412006 84.564 -6.2476
5.451224 84.666 -7.2771
5.490725 84.769 -8.3032
5.530514 84.870 -9.3264
5.570590 84.970 -10.3473
5.610957 85.070 -11.3660
5.651616 85.169 -12.3826
5.692570 85.267 -13.3967
5.733821 85.364 -14.4081
5.775370 85.460 -15.4163
5.817221 85.556 -16.4213
5.859375 85.651 -17.4232
5.901834 85.745 -18.4225
5.944602 85.839 -19.4196
5.987679 85.931 -20.4146
6.031068 86.023 -21.4073
6.074771 86.114 -22.3977
6.118792 86.205 -23.3854
6.163131 86.294 -24.3701
6.207792 86.383 -25.3522
6.252776 86.471 -26.3315
6.298086 86.559 -27.3087
6.343725 86.645 -28.2839
6.389694 86.731 -29.2570
6.435996 86.816 -30.2278
6.482634 86.900 -31.1962
6.529610 86.984 -32.1618
6.576926 87.067 -33.1248
6.624585 87.149 -34.0852
6.672590 87.230 -35.0435
6.720942 87.310 -35.9997
6.769645 87.390 -36.9537
6.818700 87.469 -37.9053
6.868111 87.547 -38.8542
6.917881 87.624 -39.8005
6.968010 87.701 -40.7440
7.018504 87.776 -41.6849
7.069362 87.851 -42.6235
7.120590 87.925 -43.5597
7.172189 87.999 -44.4933
7.224161 88.071 -45.4241
7.276511 88.143 -46.3519
7.329239 88.214 -47.2769
7.382350 88.284 -48.1989
7.435845 88.353 -49.1183
7.489729 88.422 -50.0349
7.544002 88.490 -50.9487
7.598669 88.557 -51.8595
7.653732 88.623 -52.7672
7.709194 88.689 -53.6717
7.765058 88.754 -54.5732
7.821327 88.818 -55.4718
7.878004 88.881 -56.3676
7.935091 88.944 -57.2603
7.992592 89.006 -58.1498
8.050510 89.068 -59.0363
8.108847 89.128 -59.9197
8.167607 89.188 -60.8002
8.226793 89.248 -61.6779
8.286408 89.306 -62.5526
8.346454 89.364 -63.4243
8.406936 89.422 -64.2932
8.467856 89.478 -65.1592
8.529218 89.535 -66.0224
8.591024 89.590 -66.8829
8.653278 89.645 -67.7408
8.715983 89.699 -68.5960
8.779143 89.753 -69.4485
8.842760 89.806 -70.2983
8.906839 89.858 -71.1457
8.971381 89.910 -71.9905
9.036392 89.961 -72.8329
9.101873 90.012 -73.6727
9.167829 90.062 -74.5100
9.234263 90.111 -75.3448
9.301178 90.160 -76.1772
9.368578 90.208 -77.0073
9.436467 90.255 -77.8348
9.504847 90.302 -78.6598
9.573723 90.348 -79.4822
9.643099 90.394 -80.3022
9.712976 90.439 -81.1198
9.783361 90.483 -81.9347
9.854255 90.527 -82.7471
9.925663 90.570 -83.5568
9.997588 90.612 -84.3640
10.070035 90.654 -85.1685
10.143007 90.695 -85.9705
10.216507 90.736 -86.7697
10.290540 90.776 -87.5663
10.365109 90.816 -88.3602
10.440219 90.855 -89.1515
10.515873 90.894 -89.9402
10.592076 90.932 -90.7262
10.668830 90.969 -91.5096
10.746141 91.006 -92.2906
10.824012 91.043 -93.0690
10.902447 91.079 -93.8449
10.981451 91.115 -94.6183
11.061027 91.150 -95.3894
11.141180 91.184 -96.1582
11.221913 91.218 -96.9246
11.303232 91.252 -97.6888
11.385140 91.285 -98.4507
11.467641 91.318 -99.2104
11.550741 91.350 -99.9680
11.634442 91.382 -100.7235
11.718750 91.414 -101.4768
11.803669 91.445 -102.2280
11.889203 91.475 -102.9771
11.975357 91.505 -103.7241
12.062136 91.535 -104.4689
12.149543 91.564 -105.2116
12.237583 91.592 -105.9521
12.326262 91.620 -106.6904
12.415583 91.648 -107.4265
12.505552 91.675 -108.1604
12.596172 91.702 -108.8919
12.687449 91.728 -109.6211
12.779387 91.754 -110.3480
12.871992 91.779 -111.0726
12.965268 91.804 -111.7948
13.059220 91.829 -112.5146
13.153852 91.853 -113.2321
13.249170 91.877 -113.9471
13.345179 91.900 -114.6598
13.441884 91.923 -115.3702
13.539289 91.946 -116.0782
13.637401 91.968 -116.7839
13.736223 91.989 -117.4873
13.835761 92.011 -118.1884
13.936021 92.032 -118.8872
14.037007 92.052 -119.5837
14.138725 92.073 -120.2780
14.241180 92.092 -120.9699
14.344377 92.112 -121.6596
14.448323 92.131 -122.3470
14.553021 92.149 -123.0320
14.658478 92.168 -123.7148
14.764700 92.185 -124.3953
14.871691 92.203 -125.0734
14.979457 92.220 -125.7491
15.088005 92.237 -126.4226
15.197339 92.253 -127.0937
15.307465 92.269 -127.7625
15.418389 92.285 -128.4291
15.530117 92.300 -129.0934
15.642655 92.315 -129.7556
15.756008 92.329 -130.4156
15.870182 92.344 -131.0736
15.985184 92.357 -131.7296
16.101019 92.371 -132.3835
16.217694 92.384 -133.0356
16.335214 92.397 -133.6857
16.453586 92.409 -134.3340
16.572815 92.421 -134.9805
16.692909 92.432 -135.6251
16.813872 92.443 -136.2679
16.935713 92.454 -136.9089
17.058436 92.464 -137.5480
17.182048 92.474 -138.1852
17.306556 92.484 -138.8204
17.431967 92.493 -139.4537
17.558286 92.501 -140.0850
17.685521 92.509 -140.7142
17.813677 92.517 -141.3412
17.942762 92.524 -141.9661
18.072783 92.531 -142.5887
18.203746 92.537 -143.2092
18.335658 92.544 -143.8273
18.468526 92.549 -144.4431
18.602356 92.555 -145.0568
18.737156 92.560 -145.6683
18.872934 92.565 -146.2779
19.009695 92.570 -146.8857
19.147447 92.574 -147.4919
19.286197 92.579 -148.0969
19.425953 92.583 -148.7010
19.566721 92.587 -149.3044
19.708510 92.591 -149.9077
19.851326 92.594 -150.5109
19.995177 92.597 -151.1143
20.140070 92.600 -151.7179
20.286013 92.602 -152.3215
20.433014 92.604 -152.9250
20.581080 92.605 -153.5278
20.730219 92.605 -154.1294
20.880439 92.605 -154.7289
21.031747 92.603 -155.3258
21.184152 92.602 -155.9191
21.337661 92.599 -156.5083
21.492282 92.597 -157.0929
21.648024 92.594 -157.6727
21.804895 92.591 -158.2480
21.962902 92.588 -158.8193
22.122054 92.586 -159.3872
22.282360 92.584 -159.9529
22.443827 92.582 -160.5176
22.606464 92.580 -161.0824
22.770280 92.579 -161.6483
22.935283 92.578 -162.2160
23.101481 92.576 -162.7860
23.268884 92.575 -163.3582
23.437500 92.572 -163.9321
23.607338 92.569 -164.5068
23.778406 92.565 -165.0815
23.950714 92.561 -165.6549
24.124271 92.555 -166.2261
24.299086 92.549 -166.7943
24.475167 92.543 -167.3590
24.652524 92.536 -167.9203
24.831166 92.529 -168.4785
25.011103 92.522 -169.0341
25.192344 92.514 -169.5880
25.374898 92.507 -170.1407
25.558775 92.499 -170.6930
25.743984 92.491 -171.2450
25.930536 92.483 -171.7968
26.118439 92.474 -172.3479
26.307704 92.464 -172.8980
26.498341 92.454 -173.4464
26.690359 92.443 -173.9928
26.883768 92.432 -174.5366
27.078579 92.420 -175.0779
27.274801 92.408 -175.6167
27.472446 92.396 -176.1533
27.671522 92.384 -176.6881
27.872042 92.371 -177.2215
28.074014 92.359 -177.7538
28.277450 92.345 -178.2852
28.482360 92.332 -178.8159
28.688755 92.319 -179.3459
28.896645 92.305 -179.8755
29.106042 92.291 179.5951
29.316957 92.277 179.0656
29.529400 92.263 178.5358
29.743382 92.249 178.0051
29.958915 92.234 177.4736
30.176009 92.219 176.9411
30.394677 92.203 176.4081
30.614929 92.187 175.8749
30.836778 92.170 175.3423
31.060234 92.153 174.8110
31.285309 92.135 174.2814
31.512015 92.117 173.7538
31.740364 92.098 173.2286
31.970368 92.079 172.7056
32.202039 92.060 172.1848
32.435388 92.040 171.6664
32.670428 92.021 171.1503
32.907171 92.001 170.6370
33.145630 91.981 170.1265
33.385817 91.961 169.6190
33.627745 91.940 169.1143
33.871425 91.920 168.6116
34.116871 91.901 168.1102
34.364096 91.881 167.6085
34.613113 91.862 167.1055
34.863934 91.842 166.6000
35.116572 91.822 166.0917
35.371041 91.802 165.5806
35.627354 91.780 165.0680
35.885525 91.757 164.5555
36.145566 91.734 164.0452
36.407492 91.709 163.5392
36.671316 91.683 163.0388
36.937051 91.657 162.5446
37.204712 91.631 162.0561
37.474313 91.604 161.5720
37.745867 91.579 161.0903
38.019389 91.553 160.6088
38.294893 91.527 160.1259
38.572394 91.502 159.6409
38.851905 91.475 159.1539
39.133442 91.448 158.6659
39.417019 91.420 158.1782
39.702651 91.392 157.6921
39.990353 91.363 157.2084
40.280140 91.334 156.7275
40.572026 91.304 156.2491
40.866028 91.274 155.7728
41.162160 91.244 155.2978
41.460438 91.214 154.8234
41.760877 91.185 154.3488
42.063494 91.155 153.8734
42.368303 91.124 153.3967
42.675322 91.094 152.9186
42.984565 91.063 152.4399
43.296048 91.031 151.9619
43.609789 90.998 151.4861
43.925804 90.966 151.0137
44.244108 90.932 150.5450
44.564719 90.899 150.0790
44.887654 90.866 149.6139
45.212928 90.834 149.1480
45.540560 90.800 148.6808
45.870565 90.766 148.2136
46.202962 90.731 147.7487
46.537768 90.695 147.2890
46.875000 90.658 146.8362
47.214676 90.622 146.3903
47.556813 90.586 145.9492
47.901429 90.550 145.5103
48.248542 90.514 145.0714
48.598171 90.478 144.6318
48.950334 90.442 144.1921
49.305048 90.405 143.7535
49.662333 90.367 143.3171
50.022206 90.330 142.8829
50.384688 90.291 142.4504
50.749796 90.253 142.0186
51.117550 90.215 141.5869
51.487969 90.176 141.1550
51.861072 90.137 140.7228
52.236879 90.098 140.2900
52.615409 90.059 139.8562
52.996681 90.019 139.4210
53.380717 89.980 138.9846
53.767536 89.940 138.5474
54.157158 89.899 138.1103
54.549603 89.859 137.6740
54.944892 89.819 137.2390
55.343045 89.778 136.8049
55.744084 89.738 136.3712
56.148028 89.698 135.9365
56.554900 89.657 135.5001
56.964720 89.616 135.0623
57.377510 89.574 134.6255
57.793291 89.530 134.1938
58.212085 89.485 133.7715
58.633914 89.440 133.3613
59.058799 89.394 132.9628
59.486764 89.349 132.5728
59.917829 89.305 132.1868
60.352019 89.260 131.8018
60.789354 89.216 131.4166
61.229859 89.171 131.0314
61.673556 89.126 130.6469
62.120468 89.080 130.2627
62.570618 89.035 129.8781
63.024031 88.989 129.4922
63.480729 88.942 129.1050
63.940736 88.895 128.7170
64.404077 88.848 128.3291
64.870776 88.800 127.9421
65.340856 88.752 127.5566
65.814343 88.705 127.1729
66.291261 88.657 126.7914
66.771635 88.609 126.4122
67.255489 88.561 126.0353
67.742850 88.513 125.6611
68.233743 88.465 125.2897
68.728193 88.416 124.9210
69.226226 88.368 124.5549
69.727867 88.319 124.1907
70.233144 88.271 123.8280
70.742083 88.222 123.4666
71.254709 88.173 123.1064
71.771050 88.123 122.7480
72.291132 88.073 122.3917
72.814984 88.024 122.0376
73.342631 87.974 121.6858
73.874102 87.924 121.3367
74.409424 87.874 120.9904
74.948626 87.825 120.6468
75.491734 87.775 120.3055
76.038779 87.727 119.9657
76.589787 87.678 119.6259
77.144788 87.629 119.2850
77.703811 87.579 118.9433
78.266885 87.528 118.6034
78.834039 87.476 118.2689
79.405303 87.423 117.9418
79.980706 87.370 117.6219
80.560280 87.317 117.3068
81.144053 87.264 116.9944
81.732056 87.211 116.6840
82.324320 87.158 116.3746
82.920876 87.106 116.0652
83.521755 87.055 115.7542
84.126988 87.004 115.4402
84.736607 86.953 115.1237
85.350643 86.901 114.8068
85.969129 86.850 114.4927
86.592097 86.798 114.1841
87.219579 86.746 113.8821
87.851608 86.695 113.5859
88.488217 86.644 113.2939
89.129439 86.593 113.0048
89.775308 86.543 112.7178
90.425856 86.492 112.4329
91.081119 86.442 112.1495
91.741131 86.391 111.8665
92.405925 86.340 111.5826
93.075536 86.290 111.2972
93.750000 86.239 111.0092
94.429351 86.188 110.7185
95.113625 86.136 110.4260
95.802858 86.084 110.1345
96.497085 86.031 109.8479
97.196342 85.979 109.5696
97.900667 85.927 109.3005
98.610096 85.877 109.0381
99.324665 85.827 108.7793
100.044413 85.778 108.5221
100.769376 85.730 108.2662
101.499592 85.681 108.0118
102.235100 85.632 107.7587
102.975938 85.583 107.5065
103.722144 85.533 107.2552
104.473757 85.482 107.0051
105.230817 85.431 106.7567
105.993363 85.380 106.5117
106.761435 85.330 106.2709
107.535072 85.281 106.0336
108.314315 85.233 105.7966
109.099206 85.187 105.5577
109.889783 85.141 105.3176
110.686090 85.095 105.0797
111.488167 85.050 104.8461
112.296056 85.005 104.6168
113.109800 84.961 104.3901
113.929440 84.917 104.1653
114.755020 84.873 103.9407
115.586582 84.830 103.7121
116.424170 84.786 103.4742
117.267827 84.742 103.2250
118.117598 84.696 102.9673
118.973527 84.649 102.7054
119.835658 84.602 102.4387
120.704037 84.557 102.1597
121.578708 84.513 101.8599
122.459718 84.470 101.5369
123.347111 84.427 101.2007
124.240935 84.383 100.8694
125.141236 84.341 100.5592
126.048061 84.301 100.2796
126.961458 84.262 100.0364
127.881473 84.224 99.8342
128.808154 84.187 99.6758
129.741551 84.152 99.5571
130.681712 84.117 99.4637
131.628686 84.082 99.3774
132.582521 84.048 99.2823
133.543269 84.012 99.1683
134.510979 83.975 99.0330
135.485701 83.937 98.8781
136.467486 83.897 98.7050
137.456386 83.857 98.5159
138.452451 83.815 98.3162
139.455735 83.772 98.1149
140.466288 83.726 97.9196
141.484165 83.680 97.7321
142.509418 83.634 97.5464
143.542100 83.588 97.3524
144.582265 83.544 97.1406
145.629968 83.500 96.9082
146.685262 83.458 96.6594
147.748204 83.418 96.4028
148.818849 83.381 96.1485
149.897251 83.347 95.9056
150.983469 83.316 95.6805
152.077557 83.287 95.4753
153.179574 83.260 95.2868
154.289576 83.232 95.1094
155.407622 83.204 94.9379
156.533770 83.173 94.7677
157.668078 83.142 94.5955
158.810606 83.110 94.4177
159.961413 83.078 94.2329
161.120559 83.047 94.0417
162.288105 83.016 93.8466
163.464112 82.986 93.6494
164.648640 82.954 93.4506
165.841752 82.922 93.2485
167.043510 82.889 93.0409
168.253976 82.854 92.8265
169.473213 82.817 92.6092
170.701286 82.781 92.3970
171.938258 82.745 92.1971
173.184194 82.711 92.0139
174.439158 82.680 91.8482
175.703216 82.651 91.6979
176.976434 82.626 91.5567
178.258878 82.603 91.4162
179.550615 82.581 91.2715
180.851713 82.561 91.1260
182.162239 82.541 90.9890
183.482262 82.523 90.8682
184.811850 82.508 90.7642
186.151073 82.494 90.6672
187.500000 82.483 90.5573
188.858702 82.473 90.4149
190.227250 82.462 90.2318
191.605715 82.451 90.0139
192.994169 82.439 89.7769
194.392685 82.426 89.5379
195.801334 82.415 89.3067
197.220191 82.404 89.0826
198.649330 82.395 88.8563
200.088825 82.387 88.6157
201.538751 82.380 88.3540
202.999184 82.373 88.0726
204.470200 82.366 87.7803
205.951875 82.358 87.4879
207.444287 82.348 87.2029
208.947514 82.335 86.9260
210.461634 82.320 86.6517
211.986726 82.302 86.3719
213.522869 82.285 86.0789
215.070144 82.268 85.7659
216.628631 82.255 85.4301
218.198411 82.248 85.0742
219.779567 82.248 84.7070
221.372180 82.257 84.3460
222.976334 82.272 84.0166
224.592112 82.290 83.7401
226.219600 82.306 83.5179
227.858880 82.316 83.3361
229.510039 82.317 83.1770
231.173164 82.311 83.0155
232.848340 82.303 82.8191
234.535655 82.291 82.5767
236.235197 82.275 82.3170
237.947054 82.258 82.0789
239.671317 82.247 81.8616
241.408074 82.245 81.6090
243.157416 82.249 81.2501
244.919435 82.246 80.7569
246.694223 82.223 80.1700
248.481871 82.174 79.5752
250.282473 82.103 79.0585
252.096123 82.026 78.6700
253.922915 81.956 78.4150
255.762945 81.901 78.2701
257.616309 81.864 78.1969
259.483103 81.840 78.1501
261.363424 81.826 78.0880
263.257372 81.820 77.9830
265.165043 81.817 77.8265
267.086538 81.817 77.6252
269.021957 81.816 77.3926
270.971401 81.813 77.1411
272.934972 81.807 76.8782
274.912771 81.799 76.6074
276.904902 81.789 76.3318
278.911469 81.778 76.0537
280.932577 81.768 75.7729
282.968330 81.757 75.4890
285.018835 81.745 75.2046
287.084199 81.735 74.9261
289.164530 81.724 74.6597
291.259935 81.713 74.4055
293.370525 81.699 74.1572
295.496408 81.682 73.9068
297.637697 81.663 73.6478
299.794503 81.644 73.3760
301.966937 81.628 73.0914
304.155114 81.614 72.8007
306.359147 81.602 72.5140
308.579152 81.591 72.2386
310.815244 81.579 71.9766
313.067539 81.567 71.7279
315.336156 81.554 71.4907
317.621211 81.542 71.2638
319.922826 81.530 71.0480
322.241118 81.517 70.8444
324.576210 81.503 70.6508
326.928223 81.489 70.4613
329.297280 81.475 70.2706
331.683504 81.460 70.0777
334.087019 81.445 69.8849
336.507952 81.433 69.6943
338.946427 81.425 69.5065
341.402572 81.423 69.3192
343.876516 81.428 69.1277
346.368387 81.437 68.9259
348.878315 81.451 68.7076
351.406431 81.467 68.4699
353.952867 81.484 68.2158
356.517756 81.500 67.9496
359.101230 81.513 67.6702
361.703426 81.523 67.3726
364.324478 81.530 67.0543
366.964523 81.533 66.7194
369.623699 81.535 66.3741
372.302145 81.534 66.0237
375.000000 81.531 65.6727
377.717405 81.526 65.3251
380.454501 81.519 64.9831
383.211431 81.512 64.6472
385.988339 81.503 64.3177
388.785369 81.495 63.9931
391.602668 81.485 63.6705
394.440383 81.475 63.3470
397.298660 81.465 63.0207
400.177650 81.453 62.6898
403.077502 81.439 62.3536
405.998368 81.423 62.0162
408.940400 81.404 61.6871
411.903750 81.384 61.3776
414.888575 81.363 61.0957
417.895028 81.343 60.8450
420.923268 81.324 60.6251
423.973452 81.307 60.4326
427.045738 81.291 60.2614
430.140287 81.276 60.1016
433.257261 81.262 59.9421
436.396822 81.251 59.7735
439.559133 81.241 59.5909
442.744360 81.233 59.3944
445.952668 81.226 59.1868
449.184225 81.220 58.9720
452.439199 81.214 58.7531
455.717760 81.207 58.5322
459.020079 81.198 58.3107
462.346327 81.189 58.0902
465.696680 81.180 57.8715
469.071310 81.169 57.6553
472.470394 81.159 57.4432
475.894109 81.149 57.2365
479.342634 81.139 57.0366
482.816148 81.129 56.8444
486.314833 81.119 56.6597
489.838871 81.109 56.4817
493.388445 81.099 56.3090
496.963741 81.088 56.1394
500.564945 81.077 55.9703
504.192245 81.065 55.7994
507.845830 81.054 55.6254
511.525890 81.043 55.4494
515.232618 81.033 55.2739
518.966206 81.024 55.1009
522.726849 81.015 54.9316
526.514743 81.007 54.7668
530.330086 80.999 54.6061
534.173076 80.991 54.4493
538.043915 80.983 54.2968
541.942803 80.975 54.1489
545.869944 80.967 54.0058
549.825542 80.959 53.8674
553.809805 80.951 53.7330
557.822939 80.942 53.6025
561.865154 80.934 53.4758
565.936660 80.925 53.3528
570.037671 80.917 53.2335
574.168399 80.909 53.1180
578.329060 80.901 53.0066
582.519870 80.894 52.8989
586.741049 80.886 52.7943
590.992817 80.879 52.6926
595.275394 80.872 52.5943
599.589005 80.866 52.5004
603.933874 80.859 52.4117
608.310228 80.853 52.3284
612.718295 80.847 52.2502
617.158304 80.842 52.1769
621.630488 80.836 52.1085
626.135079 80.831 52.0451
630.672311 80.826 51.9863
635.242423 80.821 51.9321
639.845651 80.816 51.8823
644.482237 80.811 51.8366
649.152421 80.806 51.7951
653.856447 80.801 51.7582
658.594560 80.797 51.7260
663.367008 80.793 51.6977
668.174039 80.790 51.6725
673.015903 80.787 51.6509
677.892854 80.785 51.6342
682.805145 80.783 51.6240
687.753032 80.781 51.6215
692.736774 80.779 51.6263
697.756631 80.778 51.6372
702.812863 80.777 51.6533
707.905735 80.777 51.6737
713.035511 80.778 51.6987
718.202461 80.779 51.7288
723.406852 80.782 51.7649
728.648956 80.785 51.8075
733.929047 80.789 51.8568
739.247399 80.793 51.9131
744.604290 80.798 51.9772
750.000000 80.804 52.0489
755.434809 80.810 52.1274
760.909001 80.816 52.2113
766.422861 80.824 52.2998
771.976677 80.833 52.3926
777.570739 80.843 52.4896
783.205337 80.854 52.5903
788.880766 80.866 52.6953
794.597321 80.878 52.8058
800.355301 80.892 52.9222
806.155005 80.907 53.0441
811.996736 80.924 53.1703
817.880799 80.943 53.3000
823.807501 80.963 53.4321
829.777150 80.986 53.5659
835.790057 81.010 53.7017
841.846536 81.035 53.8406
847.946903 81.062 53.9841
854.091476 81.089 54.1340
860.280575 81.118 54.2910
866.514523 81.148 54.4551
872.793644 81.179 54.6252
879.118267 81.212 54.7994
885.488720 81.246 54.9758
891.905336 81.281 55.1531
898.368450 81.319 55.3307
904.878398 81.358 55.5087
911.435520 81.398 55.6868
918.040157 81.441 55.8641
924.692655 81.486 56.0403
931.393359 81.533 56.2153
938.142619 81.582 56.3890
944.940787 81.633 56.5607
951.788218 81.686 56.7296
958.685268 81.741 56.8945
965.632296 81.799 57.0548
972.629666 81.858 57.2100
979.677741 81.919 57.3602
986.776890 81.983 57.5051
993.927482 82.048 57.6443
1001.129891 82.115 57.7770
1008.384491 82.184 57.9022
1015.691660 82.256 58.0183
1023.051781 82.328 58.1246
1030.465236 82.403 58.2205
1037.932411 82.480 58.3058
1045.453698 82.558 58.3801
1053.029486 82.638 58.4426
1060.660172 82.720 58.4922
1068.346153 82.803 58.5281
1076.087829 82.888 58.5496
1083.885605 82.974 58.5560
1091.739887 83.061 58.5470
1099.651084 83.150 58.5219
1107.619609 83.239 58.4804
1115.645878 83.330 58.4224
1123.730308 83.421 58.3481
1131.873321 83.513 58.2578
1140.075341 83.605 58.1510
1148.336797 83.698 58.0270
1156.658119 83.790 57.8854
1165.039741 83.883 57.7256
1173.482099 83.976 57.5469
1181.985634 84.069 57.3491
1190.550789 84.161 57.1317
1199.178011 84.253 56.8951
1207.867749 84.344 56.6398
1216.620457 84.435 56.3666
1225.436590 84.524 56.0767
1234.316609 84.613 55.7711
1243.260976 84.700 55.4504
1252.270157 84.785 55.1147
1261.344623 84.869 54.7643
1270.484846 84.951 54.4003
1279.691303 85.031 54.0240
1288.964474 85.109 53.6359
1298.304842 85.185 53.2366
1307.712894 85.259 52.8265
1317.189120 85.331 52.4065
1326.734016 85.401 51.9774
1336.348077 85.469 51.5406
1346.031806 85.534 51.0978
1355.785708 85.597 50.6501
1365.610290 85.658 50.1989
1375.506065 85.717 49.7446
1385.473549 85.773 49.2878
1395.513261 85.827 48.8293
1405.625726 85.879 48.3702
1415.811469 85.929 47.9115
1426.071023 85.977 47.4544
1436.404921 86.024 46.9998
1446.813703 86.068 46.5482
1457.297912 86.111 46.1002
1467.858093 86.152 45.6562
1478.494798 86.192 45.2165
1489.208581 86.230 44.7814
1500.000000 86.267 44.3511
1510.869618 86.303 43.9261
1521.818002 86.338 43.5066
1532.845723 86.372 43.0928
1543.953355 86.405 42.6850
1555.141477 86.437 42.2831
1566.410674 86.469 41.8868
1577.761531 86.499 41.4961
1589.194642 86.530 41.1108
1600.710601 86.560 40.7310
1612.310010 86.590 40.3564
1623.993473 86.619 39.9870
1635.761599 86.649 39.6225
1647.615002 86.678 39.2627
1659.554299 86.708 38.9075
1671.580114 86.737 38.5567
1683.693072 86.767 38.2097
1695.893807 86.797 37.8660
1708.182952 86.827 37.5252
1720.561150 86.857 37.1867
1733.029045 86.887 36.8501
1745.587288 86.918 36.5151
1758.236533 86.948 36.1814
1770.977440 86.980 35.8483
1783.810673 87.011 35.5154
1796.736900 87.043 35.1822
1809.756796 87.076 34.8483
1822.871040 87.108 34.5137
1836.080315 87.142 34.1779
1849.385310 87.175 33.8406
1862.786718 87.209 33.5014
1876.285239 87.243 33.1600
1889.881575 87.277 32.8159
1903.576436 87.312 32.4690
1917.370535 87.347 32.1188
1931.264593 87.382 31.7649
1945.259332 87.417 31.4068
1959.355483 87.453 31.0439
1973.553781 87.488 30.6758
1987.854965 87.524 30.3021
2002.259781 87.560 29.9227
2016.768981 87.596 29.5377
2031.383320 87.632 29.1467
2046.103561 87.668 28.7497
2060.930471 87.704 28.3464
2075.864823 87.739 27.9366
2090.907395 87.774 27.5202
2106.058972 87.809 27.0972
2121.320344 87.844 26.6678
2136.692305 87.878 26.2321
2152.175658 87.912 25.7899
2167.771210 87.945 25.3411
2183.479774 87.977 24.8856
2199.302169 88.009 24.4234
2215.239219 88.041 23.9546
2231.291755 88.072 23.4791
2247.460615 88.102 22.9968
2263.746641 88.131 22.5076
2280.150683 88.160 22.0118
2296.673595 88.189 21.5093
2313.316238 88.216 21.0002
2330.079481 88.243 20.4838
2346.964198 88.270 19.9598
2363.971268 88.296 19.4274
2381.101578 88.322 18.8859
2398.356022 88.347 18.3340
2415.735498 88.372 17.7706
2433.240913 88.397 17.1941
2450.873180 88.421 16.6024
2468.633217 88.445 15.9930
2486.521951 88.468 15.3630
2504.540314 88.490 14.7094
2522.689246 88.511 14.0292
2540.969692 88.529 13.3203
2559.382606 88.544 12.5806
2577.928947 88.555 11.8095
2596.609683 88.561 11.0076
2615.425787 88.561 10.1772
2634.378241 88.553 9.3231
2653.468031 88.536 8.4519
2672.696154 88.510 7.5720
2692.063613 88.474 6.6937
2711.571415 88.427 5.8282
2731.220579 88.370 4.9873
2751.012130 88.303 4.1821
2770.947098 88.228 3.4224
2791.026522 88.145 2.7158
2811.251451 88.057 2.0673
2831.622938 87.964 1.4799
2852.142045 87.867 0.9541
2872.809842 87.769 0.4886
2893.627406 87.671 0.0808
2914.595823 87.573 -0.2729
2935.716186 87.476 -0.5766
2956.989596 87.382 -0.8347
2978.417161 87.289 -1.0518
3000.000000 87.199 -1.2319
3021.739237 87.112 -1.3787
3043.636005 87.028 -1.4951
3065.691446 86.946 -1.5841
3087.906710 86.867 -1.6481
3110.282955 86.791 -1.6891
3132.821347 86.718 -1.7092
3155.523062 86.648 -1.7095
3178.389283 86.580 -1.6915
3201.421202 86.514 -1.6561
3224.620020 86.452 -1.6044
3247.986946 86.392 -1.5374
3271.523198 86.334 -1.4557
3295.230004 86.279 -1.3598
3319.108599 86.226 -1.2504
3343.160228 86.176 -1.1279
3367.386145 86.129 -0.9929
3391.787613 86.084 -0.8461
3416.365904 86.042 -0.6878
3441.122300 86.002 -0.5186
3466.058091 85.966 -0.3389
3491.174576 85.932 -0.1492
3516.473066 85.901 0.0498
3541.954880 85.873 0.2579
3567.621345 85.847 0.4747
3593.473800 85.825 0.6995
3619.513592 85.806 0.9316
3645.742080 85.790 1.1705
3672.160630 85.778 1.4153
3698.770620 85.768 1.6655
3725.573436 85.763 1.9203
3752.570477 85.760 2.1786
3779.763150 85.761 2.4395
3807.152872 85.766 2.7018
3834.741071 85.774 2.9649
3862.529185 85.785 3.2283
3890.518664 85.800 3.4922
3918.710966 85.818 3.7572
3947.107561 85.840 4.0244
3975.709929 85.865 4.2955
4004.519563 85.895 4.5718
4033.537962 85.929 4.8544
4062.766641 85.968 5.1432
4092.207123 86.014 5.4366
4121.860942 86.068 5.7309
4151.729646 86.131 6.0194
4181.814790 86.203 6.2923
4212.117944 86.286 6.5369
4242.640687 86.379 6.7381
4273.384610 86.481 6.8806
4304.351317 86.591 6.9500
4335.542421 86.708 6.9354
4366.959549 86.828 6.8293
4398.604338 86.951 6.6286
4430.478438 87.073 6.3333
4462.583511 87.193 5.9462
4494.921231 87.309 5.4717
4527.493283 87.419 4.9152
4560.301365 87.524 4.2817
4593.347189 87.621 3.5764
4626.632476 87.709 2.8043
4660.158962 87.789 1.9702
4693.928395 87.858 1.0796
4727.942535 87.917 0.1381
4762.203156 87.963 -0.8478
4796.712043 87.998 -1.8710
4831.470996 88.019 -2.9235
4866.481826 88.026 -3.9966
4901.746360 88.019 -5.0807
4937.266434 87.998 -6.1658
4973.043902 87.962 -7.2415
5009.080628 87.912 -8.2972
5045.378492 87.849 -9.3223
5081.939384 87.772 -10.3063
5118.765212 87.682 -11.2392
5155.857894 87.581 -12.1121
5193.219366 87.470 -12.9171
5230.851574 87.350 -13.6475
5268.756481 87.222 -14.2980
5306.936062 87.088 -14.8649
5345.392309 86.951 -15.3457
5384.127225 86.810 -15.7393
5423.142830 86.669 -16.0459
5462.441159 86.528 -16.2673
5502.024259 86.388 -16.4063
5541.894195 86.252 -16.4669
5582.053045 86.120 -16.4539
5622.502902 85.994 -16.3732
5663.245876 85.874 -16.2313
5704.284090 85.761 -16.0355
5745.619684 85.655 -15.7932
5787.254813 85.558 -15.5127
5829.191647 85.470 -15.2020
5871.432373 85.390 -14.8694
5913.979192 85.318 -14.5229
5956.834323 85.254 -14.1702
6000.000000 85.198 -13.8177
6043.478473 85.149 -13.4714
6087.272010 85.105 -13.1351
6131.382892 85.067 -12.8115
6175.813420 85.032 -12.5011
6220.565910 85.001 -12.2031
6265.642695 84.973 -11.9154
6311.046124 84.947 -11.6348
6356.778566 84.923 -11.3575
6402.842404 84.901 -11.0790
6449.240040 84.880 -10.7943
6495.973891 84.861 -10.4984
6543.046396 84.845 -10.1866
6590.460007 84.832 -9.8552
6638.217197 84.825 -9.5018
6686.320456 84.823 -9.1254
6734.772290 84.829 -8.7272
6783.575226 84.843 -8.3107
6832.731809 84.869 -7.8814
6882.244600 84.907 -7.4475
6932.116181 84.958 -7.0196
6982.349153 85.024 -6.6110
7032.946133 85.107 -6.2377
7083.909760 85.206 -5.9183
7135.242690 85.321 -5.6743
7186.947600 85.453 -5.5283
7239.027185 85.600 -5.5042
7291.484160 85.760 -5.6260
7344.321260 85.931 -5.9162
7397.541239 86.108 -6.3958
7451.146872 86.289 -7.0831
7505.140954 86.468 -7.9927
7559.526299 86.639 -9.1348
7614.305743 86.797 -10.5128
7669.482141 86.933 -12.1224
7725.058371 87.042 -13.9501
7781.037328 87.117 -15.9721
7837.421932 87.150 -18.1541
7894.215122 87.138 -20.4523
7951.419859 87.075 -22.8157
8009.039125 86.961 -25.1881
8067.075924 86.795 -27.5117
8125.533282 86.578 -29.7302
8184.414245 86.314 -31.7920
8243.721885 86.008 -33.6533
8303.459292 85.666 -35.2803
8363.629581 85.295 -36.6495
8424.235888 84.900 -37.7463
8485.281374 84.488 -38.5643
8546.769221 84.065 -39.1031
8608.702634 83.637 -39.3677
8671.084842 83.207 -39.3662
8733.919097 82.780 -39.1100
8797.208675 82.360 -38.6119
8860.956876 81.949 -37.8862
8925.167022 81.550 -36.9471
8989.842461 81.166 -35.8095
9054.986566 80.798 -34.4884
9120.602731 80.449 -32.9997
9186.694378 80.119 -31.3605
9253.264952 79.810 -29.5891
9320.317925 79.523 -27.7025
9387.856790 79.259 -25.7165
9455.885071 79.019 -23.6463
9524.406312 78.803 -21.5076
9593.424086 78.610 -19.3172
9662.941992 78.442 -17.0928
9732.963653 78.297 -14.8517
9803.492719 78.176 -12.6115
9874.532869 78.076 -10.3883
9946.087805 77.997 -8.1973
10018.161257 77.938 -6.0513
10090.756983 77.896 -3.9612
10163.878768 77.870 -1.9359
10237.530423 77.858 0.0186
10311.715789 77.857 1.8988
10386.438732 77.867 3.7048
10461.703149 77.885 5.4390
10537.512962 77.910 7.1066
10613.872125 77.940 8.7147
10690.784618 77.976 10.2712
10768.254450 78.017 11.7844
10846.285661 78.064 13.2603
10924.882318 78.118 14.7027
11004.048518 78.179 16.1124
11083.788390 78.248 17.4876
11164.106090 78.328 18.8239
11245.005805 78.418 20.1156
11326.491752 78.520 21.3557
11408.568180 78.635 22.5351
11491.239368 78.764 23.6418
11574.509626 78.909 24.6589
11658.383294 79.070 25.5630
11742.864745 79.248 26.3240
11827.958384 79.440 26.9056
11913.668646 79.643 27.2695
12000.000000 79.851 27.3807
12086.956947 80.055 27.2150
12174.544019 80.245 26.7657
12262.765784 80.410 26.0488
12351.626840 80.539 25.1046
12441.131819 80.623 23.9968
12531.285389 80.656 22.8071
12622.092249 80.635 21.6277
12713.557132 80.562 20.5543
12805.684808 80.441 19.6780
12898.480079 80.281 19.0783
12991.947783 80.093 18.8176
13086.092792 79.891 18.9367
13180.920015 79.689 19.4528
13276.434395 79.500 20.3594
13372.640911 79.339 21.6285
13469.544580 79.218 23.2139
13567.150452 79.146 25.0547
13665.463617 79.133 27.0781
13764.489200 79.183 29.2025
13864.232362 79.302 31.3389
13964.698305 79.490 33.3925
14065.892266 79.745 35.2640
14167.819519 80.064 36.8519
14270.485380 80.438 38.0564
14373.895200 80.854 38.7861
14478.054370 81.297 38.9661
14582.968320 81.748 38.5460
14688.642520 82.186 37.5063
14795.082478 82.592 35.8618
14902.293745 82.945 33.6604
15010.281908 83.230 30.9811
15119.052599 83.436 27.9260
15228.611486 83.557 24.6090
15338.964283 83.593 21.1429
15450.116741 83.548 17.6276
15562.074656 83.427 14.1435
15674.843864 83.240 10.7523
15788.430244 82.993 7.5057
15902.839718 82.695 4.4584
16018.078250 82.355 1.6786
16134.151848 81.995 -0.7573
16251.066563 81.652 -2.8068
16368.828491 81.381 -4.5493
16487.443769 81.245 -6.2611
16606.918584 81.280 -8.3845
16727.259161 81.475 -11.4046
16848.471777 81.766 -15.7162
16970.562748 82.053 -21.5271
17093.538442 82.227 -28.8061
17217.405268 82.184 -37.2631
17342.169684 81.852 -46.3735
17467.838194 81.199 -55.4829
17594.417350 80.234 -63.9738
17721.913751 78.994 -71.3779
17850.334044 77.526 -77.3962
17979.684923 75.881 -81.8733
18109.973131 74.105 -84.7670
18241.205462 72.243 -86.1262
18373.388756 70.334 -86.0685
18506.529905 68.413 -84.7462
18640.635849 66.504 -82.2911
18775.713581 64.624 -78.7409
18911.770141 62.782 -73.9568
19048.812624 60.982 -67.5535
19186.848172 59.239 -58.8890
19325.883983 57.592 -47.2633
19465.927305 56.107 -32.6339
19606.985439 54.871 -16.6837
19749.065738 53.950 -2.5015
19892.175609 53.362 7.5429
20036.322514 53.083 12.6238
