* Measurement data measured by REW V5.31.3
* Source: Headset (CX31993 HIFI AUDIO), MICROPHONE (Master Volume), R, volume: 0.400
* Format: 256k Log Swept Sine, 1 sweep at -11.9 dBFS with no timing reference
* Dated: 05 26, 25 5:57:14 PM
* REW Settings:
*  C-weighting compensation: Off
*  Target level: 75.0 dB
* Note: ; 
* Measurement: Final A5000 L
* Smoothing: 1/12 octave
* Frequency Step: 96 ppo
* Start Frequency: 0.36621094 Hz
*
* Freq(Hz) SPL(dB) Phase(degrees)
0.366211 34.502 97.4241
0.368865 34.536 97.1868
0.371538 34.586 96.8352
0.374230 34.647 96.4007
0.376942 34.716 95.9101
0.379673 34.790 95.3833
0.382424 34.867 94.8331
0.385196 34.946 94.2677
0.387987 35.026 93.6918
0.390798 35.108 93.1082
0.393630 35.189 92.5184
0.396483 35.272 91.9234
0.399356 35.355 91.3237
0.402250 35.439 90.7199
0.405165 35.524 90.1121
0.408101 35.609 89.5006
0.411058 35.695 88.8858
0.414037 35.781 88.2679
0.417037 35.868 87.6471
0.420059 35.956 87.0236
0.423103 36.044 86.3978
0.426169 36.133 85.7698
0.429257 36.222 85.1400
0.432368 36.313 84.5085
0.435501 36.403 83.8756
0.438656 36.495 83.2416
0.441835 36.587 82.6067
0.445037 36.680 81.9711
0.448262 36.774 81.3350
0.451510 36.868 80.6988
0.454782 36.963 80.0626
0.458077 37.058 79.4267
0.461397 37.155 78.7912
0.464740 37.251 78.1565
0.468108 37.349 77.5226
0.471500 37.448 76.8898
0.474917 37.547 76.2582
0.478358 37.646 75.6282
0.481825 37.747 74.9997
0.485316 37.848 74.3731
0.488833 37.950 73.7484
0.492375 38.053 73.1259
0.495943 38.157 72.5056
0.499537 38.261 71.8878
0.503157 38.366 71.2724
0.506803 38.472 70.6597
0.510475 38.578 70.0498
0.514175 38.685 69.4427
0.517900 38.793 68.8386
0.521653 38.902 68.2375
0.525434 39.012 67.6396
0.529241 39.122 67.0448
0.533076 39.234 66.4532
0.536939 39.346 65.8650
0.540830 39.459 65.2801
0.544749 39.572 64.6986
0.548696 39.687 64.1205
0.552673 39.802 63.5458
0.556677 39.918 62.9746
0.560711 40.035 62.4069
0.564774 40.153 61.8426
0.568867 40.272 61.2818
0.572989 40.392 60.7245
0.577141 40.512 60.1706
0.581324 40.633 59.6201
0.585536 40.756 59.0731
0.589779 40.879 58.5294
0.594053 41.003 57.9891
0.598358 41.128 57.4520
0.602694 41.253 56.9183
0.607061 41.380 56.3878
0.611460 41.508 55.8605
0.615891 41.636 55.3363
0.620354 41.766 54.8152
0.624849 41.896 54.2972
0.629377 42.028 53.7821
0.633938 42.160 53.2699
0.638532 42.293 52.7606
0.643159 42.428 52.2541
0.647819 42.563 51.7502
0.652514 42.699 51.2491
0.657242 42.836 50.7506
0.662005 42.974 50.2546
0.666802 43.114 49.7610
0.671634 43.254 49.2699
0.676501 43.395 48.7811
0.681403 43.537 48.2945
0.686341 43.681 47.8102
0.691314 43.825 47.3280
0.696324 43.970 46.8480
0.701370 44.116 46.3700
0.706452 44.263 45.8943
0.711571 44.411 45.4209
0.716728 44.558 44.9501
0.721921 44.706 44.4825
0.727153 44.853 44.0187
0.732422 44.999 43.5597
0.737729 45.144 43.1068
0.743075 45.288 42.6611
0.748460 45.431 42.2234
0.753883 45.575 41.7942
0.759346 45.718 41.3737
0.764849 45.862 40.9620
0.770391 46.006 40.5589
0.775974 46.151 40.1641
0.781597 46.297 39.7774
0.787261 46.443 39.3985
0.792966 46.590 39.0270
0.798712 46.737 38.6625
0.804500 46.885 38.3049
0.810329 47.034 37.9537
0.816201 47.184 37.6086
0.822116 47.334 37.2692
0.828073 47.485 36.9353
0.834074 47.636 36.6066
0.840118 47.788 36.2827
0.846206 47.940 35.9633
0.852338 48.094 35.6481
0.858514 48.247 35.3368
0.864735 48.401 35.0292
0.871001 48.556 34.7249
0.877313 48.711 34.4237
0.883670 48.867 34.1252
0.890074 49.024 33.8293
0.896524 49.180 33.5356
0.903020 49.337 33.2439
0.909564 49.495 32.9540
0.916155 49.653 32.6655
0.922794 49.812 32.3783
0.929481 49.970 32.0921
0.936216 50.130 31.8067
0.943000 50.289 31.5218
0.949834 50.449 31.2373
0.956717 50.609 30.9529
0.963649 50.770 30.6684
0.970632 50.930 30.3836
0.977666 51.091 30.0983
0.984750 51.252 29.8123
0.991886 51.414 29.5253
0.999074 51.575 29.2373
1.006314 51.737 28.9481
1.013606 51.898 28.6573
1.020951 52.060 28.3650
1.028349 52.222 28.0709
1.035801 52.383 27.7748
1.043307 52.545 27.4766
1.050867 52.707 27.1763
1.058482 52.868 26.8737
1.066152 53.029 26.5689
1.073878 53.191 26.2621
1.081660 53.351 25.9534
1.089498 53.512 25.6436
1.097393 53.672 25.3333
1.105345 53.832 25.0236
1.113355 53.991 24.7155
1.121423 54.150 24.4096
1.129549 54.309 24.1065
1.137734 54.467 23.8065
1.145979 54.624 23.5095
1.154283 54.781 23.2157
1.162647 54.938 22.9247
1.171072 55.094 22.6363
1.179558 55.249 22.3505
1.188106 55.405 22.0669
1.196715 55.559 21.7853
1.205387 55.714 21.5054
1.214122 55.867 21.2270
1.222920 56.021 20.9500
1.231782 56.174 20.6739
1.240708 56.327 20.3987
1.249699 56.480 20.1240
1.258754 56.632 19.8497
1.267876 56.784 19.5756
1.277063 56.936 19.3013
1.286318 57.087 19.0268
1.295639 57.239 18.7517
1.305027 57.390 18.4759
1.314484 57.541 18.1992
1.324009 57.692 17.9213
1.333604 57.843 17.6421
1.343268 57.995 17.3613
1.353002 58.146 17.0788
1.362806 58.297 16.7944
1.372681 58.449 16.5079
1.382628 58.600 16.2191
1.392647 58.752 15.9279
1.402739 58.905 15.6340
1.412904 59.057 15.3376
1.423142 59.211 15.0385
1.433455 59.364 14.7368
1.443843 59.518 14.4330
1.454305 59.672 14.1274
1.464844 59.826 13.8209
1.475459 59.980 13.5142
1.486150 60.134 13.2084
1.496920 60.288 12.9039
1.507767 60.441 12.6011
1.518693 60.595 12.3001
1.529698 60.747 12.0007
1.540783 60.899 11.7029
1.551948 61.051 11.4061
1.563194 61.203 11.1103
1.574521 61.354 10.8149
1.585931 61.504 10.5197
1.597423 61.655 10.2242
1.608999 61.805 9.9281
1.620658 61.954 9.6311
1.632402 62.104 9.3329
1.644232 62.253 9.0329
1.656146 62.402 8.7310
1.668147 62.550 8.4268
1.680235 62.699 8.1200
1.692411 62.847 7.8102
1.704675 62.995 7.4971
1.717028 63.144 7.1805
1.729470 63.292 6.8599
1.742003 63.440 6.5352
1.754626 63.588 6.2060
1.767341 63.737 5.8723
1.780147 63.885 5.5338
1.793047 64.034 5.1905
1.806040 64.182 4.8426
1.819128 64.331 4.4904
1.832310 64.479 4.1346
1.845587 64.628 3.7759
1.858961 64.776 3.4149
1.872432 64.924 3.0524
1.886001 65.071 2.6888
1.899667 65.218 2.3242
1.913433 65.364 1.9587
1.927299 65.510 1.5924
1.941265 65.656 1.2252
1.955332 65.801 0.8570
1.969501 65.945 0.4877
1.983773 66.090 0.1170
1.998148 66.233 -0.2551
2.012627 66.377 -0.6289
2.027212 66.520 -1.0045
2.041902 66.663 -1.3821
2.056698 66.806 -1.7619
2.071602 66.948 -2.1441
2.086614 67.091 -2.5290
2.101734 67.233 -2.9167
2.116964 67.375 -3.3074
2.132304 67.517 -3.7013
2.147756 67.659 -4.0986
2.163320 67.801 -4.4992
2.178996 67.942 -4.9031
2.194786 68.084 -5.3101
2.210690 68.225 -5.7199
2.226710 68.366 -6.1321
2.242845 68.506 -6.5464
2.259098 68.646 -6.9625
2.275468 68.785 -7.3803
2.291957 68.924 -7.7996
2.308566 69.062 -8.2204
2.325295 69.200 -8.6426
2.342145 69.337 -9.0663
2.359117 69.474 -9.4916
2.376212 69.610 -9.9185
2.393431 69.746 -10.3472
2.410775 69.882 -10.7776
2.428244 70.017 -11.2100
2.445840 70.152 -11.6445
2.463564 70.287 -12.0812
2.481416 70.421 -12.5202
2.499397 70.555 -12.9617
2.517509 70.689 -13.4058
2.535752 70.823 -13.8526
2.554127 70.956 -14.3022
2.572635 71.089 -14.7544
2.591277 71.222 -15.2092
2.610055 71.354 -15.6664
2.628968 71.485 -16.1259
2.648019 71.616 -16.5876
2.667208 71.747 -17.0513
2.686535 71.877 -17.5168
2.706003 72.006 -17.9841
2.725612 72.135 -18.4532
2.745363 72.263 -18.9240
2.765257 72.391 -19.3964
2.785295 72.518 -19.8705
2.805478 72.645 -20.3463
2.825808 72.771 -20.8238
2.846285 72.898 -21.3031
2.866910 73.023 -21.7843
2.887685 73.149 -22.2675
2.908611 73.274 -22.7529
2.929688 73.399 -23.2405
2.950917 73.523 -23.7305
2.972301 73.647 -24.2230
2.993839 73.770 -24.7178
3.015534 73.893 -25.2149
3.037386 74.015 -25.7142
3.059396 74.136 -26.2155
3.081565 74.257 -26.7187
3.103896 74.377 -27.2235
3.126388 74.497 -27.7300
3.149043 74.616 -28.2380
3.171862 74.735 -28.7473
3.194847 74.853 -29.2580
3.217998 74.971 -29.7701
3.241317 75.089 -30.2837
3.264805 75.206 -30.7988
3.288463 75.322 -31.3156
3.312293 75.438 -31.8344
3.336295 75.554 -32.3553
3.360471 75.669 -32.8784
3.384822 75.783 -33.4036
3.409350 75.897 -33.9310
3.434056 76.010 -34.4603
3.458940 76.123 -34.9913
3.484005 76.234 -35.5239
3.509252 76.346 -36.0580
3.534681 76.457 -36.5933
3.560295 76.567 -37.1299
3.586094 76.677 -37.6676
3.612081 76.786 -38.2066
3.638255 76.895 -38.7470
3.664620 77.003 -39.2890
3.691175 77.111 -39.8330
3.717923 77.218 -40.3790
3.744864 77.325 -40.9272
3.772001 77.431 -41.4775
3.799335 77.536 -42.0298
3.826866 77.640 -42.5837
3.854597 77.744 -43.1391
3.882529 77.848 -43.6958
3.910664 77.950 -44.2535
3.939002 78.052 -44.8121
3.967546 78.154 -45.3717
3.996296 78.255 -45.9323
4.025255 78.356 -46.4941
4.054423 78.455 -47.0574
4.083804 78.554 -47.6225
4.113396 78.653 -48.1896
4.143204 78.751 -48.7584
4.173227 78.848 -49.3290
4.203468 78.944 -49.9009
4.233928 79.040 -50.4740
4.264609 79.135 -51.0478
4.295512 79.229 -51.6222
4.326639 79.323 -52.1971
4.357992 79.416 -52.7726
4.389572 79.508 -53.3488
4.421380 79.600 -53.9260
4.453419 79.690 -54.5045
4.485691 79.781 -55.0845
4.518196 79.870 -55.6658
4.550936 79.958 -56.2483
4.583914 80.046 -56.8315
4.617131 80.133 -57.4150
4.650589 80.220 -57.9986
4.684289 80.305 -58.5819
4.718233 80.390 -59.1650
4.752424 80.475 -59.7479
4.786862 80.558 -60.3309
4.821549 80.641 -60.9142
4.856488 80.723 -61.4980
4.891680 80.804 -62.0822
4.927127 80.884 -62.6665
4.962831 80.963 -63.2507
4.998794 81.042 -63.8342
5.035017 81.120 -64.4167
5.071503 81.198 -64.9979
5.108253 81.274 -65.5780
5.145270 81.350 -66.1568
5.182555 81.426 -66.7349
5.220110 81.500 -67.3121
5.257937 81.574 -67.8887
5.296038 81.647 -68.4643
5.334415 81.719 -69.0388
5.373071 81.791 -69.6116
5.412006 81.862 -70.1826
5.451224 81.932 -70.7515
5.490725 82.002 -71.3184
5.530514 82.072 -71.8832
5.570590 82.140 -72.4462
5.610957 82.209 -73.0076
5.651616 82.276 -73.5672
5.692570 82.343 -74.1250
5.733821 82.410 -74.6809
5.775370 82.476 -75.2346
5.817221 82.542 -75.7860
5.859375 82.607 -76.3352
5.901834 82.672 -76.8822
5.944602 82.737 -77.4271
5.987679 82.801 -77.9701
6.031068 82.865 -78.5113
6.074771 82.929 -79.0508
6.118792 82.993 -79.5888
6.163131 83.056 -80.1252
6.207792 83.119 -80.6600
6.252776 83.182 -81.1935
6.298086 83.245 -81.7256
6.343725 83.308 -82.2566
6.389694 83.370 -82.7868
6.435996 83.433 -83.3163
6.482634 83.495 -83.8454
6.529610 83.557 -84.3743
6.576926 83.619 -84.9033
6.624585 83.681 -85.4325
6.672590 83.743 -85.9619
6.720942 83.805 -86.4919
6.769645 83.867 -87.0226
6.818700 83.928 -87.5542
6.868111 83.990 -88.0871
6.917881 84.051 -88.6215
6.968010 84.112 -89.1575
7.018504 84.173 -89.6954
7.069362 84.233 -90.2351
7.120590 84.294 -90.7769
7.172189 84.354 -91.3207
7.224161 84.413 -91.8667
7.276511 84.472 -92.4149
7.329239 84.531 -92.9654
7.382350 84.589 -93.5183
7.435845 84.647 -94.0737
7.489729 84.704 -94.6313
7.544002 84.760 -95.1910
7.598669 84.816 -95.7526
7.653732 84.871 -96.3158
7.709194 84.925 -96.8808
7.765058 84.979 -97.4472
7.821327 85.031 -98.0150
7.878004 85.083 -98.5838
7.935091 85.134 -99.1532
7.992592 85.184 -99.7227
8.050510 85.233 -100.2919
8.108847 85.281 -100.8607
8.167607 85.328 -101.4288
8.226793 85.374 -101.9958
8.286408 85.419 -102.5613
8.346454 85.463 -103.1246
8.406936 85.506 -103.6854
8.467856 85.548 -104.2433
8.529218 85.590 -104.7980
8.591024 85.630 -105.3494
8.653278 85.670 -105.8969
8.715983 85.709 -106.4403
8.779143 85.748 -106.9792
8.842760 85.785 -107.5134
8.906839 85.823 -108.0427
8.971381 85.859 -108.5671
9.036392 85.896 -109.0866
9.101873 85.932 -109.6011
9.167829 85.967 -110.1105
9.234263 86.003 -110.6149
9.301178 86.038 -111.1146
9.368578 86.074 -111.6097
9.436467 86.109 -112.1006
9.504847 86.145 -112.5876
9.573723 86.180 -113.0710
9.643099 86.216 -113.5512
9.712976 86.252 -114.0286
9.783361 86.288 -114.5037
9.854255 86.325 -114.9770
9.925663 86.361 -115.4491
9.997588 86.398 -115.9204
10.070035 86.435 -116.3913
10.143007 86.472 -116.8623
10.216507 86.510 -117.3339
10.290540 86.547 -117.8065
10.365109 86.585 -118.2804
10.440219 86.622 -118.7559
10.515873 86.659 -119.2331
10.592076 86.696 -119.7123
10.668830 86.733 -120.1936
10.746141 86.770 -120.6771
10.824012 86.806 -121.1626
10.902447 86.842 -121.6499
10.981451 86.877 -122.1391
11.061027 86.911 -122.6298
11.141180 86.945 -123.1218
11.221913 86.978 -123.6148
11.303232 87.011 -124.1084
11.385140 87.042 -124.6022
11.467641 87.073 -125.0960
11.550741 87.103 -125.5894
11.634442 87.133 -126.0820
11.718750 87.162 -126.5736
11.803669 87.190 -127.0638
11.889203 87.217 -127.5524
11.975357 87.243 -128.0392
12.062136 87.270 -128.5242
12.149543 87.295 -129.0072
12.237583 87.320 -129.4882
12.326262 87.344 -129.9673
12.415583 87.368 -130.4445
12.505552 87.392 -130.9199
12.596172 87.415 -131.3938
12.687449 87.438 -131.8662
12.779387 87.460 -132.3373
12.871992 87.482 -132.8074
12.965268 87.504 -133.2766
13.059220 87.525 -133.7450
13.153852 87.546 -134.2128
13.249170 87.566 -134.6801
13.345179 87.586 -135.1470
13.441884 87.606 -135.6135
13.539289 87.625 -136.0796
13.637401 87.643 -136.5453
13.736223 87.661 -137.0105
13.835761 87.679 -137.4752
13.936021 87.696 -137.9394
14.037007 87.713 -138.4030
14.138725 87.729 -138.8659
14.241180 87.744 -139.3281
14.344377 87.759 -139.7896
14.448323 87.774 -140.2504
14.553021 87.789 -140.7106
14.658478 87.802 -141.1702
14.764700 87.816 -141.6292
14.871691 87.829 -142.0877
14.979457 87.842 -142.5459
15.088005 87.854 -143.0037
15.197339 87.866 -143.4613
15.307465 87.878 -143.9186
15.418389 87.889 -144.3756
15.530117 87.900 -144.8323
15.642655 87.911 -145.2887
15.756008 87.921 -145.7447
15.870182 87.930 -146.2002
15.985184 87.940 -146.6552
16.101019 87.948 -147.1094
16.217694 87.957 -147.5629
16.335214 87.965 -148.0156
16.453586 87.973 -148.4674
16.572815 87.980 -148.9183
16.692909 87.988 -149.3681
16.813872 87.995 -149.8170
16.935713 88.001 -150.2649
17.058436 88.008 -150.7118
17.182048 88.014 -151.1575
17.306556 88.020 -151.6022
17.431967 88.025 -152.0456
17.558286 88.031 -152.4879
17.685521 88.036 -152.9289
17.813677 88.041 -153.3687
17.942762 88.045 -153.8072
18.072783 88.050 -154.2445
18.203746 88.054 -154.6807
18.335658 88.058 -155.1158
18.468526 88.062 -155.5500
18.602356 88.065 -155.9833
18.737156 88.068 -156.4157
18.872934 88.071 -156.8469
19.009695 88.073 -157.2767
19.147447 88.074 -157.7043
19.286197 88.074 -158.1289
19.425953 88.074 -158.5495
19.566721 88.073 -158.9647
19.708510 88.071 -159.3732
19.851326 88.068 -159.7736
19.995177 88.065 -160.1647
20.140070 88.062 -160.5458
20.286013 88.059 -160.9165
20.433014 88.057 -161.2773
20.581080 88.055 -161.6293
20.730219 88.055 -161.9748
20.880439 88.057 -162.3164
21.031747 88.060 -162.6576
21.184152 88.065 -163.0019
21.337661 88.071 -163.3531
21.492282 88.078 -163.7143
21.648024 88.086 -164.0880
21.804895 88.093 -164.4754
21.962902 88.100 -164.8766
22.122054 88.105 -165.2903
22.282360 88.107 -165.7137
22.443827 88.107 -166.1435
22.606464 88.103 -166.5751
22.770280 88.097 -167.0043
22.935283 88.088 -167.4266
23.101481 88.076 -167.8387
23.268884 88.063 -168.2379
23.437500 88.048 -168.6232
23.607338 88.033 -168.9948
23.778406 88.018 -169.3542
23.950714 88.004 -169.7036
24.124271 87.990 -170.0462
24.299086 87.977 -170.3850
24.475167 87.965 -170.7227
24.652524 87.953 -171.0614
24.831166 87.941 -171.4024
25.011103 87.929 -171.7457
25.192344 87.916 -172.0910
25.374898 87.903 -172.4370
25.558775 87.889 -172.7823
25.743984 87.874 -173.1255
25.930536 87.859 -173.4654
26.118439 87.844 -173.8013
26.307704 87.828 -174.1330
26.498341 87.813 -174.4608
26.690359 87.798 -174.7853
26.883768 87.783 -175.1074
27.078579 87.769 -175.4280
27.274801 87.755 -175.7478
27.472446 87.741 -176.0674
27.671522 87.728 -176.3869
27.872042 87.715 -176.7063
28.074014 87.702 -177.0252
28.277450 87.689 -177.3434
28.482360 87.676 -177.6607
28.688755 87.663 -177.9770
28.896645 87.651 -178.2930
29.106042 87.639 -178.6096
29.316957 87.627 -178.9280
29.529400 87.616 -179.2496
29.743382 87.605 -179.5759
29.958915 87.593 -179.9072
30.176009 87.581 179.7566
30.394677 87.567 179.4170
30.614929 87.552 179.0765
30.836778 87.534 178.7383
31.060234 87.516 178.4062
31.285309 87.495 178.0829
31.512015 87.474 177.7704
31.740364 87.453 177.4691
31.970368 87.432 177.1776
32.202039 87.411 176.8932
32.435388 87.391 176.6128
32.670428 87.372 176.3332
32.907171 87.354 176.0521
33.145630 87.335 175.7685
33.385817 87.316 175.4825
33.627745 87.296 175.1950
33.871425 87.276 174.9072
34.116871 87.256 174.6196
34.364096 87.235 174.3325
34.613113 87.213 174.0454
34.863934 87.192 173.7582
35.116572 87.169 173.4708
35.371041 87.146 173.1844
35.627354 87.122 172.9008
35.885525 87.098 172.6217
36.145566 87.073 172.3488
36.407492 87.048 172.0825
36.671316 87.023 171.8216
36.937051 86.999 171.5642
37.204712 86.976 171.3077
37.474313 86.953 171.0500
37.745867 86.931 170.7900
38.019389 86.908 170.5282
38.294893 86.885 170.2657
38.572394 86.861 170.0041
38.851905 86.837 169.7441
39.133442 86.812 169.4864
39.417019 86.787 169.2306
39.702651 86.762 168.9766
39.990353 86.736 168.7251
40.280140 86.709 168.4773
40.572026 86.682 168.2349
40.866028 86.654 167.9994
41.162160 86.626 167.7709
41.460438 86.599 167.5481
41.760877 86.572 167.3281
42.063494 86.547 167.1073
42.368303 86.521 166.8831
42.675322 86.495 166.6541
42.984565 86.469 166.4212
43.296048 86.441 166.1873
43.609789 86.412 165.9557
43.925804 86.383 165.7296
44.244108 86.353 165.5101
44.564719 86.324 165.2964
44.887654 86.295 165.0861
45.212928 86.267 164.8757
45.540560 86.240 164.6624
45.870565 86.212 164.4451
46.202962 86.184 164.2247
46.537768 86.155 164.0040
46.875000 86.125 163.7860
47.214676 86.095 163.5735
47.556813 86.064 163.3672
47.901429 86.033 163.1665
48.248542 86.003 162.9694
48.598171 85.973 162.7737
48.950334 85.943 162.5780
49.305048 85.913 162.3821
49.662333 85.883 162.1866
50.022206 85.852 161.9922
50.384688 85.821 161.7994
50.749796 85.790 161.6077
51.117550 85.759 161.4160
51.487969 85.727 161.2231
51.861072 85.696 161.0284
52.236879 85.663 160.8333
52.615409 85.630 160.6399
52.996681 85.596 160.4510
53.380717 85.562 160.2684
53.767536 85.528 160.0920
54.157158 85.494 159.9199
54.549603 85.461 159.7501
54.944892 85.428 159.5816
55.343045 85.395 159.4158
55.744084 85.362 159.2550
56.148028 85.329 159.1005
56.554900 85.296 158.9515
56.964720 85.264 158.8050
57.377510 85.232 158.6584
57.793291 85.199 158.5114
58.212085 85.166 158.3660
58.633914 85.132 158.2249
59.058799 85.097 158.0889
59.486764 85.063 157.9559
59.917829 85.029 157.8224
60.352019 84.995 157.6862
60.789354 84.960 157.5473
61.229859 84.925 157.4069
61.673556 84.890 157.2650
62.120468 84.856 157.1204
62.570618 84.822 156.9714
63.024031 84.789 156.8177
63.480729 84.756 156.6601
63.940736 84.724 156.4998
64.404077 84.693 156.3371
64.870776 84.662 156.1727
65.340856 84.633 156.0076
65.814343 84.604 155.8417
66.291261 84.576 155.6720
66.771635 84.548 155.4946
67.255489 84.518 155.3103
67.742850 84.483 155.1299
68.233743 84.444 154.9722
68.728193 84.401 154.8536
69.226226 84.358 154.7781
69.727867 84.318 154.7342
70.233144 84.281 154.7024
70.742083 84.247 154.6651
71.254709 84.213 154.6133
71.771050 84.179 154.5470
72.291132 84.143 154.4714
72.814984 84.106 154.3925
73.342631 84.069 154.3139
73.874102 84.031 154.2356
74.409424 83.995 154.1550
74.948626 83.959 154.0696
75.491734 83.925 153.9789
76.038779 83.890 153.8841
76.589787 83.856 153.7873
77.144788 83.822 153.6909
77.703811 83.788 153.5979
78.266885 83.753 153.5102
78.834039 83.719 153.4288
79.405303 83.684 153.3527
79.980706 83.649 153.2803
80.560280 83.614 153.2092
81.144053 83.579 153.1371
81.732056 83.543 153.0624
82.324320 83.508 152.9846
82.920876 83.472 152.9043
83.521755 83.436 152.8230
84.126988 83.400 152.7423
84.736607 83.365 152.6630
85.350643 83.330 152.5853
85.969129 83.296 152.5096
86.592097 83.262 152.4369
87.219579 83.228 152.3690
87.851608 83.193 152.3074
88.488217 83.159 152.2525
89.129439 83.124 152.2026
89.775308 83.090 152.1541
90.425856 83.055 152.1034
91.081119 83.020 152.0489
91.741131 82.983 151.9925
92.405925 82.945 151.9376
93.075536 82.908 151.8867
93.750000 82.870 151.8405
94.429351 82.833 151.7980
95.113625 82.797 151.7574
95.802858 82.762 151.7181
96.497085 82.728 151.6802
97.196342 82.693 151.6448
97.900667 82.659 151.6124
98.610096 82.625 151.5826
99.324665 82.591 151.5545
100.044413 82.556 151.5265
100.769376 82.521 151.4972
101.499592 82.486 151.4659
102.235100 82.451 151.4330
102.975938 82.416 151.3987
103.722144 82.381 151.3630
104.473757 82.346 151.3261
105.230817 82.312 151.2897
105.993363 82.278 151.2558
106.761435 82.244 151.2262
107.535072 82.211 151.2021
108.314315 82.178 151.1833
109.099206 82.145 151.1692
109.889783 82.111 151.1588
110.686090 82.076 151.1507
111.488167 82.042 151.1435
112.296056 82.006 151.1360
113.109800 81.971 151.1274
113.929440 81.935 151.1172
114.755020 81.901 151.1045
115.586582 81.868 151.0870
116.424170 81.837 151.0612
117.267827 81.807 151.0240
118.117598 81.776 150.9769
118.973527 81.744 150.9279
119.835658 81.710 150.8898
120.704037 81.673 150.8735
121.578708 81.636 150.8812
122.459718 81.599 150.9062
123.347111 81.562 150.9395
124.240935 81.526 150.9731
125.141236 81.489 151.0016
126.048061 81.452 151.0237
126.961458 81.414 151.0415
127.881473 81.377 151.0592
128.808154 81.340 151.0807
129.741551 81.305 151.1084
130.681712 81.271 151.1446
131.628686 81.239 151.1899
132.582521 81.210 151.2404
133.543269 81.182 151.2874
134.510979 81.155 151.3232
135.485701 81.128 151.3449
136.467486 81.099 151.3556
137.456386 81.068 151.3618
138.452451 81.036 151.3695
139.455735 81.003 151.3815
140.466288 80.969 151.3986
141.484165 80.937 151.4217
142.509418 80.905 151.4510
143.542100 80.874 151.4844
144.582265 80.844 151.5181
145.629968 80.814 151.5492
146.685262 80.785 151.5767
147.748204 80.755 151.6012
148.818849 80.724 151.6244
149.897251 80.693 151.6477
150.983469 80.661 151.6721
152.077557 80.629 151.6981
153.179574 80.596 151.7260
154.289576 80.564 151.7568
155.407622 80.532 151.7908
156.533770 80.500 151.8274
157.668078 80.469 151.8658
158.810606 80.438 151.9055
159.961413 80.408 151.9469
161.120559 80.379 151.9910
162.288105 80.349 152.0386
163.464112 80.320 152.0896
164.648640 80.291 152.1427
165.841752 80.262 152.1964
167.043510 80.232 152.2498
168.253976 80.201 152.3034
169.473213 80.170 152.3575
170.701286 80.140 152.4113
171.938258 80.109 152.4623
173.184194 80.078 152.5088
174.439158 80.048 152.5518
175.703216 80.016 152.5941
176.976434 79.985 152.6372
178.258878 79.953 152.6813
179.550615 79.922 152.7258
180.851713 79.890 152.7722
182.162239 79.858 152.8242
183.482262 79.828 152.8856
184.811850 79.797 152.9579
186.151073 79.768 153.0413
187.500000 79.739 153.1340
188.858702 79.709 153.2308
190.227250 79.680 153.3233
191.605715 79.650 153.4035
192.994169 79.619 153.4658
194.392685 79.589 153.5098
195.801334 79.559 153.5417
197.220191 79.531 153.5731
198.649330 79.505 153.6164
200.088825 79.480 153.6808
201.538751 79.457 153.7697
202.999184 79.433 153.8793
204.470200 79.409 154.0007
205.951875 79.384 154.1234
207.444287 79.357 154.2386
208.947514 79.329 154.3422
210.461634 79.300 154.4330
211.986726 79.271 154.5129
213.522869 79.243 154.5854
215.070144 79.215 154.6561
216.628631 79.188 154.7300
218.198411 79.162 154.8097
219.779567 79.137 154.8951
221.372180 79.113 154.9832
222.976334 79.090 155.0698
224.592112 79.067 155.1525
226.219600 79.042 155.2316
227.858880 79.016 155.3082
229.510039 78.989 155.3802
231.173164 78.961 155.4413
232.848340 78.935 155.4868
234.535655 78.910 155.5186
236.235197 78.886 155.5463
237.947054 78.863 155.5820
239.671317 78.841 155.6350
241.408074 78.820 155.7069
243.157416 78.799 155.7907
244.919435 78.778 155.8756
246.694223 78.756 155.9533
248.481871 78.733 156.0209
250.282473 78.709 156.0807
252.096123 78.684 156.1371
253.922915 78.659 156.1942
255.762945 78.634 156.2559
257.616309 78.608 156.3261
259.483103 78.581 156.4072
261.363424 78.553 156.4978
263.257372 78.525 156.5917
265.165043 78.499 156.6813
267.086538 78.475 156.7623
269.021957 78.453 156.8366
270.971401 78.431 156.9108
272.934972 78.408 156.9914
274.912771 78.383 157.0787
276.904902 78.356 157.1661
278.911469 78.328 157.2445
280.932577 78.300 157.3110
282.968330 78.273 157.3721
285.018835 78.246 157.4413
287.084199 78.219 157.5308
289.164530 78.193 157.6419
291.259935 78.168 157.7647
293.370525 78.143 157.8867
295.496408 78.118 157.9996
297.637697 78.094 158.1011
299.794503 78.069 158.1940
301.966937 78.044 158.2846
304.155114 78.020 158.3788
306.359147 77.995 158.4797
308.579152 77.972 158.5878
310.815244 77.948 158.7014
313.067539 77.924 158.8177
315.336156 77.900 158.9354
317.621211 77.876 159.0545
319.922826 77.851 159.1750
322.241118 77.825 159.2950
324.576210 77.798 159.4122
326.928223 77.770 159.5249
329.297280 77.743 159.6332
331.683504 77.715 159.7396
334.087019 77.690 159.8477
336.507952 77.665 159.9608
338.946427 77.642 160.0788
341.402572 77.618 160.1978
343.876516 77.593 160.3140
346.368387 77.568 160.4275
348.878315 77.541 160.5414
351.406431 77.515 160.6581
353.952867 77.490 160.7768
356.517756 77.465 160.8953
359.101230 77.441 161.0118
361.703426 77.416 161.1252
364.324478 77.392 161.2363
366.964523 77.368 161.3478
369.623699 77.343 161.4624
372.302145 77.319 161.5813
375.000000 77.294 161.7043
377.717405 77.270 161.8309
380.454501 77.246 161.9605
383.211431 77.223 162.0922
385.988339 77.200 162.2246
388.785369 77.177 162.3566
391.602668 77.153 162.4875
394.440383 77.129 162.6170
397.298660 77.105 162.7458
400.177650 77.080 162.8752
403.077502 77.054 163.0072
405.998368 77.029 163.1437
408.940400 77.004 163.2856
411.903750 76.980 163.4326
414.888575 76.955 163.5825
417.895028 76.931 163.7328
420.923268 76.907 163.8814
423.973452 76.882 164.0281
427.045738 76.857 164.1740
430.140287 76.832 164.3206
433.257261 76.807 164.4682
436.396822 76.782 164.6170
439.559133 76.756 164.7668
442.744360 76.731 164.9176
445.952668 76.706 165.0693
449.184225 76.681 165.2226
452.439199 76.657 165.3795
455.717760 76.634 165.5418
459.020079 76.611 165.7105
462.346327 76.588 165.8849
465.696680 76.565 166.0630
469.071310 76.542 166.2422
472.470394 76.519 166.4209
475.894109 76.495 166.5985
479.342634 76.470 166.7760
482.816148 76.444 166.9559
486.314833 76.418 167.1410
489.838871 76.391 167.3329
493.388445 76.364 167.5310
496.963741 76.336 167.7331
500.564945 76.308 167.9377
504.192245 76.281 168.1460
507.845830 76.255 168.3604
511.525890 76.231 168.5826
515.232618 76.207 168.8130
518.966206 76.184 169.0521
522.726849 76.161 169.3008
526.514743 76.140 169.5599
530.330086 76.120 169.8278
534.173076 76.103 170.1000
538.043915 76.088 170.3698
541.942803 76.074 170.6308
545.869944 76.062 170.8786
549.825542 76.051 171.1121
553.809805 76.041 171.3327
557.822939 76.032 171.5422
561.865154 76.022 171.7415
565.936660 76.012 171.9306
570.037671 76.001 172.1103
574.168399 75.988 172.2836
578.329060 75.972 172.4553
582.519870 75.955 172.6306
586.741049 75.936 172.8132
590.992817 75.916 173.0051
595.275394 75.895 173.2065
599.589005 75.875 173.4167
603.933874 75.854 173.6348
608.310228 75.833 173.8594
612.718295 75.812 174.0894
617.158304 75.792 174.3234
621.630488 75.771 174.5602
626.135079 75.750 174.7989
630.672311 75.729 175.0402
635.242423 75.709 175.2861
639.845651 75.688 175.5387
644.482237 75.668 175.7991
649.152421 75.648 176.0675
653.856447 75.629 176.3423
658.594560 75.611 176.6217
663.367008 75.593 176.9044
668.174039 75.576 177.1904
673.015903 75.559 177.4801
677.892854 75.542 177.7742
682.805145 75.525 178.0733
687.753032 75.509 178.3778
692.736774 75.492 178.6880
697.756631 75.477 179.0034
702.812863 75.462 179.3227
707.905735 75.448 179.6444
713.035511 75.434 179.9678
718.202461 75.422 -179.7065
723.406852 75.410 -179.3774
728.648956 75.399 -179.0436
733.929047 75.389 -178.7047
739.247399 75.379 -178.3616
744.604290 75.370 -178.0152
750.000000 75.361 -177.6649
755.434809 75.353 -177.3096
760.909001 75.345 -176.9496
766.422861 75.338 -176.5856
771.976677 75.332 -176.2181
777.570739 75.328 -175.8471
783.205337 75.324 -175.4726
788.880766 75.321 -175.0955
794.597321 75.320 -174.7166
800.355301 75.319 -174.3366
806.155005 75.320 -173.9552
811.996736 75.322 -173.5718
817.880799 75.324 -173.1859
823.807501 75.328 -172.7977
829.777150 75.333 -172.4064
835.790057 75.339 -172.0108
841.846536 75.347 -171.6102
847.946903 75.356 -171.2059
854.091476 75.366 -170.8000
860.280575 75.378 -170.3943
866.514523 75.391 -169.9898
872.793644 75.405 -169.5868
879.118267 75.420 -169.1859
885.488720 75.437 -168.7872
891.905336 75.455 -168.3905
898.368450 75.475 -167.9950
904.878398 75.498 -167.6002
911.435520 75.522 -167.2058
918.040157 75.547 -166.8115
924.692655 75.574 -166.4178
931.393359 75.603 -166.0264
938.142619 75.632 -165.6391
944.940787 75.663 -165.2571
951.788218 75.695 -164.8816
958.685268 75.728 -164.5132
965.632296 75.763 -164.1518
972.629666 75.800 -163.7967
979.677741 75.840 -163.4486
986.776890 75.882 -163.1093
993.927482 75.926 -162.7806
1001.129891 75.971 -162.4639
1008.384491 76.018 -162.1600
1015.691660 76.066 -161.8691
1023.051781 76.115 -161.5917
1030.465236 76.166 -161.3281
1037.932411 76.219 -161.0785
1045.453698 76.273 -160.8448
1053.029486 76.329 -160.6299
1060.660172 76.387 -160.4376
1068.346153 76.446 -160.2720
1076.087829 76.507 -160.1381
1083.885605 76.569 -160.0422
1091.739887 76.632 -159.9930
1099.651084 76.694 -160.0020
1107.619609 76.752 -160.0811
1115.645878 76.804 -160.2382
1123.730308 76.844 -160.4708
1131.873321 76.867 -160.7607
1140.075341 76.867 -161.0677
1148.336797 76.842 -161.3284
1156.658119 76.795 -161.4654
1165.039741 76.733 -161.4104
1173.482099 76.670 -161.1339
1181.985634 76.621 -160.6623
1190.550789 76.595 -160.0675
1199.178011 76.595 -159.4361
1207.867749 76.620 -158.8399
1216.620457 76.663 -158.3220
1225.436590 76.718 -157.8984
1234.316609 76.779 -157.5670
1243.260976 76.843 -157.3170
1252.270157 76.905 -157.1353
1261.344623 76.966 -157.0096
1270.484846 77.022 -156.9285
1279.691303 77.075 -156.8827
1288.964474 77.124 -156.8655
1298.304842 77.167 -156.8720
1307.712894 77.206 -156.8987
1317.189120 77.240 -156.9418
1326.734016 77.269 -156.9979
1336.348077 77.293 -157.0629
1346.031806 77.310 -157.1324
1355.785708 77.321 -157.2004
1365.610290 77.325 -157.2592
1375.506065 77.323 -157.3001
1385.473549 77.315 -157.3142
1395.513261 77.301 -157.2928
1405.625726 77.283 -157.2292
1415.811469 77.263 -157.1189
1426.071023 77.241 -156.9610
1436.404921 77.220 -156.7569
1446.813703 77.201 -156.5101
1457.297912 77.184 -156.2254
1467.858093 77.172 -155.9090
1478.494798 77.163 -155.5691
1489.208581 77.159 -155.2141
1500.000000 77.160 -154.8511
1510.869618 77.165 -154.4852
1521.818002 77.174 -154.1201
1532.845723 77.187 -153.7583
1543.953355 77.203 -153.4014
1555.141477 77.221 -153.0510
1566.410674 77.242 -152.7079
1577.761531 77.264 -152.3723
1589.194642 77.288 -152.0437
1600.710601 77.312 -151.7216
1612.310010 77.337 -151.4059
1623.993473 77.362 -151.0964
1635.761599 77.388 -150.7924
1647.615002 77.414 -150.4927
1659.554299 77.441 -150.1959
1671.580114 77.467 -149.9004
1683.693072 77.493 -149.6044
1695.893807 77.520 -149.3065
1708.182952 77.546 -149.0056
1720.561150 77.573 -148.7012
1733.029045 77.599 -148.3932
1745.587288 77.626 -148.0822
1758.236533 77.653 -147.7690
1770.977440 77.680 -147.4534
1783.810673 77.708 -147.1350
1796.736900 77.737 -146.8133
1809.756796 77.766 -146.4890
1822.871040 77.796 -146.1634
1836.080315 77.827 -145.8372
1849.385310 77.859 -145.5100
1862.786718 77.891 -145.1799
1876.285239 77.923 -144.8451
1889.881575 77.954 -144.5031
1903.576436 77.985 -144.1515
1917.370535 78.015 -143.7864
1931.264593 78.046 -143.4037
1945.259332 78.077 -142.9992
1959.355483 78.110 -142.5691
1973.553781 78.146 -142.1110
1987.854965 78.185 -141.6248
2002.259781 78.229 -141.1124
2016.768981 78.279 -140.5789
2031.383320 78.337 -140.0317
2046.103561 78.403 -139.4814
2060.930471 78.478 -138.9413
2075.864823 78.561 -138.4264
2090.907395 78.652 -137.9517
2106.058972 78.748 -137.5296
2121.320344 78.848 -137.1670
2136.692305 78.950 -136.8650
2152.175658 79.050 -136.6190
2167.771210 79.147 -136.4196
2183.479774 79.240 -136.2550
2199.302169 79.328 -136.1133
2215.239219 79.412 -135.9841
2231.291755 79.492 -135.8592
2247.460615 79.570 -135.7336
2263.746641 79.645 -135.6050
2280.150683 79.719 -135.4731
2296.673595 79.793 -135.3385
2313.316238 79.866 -135.2025
2330.079481 79.939 -135.0660
2346.964198 80.012 -134.9302
2363.971268 80.085 -134.7960
2381.101578 80.157 -134.6639
2398.356022 80.229 -134.5335
2415.735498 80.300 -134.4040
2433.240913 80.371 -134.2742
2450.873180 80.442 -134.1433
2468.633217 80.514 -134.0105
2486.521951 80.585 -133.8758
2504.540314 80.656 -133.7393
2522.689246 80.728 -133.6010
2540.969692 80.801 -133.4615
2559.382606 80.874 -133.3209
2577.928947 80.947 -133.1797
2596.609683 81.021 -133.0378
2615.425787 81.096 -132.8953
2634.378241 81.172 -132.7520
2653.468031 81.248 -132.6078
2672.696154 81.326 -132.4625
2692.063613 81.404 -132.3158
2711.571415 81.484 -132.1674
2731.220579 81.565 -132.0173
2751.012130 81.647 -131.8656
2770.947098 81.732 -131.7132
2791.026522 81.819 -131.5611
2811.251451 81.908 -131.4109
2831.622938 82.000 -131.2647
2852.142045 82.095 -131.1252
2872.809842 82.193 -130.9957
2893.627406 82.295 -130.8807
2914.595823 82.399 -130.7851
2935.716186 82.505 -130.7132
2956.989596 82.613 -130.6684
2978.417161 82.722 -130.6516
3000.000000 82.831 -130.6622
3021.739237 82.940 -130.6978
3043.636005 83.049 -130.7552
3065.691446 83.156 -130.8307
3087.906710 83.261 -130.9209
3110.282955 83.366 -131.0221
3132.821347 83.470 -131.1316
3155.523062 83.573 -131.2477
3178.389283 83.676 -131.3700
3201.421202 83.780 -131.4996
3224.620020 83.885 -131.6388
3247.986946 83.991 -131.7906
3271.523198 84.098 -131.9583
3295.230004 84.207 -132.1447
3319.108599 84.316 -132.3525
3343.160228 84.425 -132.5835
3367.386145 84.535 -132.8383
3391.787613 84.643 -133.1167
3416.365904 84.752 -133.4183
3441.122300 84.859 -133.7426
3466.058091 84.965 -134.0892
3491.174576 85.070 -134.4577
3516.473066 85.174 -134.8477
3541.954880 85.276 -135.2587
3567.621345 85.377 -135.6903
3593.473800 85.477 -136.1424
3619.513592 85.575 -136.6154
3645.742080 85.672 -137.1094
3672.160630 85.766 -137.6236
3698.770620 85.858 -138.1560
3725.573436 85.947 -138.7050
3752.570477 86.032 -139.2699
3779.763150 86.113 -139.8509
3807.152872 86.191 -140.4480
3834.741071 86.265 -141.0604
3862.529185 86.335 -141.6872
3890.518664 86.402 -142.3273
3918.710966 86.465 -142.9792
3947.107561 86.524 -143.6416
3975.709929 86.579 -144.3130
4004.519563 86.631 -144.9926
4033.537962 86.679 -145.6795
4062.766641 86.722 -146.3730
4092.207123 86.762 -147.0724
4121.860942 86.798 -147.7769
4151.729646 86.829 -148.4855
4181.814790 86.856 -149.1971
4212.117944 86.879 -149.9103
4242.640687 86.898 -150.6239
4273.384610 86.911 -151.3363
4304.351317 86.920 -152.0463
4335.542421 86.924 -152.7521
4366.959549 86.924 -153.4518
4398.604338 86.918 -154.1432
4430.478438 86.908 -154.8239
4462.583511 86.892 -155.4912
4494.921231 86.872 -156.1426
4527.493283 86.848 -156.7751
4560.301365 86.819 -157.3860
4593.347189 86.786 -157.9730
4626.632476 86.750 -158.5339
4660.158962 86.711 -159.0672
4693.928395 86.669 -159.5717
4727.942535 86.625 -160.0466
4762.203156 86.578 -160.4907
4796.712043 86.530 -160.9032
4831.470996 86.481 -161.2832
4866.481826 86.431 -161.6297
4901.746360 86.381 -161.9429
4937.266434 86.331 -162.2234
4973.043902 86.283 -162.4732
5009.080628 86.237 -162.6953
5045.378492 86.193 -162.8932
5081.939384 86.152 -163.0705
5118.765212 86.113 -163.2311
5155.857894 86.077 -163.3781
5193.219366 86.043 -163.5142
5230.851574 86.011 -163.6409
5268.756481 85.981 -163.7597
5306.936062 85.954 -163.8711
5345.392309 85.927 -163.9757
5384.127225 85.903 -164.0737
5423.142830 85.879 -164.1649
5462.441159 85.857 -164.2489
5502.024259 85.837 -164.3250
5541.894195 85.818 -164.3926
5582.053045 85.801 -164.4514
5622.502902 85.785 -164.5014
5663.245876 85.772 -164.5427
5704.284090 85.760 -164.5756
5745.619684 85.750 -164.6005
5787.254813 85.743 -164.6178
5829.191647 85.739 -164.6285
5871.432373 85.737 -164.6336
5913.979192 85.739 -164.6347
5956.834323 85.743 -164.6333
6000.000000 85.751 -164.6311
6043.478473 85.762 -164.6300
6087.272010 85.777 -164.6320
6131.382892 85.795 -164.6394
6175.813420 85.817 -164.6544
6220.565910 85.843 -164.6789
6265.642695 85.872 -164.7151
6311.046124 85.905 -164.7645
6356.778566 85.942 -164.8295
6402.842404 85.983 -164.9133
6449.240040 86.028 -165.0197
6495.973891 86.076 -165.1527
6543.046396 86.127 -165.3162
6590.460007 86.181 -165.5133
6638.217197 86.237 -165.7459
6686.320456 86.294 -166.0150
6734.772290 86.351 -166.3199
6783.575226 86.408 -166.6583
6832.731809 86.463 -167.0256
6882.244600 86.516 -167.4141
6932.116181 86.567 -167.8136
6982.349153 86.616 -168.2134
7032.946133 86.666 -168.6044
7083.909760 86.718 -168.9813
7135.242690 86.774 -169.3442
7186.947600 86.838 -169.6987
7239.027185 86.910 -170.0561
7291.484160 86.994 -170.4325
7344.321260 87.088 -170.8470
7397.541239 87.195 -171.3197
7451.146872 87.312 -171.8698
7505.140954 87.438 -172.5140
7559.526299 87.572 -173.2667
7614.305743 87.712 -174.1395
7669.482141 87.854 -175.1413
7725.058371 87.999 -176.2799
7781.037328 88.142 -177.5622
7837.421932 88.282 -178.9950
7894.215122 88.416 179.4154
7951.419859 88.540 177.6652
8009.039125 88.651 175.7547
8067.075924 88.745 173.6894
8125.533282 88.817 171.4795
8184.414245 88.866 169.1387
8243.721885 88.888 166.6840
8303.459292 88.879 164.1358
8363.629581 88.839 161.5182
8424.235888 88.765 158.8576
8485.281374 88.656 156.1811
8546.769221 88.514 153.5148
8608.702634 88.337 150.8826
8671.084842 88.128 148.3062
8733.919097 87.888 145.8050
8797.208675 87.618 143.3965
8860.956876 87.319 141.0966
8925.167022 86.993 138.9201
8989.842461 86.641 136.8815
9054.986566 86.265 134.9951
9120.602731 85.866 133.2752
9186.694378 85.447 131.7357
9253.264952 85.009 130.3895
9320.317925 84.554 129.2473
9387.856790 84.087 128.3173
9455.885071 83.610 127.6042
9524.406312 83.128 127.1095
9593.424086 82.642 126.8319
9662.941992 82.157 126.7680
9732.963653 81.675 126.9117
9803.492719 81.199 127.2548
9874.532869 80.731 127.7865
9946.087805 80.274 128.4949
10018.161257 79.829 129.3664
10090.756983 79.398 130.3873
10163.878768 78.981 131.5435
10237.530423 78.580 132.8210
10311.715789 78.195 134.2066
10386.438732 77.827 135.6878
10461.703149 77.475 137.2529
10537.512962 77.138 138.8913
10613.872125 76.818 140.5935
10690.784618 76.513 142.3513
10768.254450 76.222 144.1584
10846.285661 75.945 146.0095
10924.882318 75.682 147.9008
11004.048518 75.431 149.8289
11083.788390 75.194 151.7908
11164.106090 74.970 153.7841
11245.005805 74.758 155.8062
11326.491752 74.560 157.8542
11408.568180 74.373 159.9247
11491.239368 74.199 162.0144
11574.509626 74.038 164.1199
11658.383294 73.890 166.2380
11742.864745 73.755 168.3663
11827.958384 73.634 170.5020
11913.668646 73.527 172.6422
12000.000000 73.434 174.7837
12086.956947 73.356 176.9229
12174.544019 73.294 179.0553
12262.765784 73.248 -178.8243
12351.626840 73.219 -176.7223
12441.131819 73.209 -174.6468
12531.285389 73.217 -172.6074
12622.092249 73.244 -170.6161
12713.557132 73.292 -168.6876
12805.684808 73.359 -166.8393
12898.480079 73.445 -165.0890
12991.947783 73.550 -163.4537
13086.092792 73.673 -161.9478
13180.920015 73.812 -160.5820
13276.434395 73.967 -159.3644
13372.640911 74.139 -158.3029
13469.544580 74.327 -157.4089
13567.150452 74.531 -156.6993
13665.463617 74.752 -156.1977
13764.489200 74.989 -155.9325
13864.232362 75.238 -155.9346
13964.698305 75.497 -156.2349
14065.892266 75.759 -156.8612
14167.819519 76.019 -157.8357
14270.485380 76.266 -159.1716
14373.895200 76.493 -160.8708
14478.054370 76.688 -162.9209
14582.968320 76.841 -165.2933
14688.642520 76.941 -167.9417
14795.082478 76.980 -170.8015
14902.293745 76.952 -173.7920
15010.281908 76.851 -176.8212
15119.052599 76.680 -179.7924
15228.611486 76.440 177.3879
15338.964283 76.140 174.8013
15450.116741 75.789 172.5118
15562.074656 75.398 170.5627
15674.843864 74.978 168.9770
15788.430244 74.540 167.7602
15902.839718 74.093 166.9054
16018.078250 73.644 166.3981
16134.151848 73.199 166.2211
16251.066563 72.762 166.3563
16368.828491 72.335 166.7856
16487.443769 71.923 167.4914
16606.918584 71.527 168.4570
16727.259161 71.150 169.6679
16848.471777 70.794 171.1120
16970.562748 70.461 172.7785
17093.538442 70.154 174.6534
17217.405268 69.877 176.7162
17342.169684 69.633 178.9373
17467.838194 69.426 -178.7218
17594.417350 69.255 -176.3064
17721.913751 69.123 -173.8660
17850.334044 69.026 -171.4518
17979.684923 68.962 -169.1144
18109.973131 68.928 -166.9012
18241.205462 68.917 -164.8546
18373.388756 68.925 -163.0110
18506.529905 68.944 -161.4022
18640.635849 68.968 -160.0583
18775.713581 68.990 -159.0089
18911.770141 69.003 -158.2842
19048.812624 68.997 -157.9115
19186.848172 68.965 -157.9090
19325.883983 68.898 -158.2767
19465.927305 68.795 -158.9839
19606.985439 68.662 -159.9511
19749.065738 68.516 -161.0301
19892.175609 68.387 -161.9949
20036.322514 68.312 -162.5777
