* Measurement data measured by REW V5.31.3
* Source: Headset (CX31993 HIFI AUDIO), MICROPHONE (Master Volume), R, volume: 0.400
* Format: 256k Log Swept Sine, 1 sweep at -11.9 dBFS with no timing reference
* Dated: 05 26, 25 6:12:16 PM
* REW Settings:
*  C-weighting compensation: Off
*  Target level: 75.0 dB
* Note: ; 
* Measurement: Final A5000 2HDF 500 R
* Smoothing: 1/12 octave
* Frequency Step: 96 ppo
* Start Frequency: 0.36621094 Hz
*
* Freq(Hz) SPL(dB) Phase(degrees)
0.366211 48.650 14.3690
0.368865 48.657 14.4104
0.371538 48.667 14.4721
0.374230 48.679 14.5491
0.376942 48.693 14.6369
0.379673 48.708 14.7324
0.382424 48.724 14.8336
0.385196 48.740 14.9392
0.387987 48.756 15.0483
0.390798 48.773 15.1607
0.393630 48.789 15.2761
0.396483 48.806 15.3944
0.399356 48.823 15.5156
0.402250 48.840 15.6397
0.405165 48.857 15.7666
0.408101 48.875 15.8964
0.411058 48.892 16.0292
0.414037 48.910 16.1649
0.417037 48.927 16.3036
0.420059 48.945 16.4452
0.423103 48.963 16.5898
0.426169 48.981 16.7375
0.429257 49.000 16.8881
0.432368 49.018 17.0419
0.435501 49.036 17.1986
0.438656 49.055 17.3585
0.441835 49.074 17.5215
0.445037 49.093 17.6875
0.448262 49.112 17.8567
0.451510 49.131 18.0290
0.454782 49.150 18.2044
0.458077 49.170 18.3829
0.461397 49.189 18.5646
0.464740 49.209 18.7494
0.468108 49.229 18.9373
0.471500 49.249 19.1284
0.474917 49.269 19.3225
0.478358 49.290 19.5198
0.481825 49.310 19.7202
0.485316 49.331 19.9236
0.488833 49.351 20.1301
0.492375 49.372 20.3396
0.495943 49.393 20.5522
0.499537 49.415 20.7678
0.503157 49.436 20.9863
0.506803 49.457 21.2077
0.510475 49.479 21.4320
0.514175 49.501 21.6592
0.517900 49.523 21.8891
0.521653 49.545 22.1219
0.525434 49.567 22.3573
0.529241 49.590 22.5953
0.533076 49.613 22.8359
0.536939 49.635 23.0791
0.540830 49.658 23.3246
0.544749 49.681 23.5726
0.548696 49.705 23.8228
0.552673 49.728 24.0752
0.556677 49.752 24.3297
0.560711 49.776 24.5862
0.564774 49.800 24.8446
0.568867 49.824 25.1049
0.572989 49.848 25.3668
0.577141 49.873 25.6303
0.581324 49.897 25.8952
0.585536 49.922 26.1615
0.589779 49.947 26.4289
0.594053 49.973 26.6974
0.598358 49.998 26.9668
0.602694 50.024 27.2370
0.607061 50.049 27.5077
0.611460 50.075 27.7789
0.615891 50.101 28.0504
0.620354 50.128 28.3220
0.624849 50.154 28.5935
0.629377 50.181 28.8648
0.633938 50.208 29.1356
0.638532 50.235 29.4058
0.643159 50.262 29.6752
0.647819 50.290 29.9435
0.652514 50.318 30.2107
0.657242 50.346 30.4764
0.662005 50.374 30.7405
0.666802 50.402 31.0027
0.671634 50.431 31.2628
0.676501 50.459 31.5207
0.681403 50.488 31.7761
0.686341 50.518 32.0287
0.691314 50.547 32.2784
0.696324 50.577 32.5250
0.701370 50.607 32.7683
0.706452 50.638 33.0082
0.711571 50.670 33.2446
0.716728 50.703 33.4776
0.721921 50.738 33.7075
0.727153 50.775 33.9349
0.732422 50.817 34.1605
0.737729 50.862 34.3852
0.743075 50.911 34.6100
0.748460 50.964 34.8357
0.753883 51.019 35.0627
0.759346 51.077 35.2912
0.764849 51.136 35.5212
0.770391 51.198 35.7526
0.775974 51.262 35.9851
0.781597 51.327 36.2186
0.787261 51.393 36.4526
0.792966 51.462 36.6870
0.798712 51.532 36.9213
0.804500 51.603 37.1553
0.810329 51.676 37.3886
0.816201 51.751 37.6210
0.822116 51.827 37.8520
0.828073 51.904 38.0813
0.834074 51.983 38.3087
0.840118 52.064 38.5338
0.846206 52.146 38.7562
0.852338 52.229 38.9756
0.858514 52.314 39.1917
0.864735 52.400 39.4042
0.871001 52.488 39.6128
0.877313 52.577 39.8171
0.883670 52.667 40.0168
0.890074 52.758 40.2115
0.896524 52.851 40.4011
0.903020 52.945 40.5851
0.909564 53.040 40.7632
0.916155 53.136 40.9352
0.922794 53.233 41.1008
0.929481 53.331 41.2596
0.936216 53.430 41.4114
0.943000 53.530 41.5558
0.949834 53.631 41.6926
0.956717 53.733 41.8215
0.963649 53.836 41.9422
0.970632 53.939 42.0545
0.977666 54.043 42.1580
0.984750 54.148 42.2525
0.991886 54.253 42.3378
0.999074 54.358 42.4135
1.006314 54.464 42.4795
1.013606 54.571 42.5353
1.020951 54.677 42.5810
1.028349 54.784 42.6160
1.035801 54.890 42.6404
1.043307 54.997 42.6537
1.050867 55.103 42.6560
1.058482 55.209 42.6470
1.066152 55.315 42.6267
1.073878 55.421 42.5952
1.081660 55.527 42.5529
1.089498 55.632 42.5004
1.097393 55.737 42.4386
1.105345 55.843 42.3686
1.113355 55.948 42.2918
1.121423 56.055 42.2090
1.129549 56.161 42.1211
1.137734 56.269 42.0285
1.145979 56.377 41.9314
1.154283 56.486 41.8301
1.162647 56.596 41.7244
1.171072 56.706 41.6144
1.179558 56.817 41.4999
1.188106 56.929 41.3810
1.196715 57.042 41.2574
1.205387 57.155 41.1292
1.214122 57.269 40.9961
1.222920 57.384 40.8581
1.231782 57.499 40.7151
1.240708 57.615 40.5670
1.249699 57.731 40.4136
1.258754 57.848 40.2548
1.267876 57.966 40.0906
1.277063 58.083 39.9207
1.286318 58.202 39.7452
1.295639 58.320 39.5638
1.305027 58.439 39.3764
1.314484 58.559 39.1829
1.324009 58.678 38.9831
1.333604 58.798 38.7769
1.343268 58.918 38.5642
1.353002 59.039 38.3448
1.362806 59.159 38.1185
1.372681 59.279 37.8853
1.382628 59.400 37.6449
1.392647 59.520 37.3971
1.402739 59.641 37.1419
1.412904 59.761 36.8791
1.423142 59.881 36.6087
1.433455 60.001 36.3306
1.443843 60.121 36.0451
1.454305 60.240 35.7524
1.464844 60.359 35.4531
1.475459 60.478 35.1478
1.486150 60.597 34.8372
1.496920 60.716 34.5219
1.507767 60.834 34.2023
1.518693 60.953 33.8786
1.529698 61.071 33.5511
1.540783 61.189 33.2197
1.551948 61.307 32.8846
1.563194 61.425 32.5456
1.574521 61.543 32.2027
1.585931 61.661 31.8558
1.597423 61.779 31.5049
1.608999 61.896 31.1498
1.620658 62.014 30.7904
1.632402 62.131 30.4266
1.644232 62.248 30.0583
1.656146 62.365 29.6852
1.668147 62.482 29.3073
1.680235 62.599 28.9244
1.692411 62.716 28.5363
1.704675 62.833 28.1428
1.717028 62.950 27.7437
1.729470 63.066 27.3387
1.742003 63.183 26.9278
1.754626 63.299 26.5105
1.767341 63.416 26.0867
1.780147 63.532 25.6562
1.793047 63.648 25.2187
1.806040 63.764 24.7741
1.819128 63.880 24.3221
1.832310 63.996 23.8629
1.845587 64.111 23.3964
1.858961 64.226 22.9229
1.872432 64.341 22.4428
1.886001 64.455 21.9563
1.899667 64.569 21.4639
1.913433 64.683 20.9661
1.927299 64.796 20.4632
1.941265 64.909 19.9557
1.955332 65.021 19.4438
1.969501 65.133 18.9280
1.983773 65.244 18.4086
1.998148 65.355 17.8859
2.012627 65.466 17.3602
2.027212 65.576 16.8316
2.041902 65.687 16.3004
2.056698 65.796 15.7669
2.071602 65.906 15.2310
2.086614 66.015 14.6930
2.101734 66.124 14.1530
2.116964 66.233 13.6108
2.132304 66.342 13.0665
2.147756 66.450 12.5199
2.163320 66.559 11.9708
2.178996 66.666 11.4186
2.194786 66.774 10.8630
2.210690 66.881 10.3032
2.226710 66.988 9.7389
2.242845 67.094 9.1697
2.259098 67.200 8.5957
2.275468 67.305 8.0171
2.291957 67.410 7.4342
2.308566 67.514 6.8475
2.325295 67.617 6.2575
2.342145 67.720 5.6647
2.359117 67.823 5.0696
2.376212 67.925 4.4728
2.393431 68.026 3.8747
2.410775 68.127 3.2758
2.428244 68.228 2.6765
2.445840 68.328 2.0772
2.463564 68.428 1.4781
2.481416 68.528 0.8796
2.499397 68.627 0.2818
2.517509 68.727 -0.3154
2.535752 68.826 -0.9124
2.554127 68.924 -1.5095
2.572635 69.022 -2.1076
2.591277 69.120 -2.7073
2.610055 69.217 -3.3094
2.628968 69.314 -3.9140
2.648019 69.410 -4.5213
2.667208 69.505 -5.1309
2.686535 69.600 -5.7425
2.706003 69.694 -6.3556
2.725612 69.787 -6.9697
2.745363 69.881 -7.5842
2.765257 69.973 -8.1985
2.785295 70.066 -8.8120
2.805478 70.158 -9.4242
2.825808 70.250 -10.0346
2.846285 70.341 -10.6429
2.866910 70.433 -11.2487
2.887685 70.524 -11.8519
2.908611 70.615 -12.4528
2.929688 70.706 -13.0517
2.950917 70.796 -13.6493
2.972301 70.886 -14.2462
2.993839 70.976 -14.8428
3.015534 71.065 -15.4394
3.037386 71.154 -16.0360
3.059396 71.242 -16.6324
3.081565 71.330 -17.2284
3.103896 71.417 -17.8236
3.126388 71.505 -18.4176
3.149043 71.592 -19.0100
3.171862 71.679 -19.6004
3.194847 71.766 -20.1884
3.217998 71.853 -20.7737
3.241317 71.940 -21.3559
3.264805 72.027 -21.9351
3.288463 72.114 -22.5112
3.312293 72.201 -23.0844
3.336295 72.288 -23.6551
3.360471 72.375 -24.2237
3.384822 72.462 -24.7903
3.409350 72.549 -25.3553
3.434056 72.635 -25.9187
3.458940 72.722 -26.4807
3.484005 72.808 -27.0412
3.509252 72.895 -27.6004
3.534681 72.981 -28.1580
3.560295 73.068 -28.7143
3.586094 73.155 -29.2689
3.612081 73.243 -29.8220
3.638255 73.330 -30.3733
3.664620 73.418 -30.9230
3.691175 73.507 -31.4708
3.717923 73.595 -32.0170
3.744864 73.684 -32.5616
3.772001 73.772 -33.1049
3.799335 73.861 -33.6471
3.826866 73.951 -34.1885
3.854597 74.040 -34.7295
3.882529 74.130 -35.2703
3.910664 74.220 -35.8113
3.939002 74.310 -36.3528
3.967546 74.400 -36.8948
3.996296 74.491 -37.4376
4.025255 74.582 -37.9812
4.054423 74.673 -38.5254
4.083804 74.765 -39.0702
4.113396 74.857 -39.6156
4.143204 74.949 -40.1616
4.173227 75.041 -40.7085
4.203468 75.134 -41.2563
4.233928 75.226 -41.8055
4.264609 75.319 -42.3563
4.295512 75.412 -42.9091
4.326639 75.504 -43.4642
4.357992 75.597 -44.0218
4.389572 75.690 -44.5821
4.421380 75.783 -45.1452
4.453419 75.876 -45.7112
4.485691 75.968 -46.2798
4.518196 76.061 -46.8508
4.550936 76.154 -47.4243
4.583914 76.246 -48.0000
4.617131 76.338 -48.5777
4.650589 76.430 -49.1576
4.684289 76.521 -49.7396
4.718233 76.612 -50.3239
4.752424 76.703 -50.9108
4.786862 76.793 -51.5005
4.821549 76.883 -52.0930
4.856488 76.972 -52.6884
4.891680 77.061 -53.2862
4.927127 77.149 -53.8861
4.962831 77.236 -54.4874
4.998794 77.323 -55.0896
5.035017 77.409 -55.6923
5.071503 77.495 -56.2953
5.108253 77.579 -56.8986
5.145270 77.663 -57.5024
5.182555 77.746 -58.1069
5.220110 77.828 -58.7122
5.257937 77.909 -59.3180
5.296038 77.990 -59.9236
5.334415 78.070 -60.5285
5.373071 78.148 -61.1318
5.412006 78.226 -61.7328
5.451224 78.304 -62.3312
5.490725 78.380 -62.9268
5.530514 78.455 -63.5198
5.570590 78.530 -64.1103
5.610957 78.604 -64.6983
5.651616 78.677 -65.2834
5.692570 78.749 -65.8653
5.733821 78.821 -66.4434
5.775370 78.892 -67.0169
5.817221 78.962 -67.5854
5.859375 79.032 -68.1488
5.901834 79.101 -68.7069
5.944602 79.170 -69.2601
5.987679 79.239 -69.8084
6.031068 79.306 -70.3518
6.074771 79.374 -70.8903
6.118792 79.441 -71.4237
6.163131 79.509 -71.9517
6.207792 79.576 -72.4744
6.252776 79.643 -72.9915
6.298086 79.710 -73.5034
6.343725 79.777 -74.0102
6.389694 79.844 -74.5123
6.435996 79.911 -75.0101
6.482634 79.979 -75.5041
6.529610 80.046 -75.9945
6.576926 80.114 -76.4815
6.624585 80.182 -76.9653
6.672590 80.251 -77.4462
6.720942 80.320 -77.9245
6.769645 80.389 -78.4008
6.818700 80.459 -78.8757
6.868111 80.529 -79.3498
6.917881 80.600 -79.8238
6.968010 80.670 -80.2979
7.018504 80.741 -80.7726
7.069362 80.813 -81.2479
7.120590 80.885 -81.7244
7.172189 80.956 -82.2025
7.224161 81.028 -82.6826
7.276511 81.101 -83.1654
7.329239 81.173 -83.6510
7.382350 81.245 -84.1399
7.435845 81.317 -84.6321
7.489729 81.389 -85.1276
7.544002 81.461 -85.6265
7.598669 81.532 -86.1289
7.653732 81.603 -86.6350
7.709194 81.673 -87.1448
7.765058 81.743 -87.6584
7.821327 81.812 -88.1755
7.878004 81.881 -88.6960
7.935091 81.949 -89.2193
7.992592 82.016 -89.7453
8.050510 82.082 -90.2737
8.108847 82.147 -90.8043
8.167607 82.211 -91.3368
8.226793 82.274 -91.8708
8.286408 82.336 -92.4057
8.346454 82.397 -92.9411
8.406936 82.457 -93.4762
8.467856 82.515 -94.0109
8.529218 82.573 -94.5447
8.591024 82.629 -95.0774
8.653278 82.685 -95.6082
8.715983 82.739 -96.1367
8.779143 82.793 -96.6625
8.842760 82.845 -97.1850
8.906839 82.897 -97.7042
8.971381 82.948 -98.2197
9.036392 82.997 -98.7313
9.101873 83.047 -99.2387
9.167829 83.095 -99.7417
9.234263 83.143 -100.2401
9.301178 83.191 -100.7340
9.368578 83.238 -101.2234
9.436467 83.285 -101.7085
9.504847 83.332 -102.1894
9.573723 83.378 -102.6663
9.643099 83.424 -103.1393
9.712976 83.471 -103.6090
9.783361 83.517 -104.0757
9.854255 83.563 -104.5399
9.925663 83.610 -105.0020
9.997588 83.657 -105.4626
10.070035 83.704 -105.9222
10.143007 83.751 -106.3813
10.216507 83.798 -106.8407
10.290540 83.845 -107.3007
10.365109 83.893 -107.7620
10.440219 83.940 -108.2251
10.515873 83.988 -108.6903
10.592076 84.035 -109.1581
10.668830 84.083 -109.6290
10.746141 84.130 -110.1032
10.824012 84.177 -110.5808
10.902447 84.224 -111.0619
10.981451 84.270 -111.5467
11.061027 84.316 -112.0350
11.141180 84.361 -112.5267
11.221913 84.405 -113.0216
11.303232 84.449 -113.5193
11.385140 84.492 -114.0195
11.467641 84.534 -114.5217
11.550741 84.575 -115.0255
11.634442 84.615 -115.5303
11.718750 84.654 -116.0356
11.803669 84.692 -116.5408
11.889203 84.730 -117.0454
11.975357 84.766 -117.5489
12.062136 84.802 -118.0508
12.149543 84.837 -118.5507
12.237583 84.871 -119.0483
12.326262 84.904 -119.5434
12.415583 84.938 -120.0358
12.505552 84.970 -120.5253
12.596172 85.002 -121.0122
12.687449 85.034 -121.4964
12.779387 85.066 -121.9782
12.871992 85.097 -122.4579
12.965268 85.128 -122.9359
13.059220 85.160 -123.4125
13.153852 85.191 -123.8882
13.249170 85.222 -124.3634
13.345179 85.253 -124.8387
13.441884 85.284 -125.3145
13.539289 85.315 -125.7911
13.637401 85.346 -126.2690
13.736223 85.376 -126.7483
13.835761 85.406 -127.2292
13.936021 85.436 -127.7119
14.037007 85.465 -128.1963
14.138725 85.494 -128.6823
14.241180 85.522 -129.1697
14.344377 85.549 -129.6581
14.448323 85.576 -130.1473
14.553021 85.602 -130.6367
14.658478 85.627 -131.1257
14.764700 85.651 -131.6139
14.871691 85.675 -132.1007
14.979457 85.697 -132.5854
15.088005 85.719 -133.0676
15.197339 85.740 -133.5466
15.307465 85.760 -134.0222
15.418389 85.780 -134.4940
15.530117 85.800 -134.9619
15.642655 85.819 -135.4256
15.756008 85.837 -135.8854
15.870182 85.856 -136.3416
15.985184 85.875 -136.7943
16.101019 85.893 -137.2444
16.217694 85.912 -137.6922
16.335214 85.931 -138.1386
16.453586 85.950 -138.5844
16.572815 85.968 -139.0302
16.692909 85.987 -139.4767
16.813872 86.006 -139.9244
16.935713 86.025 -140.3739
17.058436 86.043 -140.8252
17.182048 86.061 -141.2784
17.306556 86.078 -141.7331
17.431967 86.094 -142.1889
17.558286 86.110 -142.6450
17.685521 86.125 -143.1007
17.813677 86.138 -143.5549
17.942762 86.151 -144.0068
18.072783 86.164 -144.4554
18.203746 86.175 -144.8999
18.335658 86.186 -145.3399
18.468526 86.197 -145.7751
18.602356 86.208 -146.2056
18.737156 86.219 -146.6318
18.872934 86.230 -147.0545
19.009695 86.241 -147.4746
19.147447 86.253 -147.8936
19.286197 86.265 -148.3126
19.425953 86.278 -148.7332
19.566721 86.291 -149.1566
19.708510 86.305 -149.5840
19.851326 86.318 -150.0164
19.995177 86.331 -150.4543
20.140070 86.344 -150.8981
20.286013 86.357 -151.3476
20.433014 86.368 -151.8024
20.581080 86.378 -152.2619
20.730219 86.387 -152.7250
20.880439 86.395 -153.1905
21.031747 86.401 -153.6571
21.184152 86.406 -154.1232
21.337661 86.409 -154.5872
21.492282 86.411 -155.0475
21.648024 86.411 -155.5025
21.804895 86.410 -155.9509
21.962902 86.407 -156.3911
22.122054 86.404 -156.8223
22.282360 86.400 -157.2438
22.443827 86.396 -157.6551
22.606464 86.392 -158.0564
22.770280 86.387 -158.4482
22.935283 86.384 -158.8315
23.101481 86.380 -159.2075
23.268884 86.378 -159.5777
23.437500 86.377 -159.9438
23.607338 86.376 -160.3073
23.778406 86.376 -160.6697
23.950714 86.377 -161.0324
24.124271 86.378 -161.3965
24.299086 86.380 -161.7631
24.475167 86.382 -162.1328
24.652524 86.385 -162.5065
24.831166 86.387 -162.8848
25.011103 86.389 -163.2680
25.192344 86.391 -163.6565
25.374898 86.392 -164.0501
25.558775 86.392 -164.4482
25.743984 86.391 -164.8496
25.930536 86.389 -165.2525
26.118439 86.385 -165.6547
26.307704 86.379 -166.0537
26.498341 86.372 -166.4471
26.690359 86.364 -166.8334
26.883768 86.356 -167.2115
27.078579 86.347 -167.5818
27.274801 86.339 -167.9460
27.472446 86.331 -168.3064
27.671522 86.324 -168.6660
27.872042 86.317 -169.0274
28.074014 86.310 -169.3923
28.277450 86.302 -169.7608
28.482360 86.293 -170.1312
28.688755 86.283 -170.5006
28.896645 86.271 -170.8648
29.106042 86.257 -171.2196
29.316957 86.243 -171.5619
29.529400 86.229 -171.8905
29.743382 86.216 -172.2065
29.958915 86.205 -172.5136
30.176009 86.196 -172.8173
30.394677 86.189 -173.1240
30.614929 86.185 -173.4399
30.836778 86.181 -173.7694
31.060234 86.177 -174.1152
31.285309 86.172 -174.4769
31.512015 86.165 -174.8521
31.740364 86.156 -175.2368
31.970368 86.143 -175.6255
32.202039 86.128 -176.0128
32.435388 86.109 -176.3929
32.670428 86.087 -176.7608
32.907171 86.063 -177.1117
33.145630 86.038 -177.4421
33.385817 86.011 -177.7495
33.627745 85.986 -178.0339
33.871425 85.962 -178.2977
34.116871 85.941 -178.5467
34.364096 85.924 -178.7894
34.613113 85.910 -179.0359
34.863934 85.900 -179.2964
35.116572 85.892 -179.5789
35.371041 85.884 -179.8875
35.627354 85.875 179.7784
35.885525 85.864 179.4241
36.145566 85.848 179.0580
36.407492 85.830 178.6895
36.671316 85.808 178.3271
36.937051 85.784 177.9766
37.204712 85.758 177.6402
37.474313 85.733 177.3174
37.745867 85.708 177.0052
38.019389 85.684 176.6999
38.294893 85.661 176.3982
38.572394 85.639 176.0973
38.851905 85.618 175.7957
39.133442 85.597 175.4927
39.417019 85.576 175.1884
39.702651 85.554 174.8837
39.990353 85.532 174.5801
40.280140 85.510 174.2801
40.572026 85.487 173.9855
40.866028 85.463 173.6976
41.162160 85.440 173.4163
41.460438 85.417 173.1396
41.760877 85.395 172.8652
42.063494 85.372 172.5909
42.368303 85.349 172.3163
42.675322 85.324 172.0431
42.984565 85.298 171.7748
43.296048 85.271 171.5149
43.609789 85.243 171.2652
43.925804 85.215 171.0249
44.244108 85.187 170.7910
44.564719 85.160 170.5594
44.887654 85.133 170.3270
45.212928 85.106 170.0930
45.540560 85.078 169.8585
45.870565 85.049 169.6254
46.202962 85.020 169.3951
46.537768 84.991 169.1674
46.875000 84.963 168.9404
47.214676 84.935 168.7121
47.556813 84.908 168.4810
47.901429 84.881 168.2468
48.248542 84.853 168.0103
48.598171 84.826 167.7722
48.950334 84.799 167.5332
49.305048 84.771 167.2935
49.662333 84.744 167.0541
50.022206 84.716 166.8165
50.384688 84.687 166.5828
50.749796 84.658 166.3551
51.117550 84.629 166.1340
51.487969 84.600 165.9190
51.861072 84.571 165.7090
52.236879 84.542 165.5031
52.615409 84.512 165.3010
52.996681 84.483 165.1027
53.380717 84.453 164.9075
53.767536 84.423 164.7141
54.157158 84.393 164.5206
54.549603 84.362 164.3253
54.944892 84.332 164.1271
55.343045 84.300 163.9263
55.744084 84.269 163.7230
56.148028 84.236 163.5176
56.554900 84.204 163.3107
56.964720 84.171 163.1038
57.377510 84.137 162.8997
57.793291 84.104 162.7017
58.212085 84.071 162.5123
58.633914 84.039 162.3319
59.058799 84.009 162.1583
59.486764 83.981 161.9875
59.917829 83.954 161.8166
60.352019 83.927 161.6442
60.789354 83.900 161.4719
61.229859 83.872 161.3034
61.673556 83.842 161.1423
62.120468 83.812 160.9905
62.570618 83.780 160.8468
63.024031 83.748 160.7079
63.480729 83.715 160.5701
63.940736 83.680 160.4317
64.404077 83.644 160.2922
64.870776 83.607 160.1505
65.340856 83.568 160.0042
65.814343 83.528 159.8518
66.291261 83.486 159.6972
66.771635 83.444 159.5494
67.255489 83.403 159.4156
67.742850 83.366 159.2930
68.233743 83.334 159.1662
68.728193 83.309 159.0165
69.226226 83.286 158.8327
69.727867 83.264 158.6171
70.233144 83.239 158.3827
70.742083 83.211 158.1473
71.254709 83.179 157.9298
71.771050 83.144 157.7459
72.291132 83.108 157.6031
72.814984 83.072 157.4971
73.342631 83.038 157.4154
73.874102 83.006 157.3460
74.409424 82.973 157.2821
74.948626 82.941 157.2207
75.491734 82.908 157.1574
76.038779 82.874 157.0864
76.589787 82.840 157.0043
77.144788 82.804 156.9129
77.703811 82.768 156.8174
78.266885 82.732 156.7217
78.834039 82.696 156.6252
79.405303 82.663 156.5239
79.980706 82.631 156.4133
80.560280 82.601 156.2922
81.144053 82.569 156.1647
81.732056 82.537 156.0399
82.324320 82.503 155.9276
82.920876 82.468 155.8339
83.521755 82.433 155.7568
84.126988 82.400 155.6880
84.736607 82.367 155.6178
85.350643 82.333 155.5412
85.969129 82.297 155.4595
86.592097 82.260 155.3775
87.219579 82.222 155.2989
87.851608 82.184 155.2242
88.488217 82.147 155.1516
89.129439 82.110 155.0797
89.775308 82.075 155.0081
90.425856 82.041 154.9372
91.081119 82.009 154.8653
91.741131 81.977 154.7910
92.405925 81.945 154.7154
93.075536 81.912 154.6424
93.750000 81.879 154.5760
94.429351 81.845 154.5169
95.113625 81.812 154.4624
95.802858 81.779 154.4082
96.497085 81.746 154.3514
97.196342 81.713 154.2919
97.900667 81.679 154.2321
98.610096 81.645 154.1746
99.324665 81.610 154.1218
100.044413 81.576 154.0746
100.769376 81.541 154.0329
101.499592 81.506 153.9948
102.235100 81.472 153.9575
102.975938 81.437 153.9176
103.722144 81.403 153.8728
104.473757 81.369 153.8227
105.230817 81.335 153.7689
105.993363 81.302 153.7147
106.761435 81.269 153.6645
107.535072 81.237 153.6229
108.314315 81.205 153.5925
109.099206 81.173 153.5725
109.889783 81.142 153.5599
110.686090 81.109 153.5500
111.488167 81.075 153.5367
112.296056 81.040 153.5131
113.109800 81.004 153.4726
113.929440 80.968 153.4107
114.755020 80.932 153.3270
115.586582 80.897 153.2266
116.424170 80.863 153.1216
117.267827 80.830 153.0309
118.117598 80.798 152.9745
118.973527 80.767 152.9670
119.835658 80.737 153.0136
120.704037 80.709 153.1064
121.578708 80.681 153.2246
122.459718 80.653 153.3420
123.347111 80.624 153.4356
124.240935 80.593 153.4881
125.141236 80.560 153.4891
126.048061 80.525 153.4389
126.961458 80.489 153.3501
127.881473 80.452 153.2435
128.808154 80.416 153.1389
129.741551 80.380 153.0501
130.681712 80.344 152.9854
131.628686 80.308 152.9510
132.582521 80.269 152.9518
133.543269 80.231 152.9850
134.510979 80.195 153.0357
135.485701 80.161 153.0824
136.467486 80.129 153.1124
137.456386 80.099 153.1277
138.452451 80.069 153.1404
139.455735 80.039 153.1622
140.466288 80.011 153.1980
141.484165 79.983 153.2448
142.509418 79.955 153.2963
143.542100 79.926 153.3445
144.582265 79.896 153.3829
145.629968 79.865 153.4100
146.685262 79.834 153.4282
147.748204 79.802 153.4420
148.818849 79.771 153.4557
149.897251 79.741 153.4729
150.983469 79.711 153.4963
152.077557 79.681 153.5279
153.179574 79.650 153.5668
154.289576 79.618 153.6090
155.407622 79.587 153.6487
156.533770 79.555 153.6805
157.668078 79.524 153.7029
158.810606 79.493 153.7184
159.961413 79.463 153.7314
161.120559 79.434 153.7464
162.288105 79.405 153.7664
163.464112 79.377 153.7925
164.648640 79.347 153.8238
165.841752 79.317 153.8583
167.043510 79.287 153.8933
168.253976 79.255 153.9266
169.473213 79.224 153.9578
170.701286 79.193 153.9883
171.938258 79.161 154.0198
173.184194 79.130 154.0534
174.439158 79.100 154.0895
175.703216 79.069 154.1300
176.976434 79.038 154.1794
178.258878 79.008 154.2418
179.550615 78.979 154.3182
180.851713 78.952 154.4059
182.162239 78.926 154.5013
183.482262 78.899 154.5998
184.811850 78.872 154.6986
186.151073 78.844 154.7968
187.500000 78.816 154.8941
188.858702 78.788 154.9868
190.227250 78.762 155.0658
191.605715 78.741 155.1219
192.994169 78.722 155.1522
194.392685 78.707 155.1618
195.801334 78.694 155.1606
197.220191 78.680 155.1604
198.649330 78.664 155.1716
200.088825 78.644 155.2013
201.538751 78.619 155.2525
202.999184 78.591 155.3236
204.470200 78.561 155.4043
205.951875 78.530 155.4801
207.444287 78.498 155.5427
208.947514 78.464 155.5972
210.461634 78.429 155.6600
211.986726 78.393 155.7509
213.522869 78.356 155.8810
215.070144 78.321 156.0469
216.628631 78.287 156.2330
218.198411 78.254 156.4188
219.779567 78.220 156.5867
221.372180 78.186 156.7264
222.976334 78.153 156.8313
224.592112 78.122 156.8977
226.219600 78.093 156.9310
227.858880 78.065 156.9481
229.510039 78.039 156.9695
231.173164 78.014 157.0087
232.848340 77.988 157.0665
234.535655 77.963 157.1294
236.235197 77.938 157.1798
237.947054 77.914 157.2132
239.671317 77.893 157.2411
241.408074 77.875 157.2809
243.157416 77.858 157.3432
244.919435 77.842 157.4275
246.694223 77.826 157.5219
248.481871 77.808 157.6107
250.282473 77.789 157.6850
252.096123 77.769 157.7460
253.922915 77.747 157.8005
255.762945 77.725 157.8567
257.616309 77.702 157.9201
259.483103 77.680 157.9915
261.363424 77.659 158.0676
263.257372 77.638 158.1457
265.165043 77.616 158.2255
267.086538 77.593 158.3088
269.021957 77.569 158.3970
270.971401 77.544 158.4883
272.934972 77.516 158.5768
274.912771 77.488 158.6569
276.904902 77.458 158.7292
278.911469 77.428 158.7988
280.932577 77.398 158.8704
282.968330 77.368 158.9448
285.018835 77.339 159.0207
287.084199 77.311 159.0965
289.164530 77.287 159.1707
291.259935 77.266 159.2429
293.370525 77.246 159.3158
295.496408 77.225 159.3925
297.637697 77.204 159.4741
299.794503 77.181 159.5596
301.966937 77.158 159.6472
304.155114 77.134 159.7354
306.359147 77.109 159.8236
308.579152 77.085 159.9127
310.815244 77.061 160.0049
313.067539 77.037 160.1017
315.336156 77.013 160.2032
317.621211 76.989 160.3084
319.922826 76.965 160.4158
322.241118 76.941 160.5231
324.576210 76.916 160.6282
326.928223 76.892 160.7302
329.297280 76.867 160.8299
331.683504 76.843 160.9294
334.087019 76.818 161.0303
336.507952 76.794 161.1337
338.946427 76.770 161.2393
341.402572 76.746 161.3481
343.876516 76.722 161.4608
346.368387 76.700 161.5771
348.878315 76.677 161.6957
351.406431 76.655 161.8154
353.952867 76.633 161.9348
356.517756 76.611 162.0535
359.101230 76.589 162.1710
361.703426 76.567 162.2872
364.324478 76.544 162.4020
366.964523 76.522 162.5163
369.623699 76.499 162.6316
372.302145 76.476 162.7499
375.000000 76.453 162.8720
377.717405 76.430 162.9967
380.454501 76.408 163.1218
383.211431 76.385 163.2461
385.988339 76.362 163.3698
388.785369 76.339 163.4941
391.602668 76.316 163.6204
394.440383 76.293 163.7502
397.298660 76.270 163.8845
400.177650 76.248 164.0225
403.077502 76.225 164.1614
405.998368 76.203 164.2983
408.940400 76.181 164.4317
411.903750 76.159 164.5631
414.888575 76.136 164.6957
417.895028 76.113 164.8324
420.923268 76.090 164.9743
423.973452 76.066 165.1207
427.045738 76.043 165.2693
430.140287 76.021 165.4181
433.257261 75.999 165.5658
436.396822 75.977 165.7126
439.559133 75.955 165.8592
442.744360 75.933 166.0059
445.952668 75.911 166.1530
449.184225 75.889 166.3017
452.439199 75.866 166.4534
455.717760 75.843 166.6084
459.020079 75.820 166.7664
462.346327 75.796 166.9266
465.696680 75.773 167.0892
469.071310 75.750 167.2550
472.470394 75.727 167.4243
475.894109 75.705 167.5967
479.342634 75.684 167.7717
482.816148 75.664 167.9485
486.314833 75.644 168.1262
489.838871 75.624 168.3044
493.388445 75.604 168.4826
496.963741 75.584 168.6602
500.564945 75.562 168.8360
504.192245 75.541 169.0109
507.845830 75.519 169.1885
511.525890 75.497 169.3726
515.232618 75.477 169.5648
518.966206 75.457 169.7635
522.726849 75.437 169.9659
526.514743 75.418 170.1691
530.330086 75.399 170.3713
534.173076 75.380 170.5725
538.043915 75.362 170.7738
541.942803 75.344 170.9766
545.869944 75.326 171.1816
549.825542 75.310 171.3890
553.809805 75.294 171.5981
557.822939 75.277 171.8081
561.865154 75.261 172.0186
565.936660 75.244 172.2297
570.037671 75.227 172.4416
574.168399 75.210 172.6530
578.329060 75.192 172.8619
582.519870 75.173 173.0686
586.741049 75.153 173.2761
590.992817 75.134 173.4878
595.275394 75.115 173.7050
599.589005 75.096 173.9270
603.933874 75.078 174.1521
608.310228 75.060 174.3801
612.718295 75.043 174.6118
617.158304 75.025 174.8478
621.630488 75.008 175.0890
626.135079 74.992 175.3367
630.672311 74.975 175.5907
635.242423 74.959 175.8490
639.845651 74.943 176.1091
644.482237 74.927 176.3697
649.152421 74.912 176.6313
653.856447 74.897 176.8954
658.594560 74.882 177.1633
663.367008 74.868 177.4362
668.174039 74.853 177.7148
673.015903 74.839 177.9985
677.892854 74.826 178.2864
682.805145 74.813 178.5768
687.753032 74.801 178.8685
692.736774 74.789 179.1619
697.756631 74.778 179.4579
702.812863 74.768 179.7579
707.905735 74.758 -179.9374
713.035511 74.749 -179.6281
718.202461 74.740 -179.3153
723.406852 74.731 -179.0003
728.648956 74.723 -178.6835
733.929047 74.715 -178.3641
739.247399 74.707 -178.0404
744.604290 74.701 -177.7103
750.000000 74.695 -177.3727
755.434809 74.691 -177.0282
760.909001 74.687 -176.6790
766.422861 74.685 -176.3276
771.976677 74.684 -175.9751
777.570739 74.683 -175.6221
783.205337 74.683 -175.2684
788.880766 74.685 -174.9136
794.597321 74.687 -174.5567
800.355301 74.690 -174.1968
806.155005 74.695 -173.8326
811.996736 74.701 -173.4636
817.880799 74.709 -173.0903
823.807501 74.717 -172.7145
829.777150 74.727 -172.3384
835.790057 74.738 -171.9627
841.846536 74.750 -171.5870
847.946903 74.764 -171.2102
854.091476 74.779 -170.8317
860.280575 74.796 -170.4527
866.514523 74.814 -170.0759
872.793644 74.834 -169.7028
879.118267 74.857 -169.3333
885.488720 74.881 -168.9657
891.905336 74.907 -168.5993
898.368450 74.935 -168.2341
904.878398 74.964 -167.8712
911.435520 74.996 -167.5120
918.040157 75.031 -167.1583
924.692655 75.068 -166.8121
931.393359 75.108 -166.4754
938.142619 75.151 -166.1505
944.940787 75.197 -165.8391
951.788218 75.246 -165.5439
958.685268 75.298 -165.2686
965.632296 75.353 -165.0181
972.629666 75.412 -164.7994
979.677741 75.474 -164.6224
986.776890 75.539 -164.5008
993.927482 75.606 -164.4516
1001.129891 75.672 -164.4940
1008.384491 75.733 -164.6463
1015.691660 75.781 -164.9179
1023.051781 75.809 -165.2993
1030.465236 75.806 -165.7484
1037.932411 75.765 -166.1799
1045.453698 75.685 -166.4691
1053.029486 75.575 -166.4810
1060.660172 75.455 -166.1254
1068.346153 75.350 -165.4072
1076.087829 75.282 -164.4320
1083.885605 75.260 -163.3562
1091.739887 75.281 -162.3219
1099.651084 75.335 -161.4189
1107.619609 75.411 -160.6824
1115.645878 75.498 -160.1088
1123.730308 75.591 -159.6756
1131.873321 75.684 -159.3553
1140.075341 75.776 -159.1232
1148.336797 75.864 -158.9600
1156.658119 75.950 -158.8522
1165.039741 76.031 -158.7919
1173.482099 76.109 -158.7747
1181.985634 76.183 -158.7995
1190.550789 76.252 -158.8672
1199.178011 76.314 -158.9796
1207.867749 76.367 -159.1359
1216.620457 76.409 -159.3300
1225.436590 76.437 -159.5481
1234.316609 76.449 -159.7659
1243.260976 76.445 -159.9505
1252.270157 76.425 -160.0648
1261.344623 76.394 -160.0770
1270.484846 76.357 -159.9697
1279.691303 76.322 -159.7454
1288.964474 76.293 -159.4251
1298.304842 76.276 -159.0412
1307.712894 76.271 -158.6285
1317.189120 76.277 -158.2167
1326.734016 76.294 -157.8262
1336.348077 76.319 -157.4680
1346.031806 76.350 -157.1461
1355.785708 76.385 -156.8595
1365.610290 76.421 -156.6050
1375.506065 76.459 -156.3780
1385.473549 76.497 -156.1732
1395.513261 76.534 -155.9856
1405.625726 76.571 -155.8117
1415.811469 76.607 -155.6489
1426.071023 76.641 -155.4947
1436.404921 76.675 -155.3468
1446.813703 76.707 -155.2029
1457.297912 76.739 -155.0616
1467.858093 76.769 -154.9221
1478.494798 76.799 -154.7838
1489.208581 76.828 -154.6461
1500.000000 76.856 -154.5081
1510.869618 76.883 -154.3691
1521.818002 76.909 -154.2283
1532.845723 76.934 -154.0850
1543.953355 76.959 -153.9381
1555.141477 76.984 -153.7867
1566.410674 77.008 -153.6307
1577.761531 77.032 -153.4704
1589.194642 77.056 -153.3068
1600.710601 77.080 -153.1400
1612.310010 77.103 -152.9698
1623.993473 77.126 -152.7957
1635.761599 77.148 -152.6173
1647.615002 77.170 -152.4336
1659.554299 77.191 -152.2430
1671.580114 77.212 -152.0439
1683.693072 77.233 -151.8354
1695.893807 77.254 -151.6167
1708.182952 77.276 -151.3874
1720.561150 77.298 -151.1469
1733.029045 77.320 -150.8941
1745.587288 77.344 -150.6282
1758.236533 77.368 -150.3484
1770.977440 77.394 -150.0552
1783.810673 77.422 -149.7498
1796.736900 77.453 -149.4348
1809.756796 77.485 -149.1134
1822.871040 77.521 -148.7897
1836.080315 77.560 -148.4679
1849.385310 77.602 -148.1519
1862.786718 77.646 -147.8446
1876.285239 77.693 -147.5482
1889.881575 77.741 -147.2640
1903.576436 77.788 -146.9922
1917.370535 77.835 -146.7306
1931.264593 77.881 -146.4746
1945.259332 77.925 -146.2175
1959.355483 77.969 -145.9511
1973.553781 78.011 -145.6674
1987.854965 78.054 -145.3592
2002.259781 78.099 -145.0219
2016.768981 78.147 -144.6550
2031.383320 78.200 -144.2624
2046.103561 78.259 -143.8520
2060.930471 78.326 -143.4344
2075.864823 78.400 -143.0224
2090.907395 78.482 -142.6300
2106.058972 78.572 -142.2707
2121.320344 78.666 -141.9563
2136.692305 78.765 -141.6944
2152.175658 78.865 -141.4879
2167.771210 78.965 -141.3345
2183.479774 79.062 -141.2279
2199.302169 79.156 -141.1598
2215.239219 79.246 -141.1205
2231.291755 79.332 -141.0999
2247.460615 79.413 -141.0887
2263.746641 79.490 -141.0791
2280.150683 79.565 -141.0660
2296.673595 79.637 -141.0463
2313.316238 79.707 -141.0188
2330.079481 79.777 -140.9837
2346.964198 79.846 -140.9422
2363.971268 79.915 -140.8962
2381.101578 79.985 -140.8473
2398.356022 80.054 -140.7970
2415.735498 80.125 -140.7462
2433.240913 80.195 -140.6958
2450.873180 80.267 -140.6464
2468.633217 80.338 -140.5990
2486.521951 80.411 -140.5541
2504.540314 80.483 -140.5120
2522.689246 80.556 -140.4723
2540.969692 80.629 -140.4342
2559.382606 80.703 -140.3968
2577.928947 80.776 -140.3589
2596.609683 80.851 -140.3201
2615.425787 80.925 -140.2800
2634.378241 81.001 -140.2387
2653.468031 81.078 -140.1965
2672.696154 81.156 -140.1537
2692.063613 81.236 -140.1109
2711.571415 81.318 -140.0695
2731.220579 81.402 -140.0321
2751.012130 81.488 -140.0016
2770.947098 81.576 -139.9817
2791.026522 81.667 -139.9760
2811.251451 81.759 -139.9874
2831.622938 81.853 -140.0178
2852.142045 81.948 -140.0678
2872.809842 82.043 -140.1373
2893.627406 82.139 -140.2249
2914.595823 82.234 -140.3287
2935.716186 82.329 -140.4463
2956.989596 82.423 -140.5759
2978.417161 82.517 -140.7166
3000.000000 82.612 -140.8682
3021.739237 82.706 -141.0309
3043.636005 82.801 -141.2053
3065.691446 82.896 -141.3922
3087.906710 82.992 -141.5923
3110.282955 83.088 -141.8062
3132.821347 83.184 -142.0348
3155.523062 83.280 -142.2783
3178.389283 83.375 -142.5365
3201.421202 83.471 -142.8092
3224.620020 83.567 -143.0964
3247.986946 83.663 -143.3987
3271.523198 83.759 -143.7168
3295.230004 83.855 -144.0512
3319.108599 83.952 -144.4025
3343.160228 84.048 -144.7716
3367.386145 84.144 -145.1600
3391.787613 84.241 -145.5697
3416.365904 84.337 -146.0025
3441.122300 84.433 -146.4597
3466.058091 84.528 -146.9422
3491.174576 84.622 -147.4513
3516.473066 84.716 -147.9886
3541.954880 84.807 -148.5552
3567.621345 84.897 -149.1507
3593.473800 84.984 -149.7744
3619.513592 85.069 -150.4255
3645.742080 85.151 -151.1030
3672.160630 85.229 -151.8057
3698.770620 85.303 -152.5324
3725.573436 85.374 -153.2814
3752.570477 85.441 -154.0515
3779.763150 85.504 -154.8414
3807.152872 85.564 -155.6501
3834.741071 85.619 -156.4766
3862.529185 85.670 -157.3194
3890.518664 85.715 -158.1758
3918.710966 85.756 -159.0430
3947.107561 85.790 -159.9188
3975.709929 85.818 -160.8023
4004.519563 85.840 -161.6923
4033.537962 85.855 -162.5872
4062.766641 85.864 -163.4849
4092.207123 85.868 -164.3833
4121.860942 85.865 -165.2800
4151.729646 85.856 -166.1728
4181.814790 85.842 -167.0591
4212.117944 85.822 -167.9363
4242.640687 85.796 -168.8020
4273.384610 85.765 -169.6539
4304.351317 85.729 -170.4900
4335.542421 85.687 -171.3087
4366.959549 85.640 -172.1079
4398.604338 85.589 -172.8859
4430.478438 85.533 -173.6410
4462.583511 85.472 -174.3717
4494.921231 85.407 -175.0766
4527.493283 85.338 -175.7553
4560.301365 85.266 -176.4083
4593.347189 85.192 -177.0374
4626.632476 85.116 -177.6445
4660.158962 85.038 -178.2306
4693.928395 84.959 -178.7957
4727.942535 84.879 -179.3398
4762.203156 84.796 -179.8624
4796.712043 84.712 179.6373
4831.470996 84.626 179.1600
4866.481826 84.537 178.7072
4901.746360 84.447 178.2802
4937.266434 84.355 177.8804
4973.043902 84.262 177.5096
5009.080628 84.168 177.1691
5045.378492 84.072 176.8602
5081.939384 83.977 176.5837
5118.765212 83.882 176.3398
5155.857894 83.788 176.1277
5193.219366 83.695 175.9459
5230.851574 83.604 175.7918
5268.756481 83.514 175.6626
5306.936062 83.427 175.5553
5345.392309 83.343 175.4670
5384.127225 83.261 175.3950
5423.142830 83.182 175.3367
5462.441159 83.105 175.2896
5502.024259 83.029 175.2517
5541.894195 82.956 175.2217
5582.053045 82.884 175.1985
5622.502902 82.813 175.1823
5663.245876 82.743 175.1735
5704.284090 82.673 175.1740
5745.619684 82.603 175.1860
5787.254813 82.533 175.2128
5829.191647 82.463 175.2576
5871.432373 82.394 175.3239
5913.979192 82.324 175.4146
5956.834323 82.256 175.5324
6000.000000 82.188 175.6799
6043.478473 82.123 175.8596
6087.272010 82.060 176.0730
6131.382892 82.001 176.3214
6175.813420 81.947 176.6048
6220.565910 81.897 176.9224
6265.642695 81.854 177.2722
6311.046124 81.817 177.6521
6356.778566 81.788 178.0593
6402.842404 81.768 178.4898
6449.240040 81.757 178.9383
6495.973891 81.757 179.3985
6543.046396 81.767 179.8634
6590.460007 81.789 -179.6742
6638.217197 81.823 -179.2214
6686.320456 81.870 -178.7859
6734.772290 81.928 -178.3753
6783.575226 82.000 -177.9975
6832.731809 82.083 -177.6605
6882.244600 82.179 -177.3727
6932.116181 82.287 -177.1419
6982.349153 82.407 -176.9762
7032.946133 82.538 -176.8831
7083.909760 82.680 -176.8702
7135.242690 82.833 -176.9449
7186.947600 82.996 -177.1149
7239.027185 83.169 -177.3886
7291.484160 83.353 -177.7763
7344.321260 83.545 -178.2908
7397.541239 83.747 -178.9475
7451.146872 83.955 -179.7641
7505.140954 84.170 179.2412
7559.526299 84.386 178.0513
7614.305743 84.602 176.6510
7669.482141 84.812 175.0286
7725.058371 85.013 173.1761
7781.037328 85.199 171.0904
7837.421932 85.364 168.7739
7894.215122 85.504 166.2354
7951.419859 85.610 163.4915
8009.039125 85.678 160.5663
8067.075924 85.701 157.4908
8125.533282 85.673 154.3033
8184.414245 85.593 151.0493
8243.721885 85.456 147.7807
8303.459292 85.263 144.5528
8363.629581 85.014 141.4212
8424.235888 84.711 138.4390
8485.281374 84.360 135.6533
8546.769221 83.966 133.1025
8608.702634 83.536 130.8156
8671.084842 83.077 128.8115
8733.919097 82.596 127.1008
8797.208675 82.101 125.6862
8860.956876 81.596 124.5640
8925.167022 81.088 123.7237
8989.842461 80.582 123.1482
9054.986566 80.080 122.8157
9120.602731 79.587 122.7031
9186.694378 79.104 122.7885
9253.264952 78.631 123.0544
9320.317925 78.168 123.4870
9387.856790 77.717 124.0760
9455.885071 77.278 124.8121
9524.406312 76.851 125.6857
9593.424086 76.437 126.6865
9662.941992 76.036 127.8035
9732.963653 75.648 129.0259
9803.492719 75.274 130.3434
9874.532869 74.913 131.7470
9946.087805 74.564 133.2292
10018.161257 74.227 134.7833
10090.756983 73.903 136.4039
10163.878768 73.591 138.0863
10237.530423 73.291 139.8261
10311.715789 73.002 141.6199
10386.438732 72.725 143.4648
10461.703149 72.458 145.3584
10537.512962 72.203 147.2985
10613.872125 71.959 149.2827
10690.784618 71.726 151.3074
10768.254450 71.505 153.3676
10846.285661 71.296 155.4578
10924.882318 71.098 157.5728
11004.048518 70.911 159.7084
11083.788390 70.735 161.8615
11164.106090 70.570 164.0295
11245.005805 70.415 166.2097
11326.491752 70.270 168.3999
11408.568180 70.136 170.5976
11491.239368 70.013 172.8003
11574.509626 69.902 175.0051
11658.383294 69.802 177.2087
11742.864745 69.715 179.4070
11827.958384 69.640 -178.4049
11913.668646 69.578 -176.2326
12000.000000 69.530 -174.0810
12086.956947 69.495 -171.9547
12174.544019 69.474 -169.8588
12262.765784 69.467 -167.7999
12351.626840 69.476 -165.7854
12441.131819 69.500 -163.8233
12531.285389 69.540 -161.9212
12622.092249 69.596 -160.0869
12713.557132 69.669 -158.3301
12805.684808 69.760 -156.6636
12898.480079 69.868 -155.1031
12991.947783 69.995 -153.6671
13086.092792 70.140 -152.3761
13180.920015 70.301 -151.2507
13276.434395 70.479 -150.3106
13372.640911 70.671 -149.5747
13469.544580 70.875 -149.0616
13567.150452 71.090 -148.7902
13665.463617 71.313 -148.7783
13764.489200 71.540 -149.0426
13864.232362 71.765 -149.5962
13964.698305 71.984 -150.4458
14065.892266 72.188 -151.5878
14167.819519 72.372 -153.0067
14270.485380 72.528 -154.6769
14373.895200 72.651 -156.5649
14478.054370 72.737 -158.6308
14582.968320 72.781 -160.8282
14688.642520 72.780 -163.1049
14795.082478 72.734 -165.4052
14902.293745 72.644 -167.6749
15010.281908 72.512 -169.8648
15119.052599 72.343 -171.9347
15228.611486 72.141 -173.8528
15338.964283 71.908 -175.5921
15450.116741 71.649 -177.1277
15562.074656 71.366 -178.4345
15674.843864 71.065 -179.4890
15788.430244 70.747 179.7294
15902.839718 70.418 179.2374
16018.078250 70.082 179.0481
16134.151848 69.742 179.1727
16251.066563 69.403 179.6220
16368.828491 69.068 -179.5930
16487.443769 68.744 -178.4623
16606.918584 68.438 -176.9818
16727.259161 68.159 -175.1626
16848.471777 67.916 -173.0417
16970.562748 67.718 -170.6875
17093.538442 67.570 -168.1964
17217.405268 67.474 -165.6768
17342.169684 67.423 -163.2269
17467.838194 67.409 -160.9165
17594.417350 67.420 -158.7795
17721.913751 67.448 -156.8202
17850.334044 67.484 -155.0263
17979.684923 67.525 -153.3840
18109.973131 67.568 -151.8901
18241.205462 67.612 -150.5570
18373.388756 67.654 -149.4118
18506.529905 67.690 -148.4906
18640.635849 67.717 -147.8321
18775.713581 67.726 -147.4711
18911.770141 67.708 -147.4345
19048.812624 67.653 -147.7377
19186.848172 67.552 -148.3814
19325.883983 67.400 -149.3450
19465.927305 67.195 -150.5753
19606.985439 66.952 -151.9723
19749.065738 66.699 -153.3736
19892.175609 66.483 -154.5487
20036.322514 66.358 -155.2334
