* Measurement data measured by REW V5.31.3
* Source: Headset (CX31993 HIFI AUDIO), MICROPHONE (Master Volume), R, volume: 0.400
* Format: 256k Log Swept Sine, 1 sweep at -11.9 dBFS with no timing reference
* Dated: 05 26, 25 8:36:43 PM
* REW Settings:
*  C-weighting compensation: Off
*  Target level: 75.0 dB
* Note: ; 
* Measurement: Final A5000 DSP L
* Smoothing: 1/12 octave
* Frequency Step: 96 ppo
* Start Frequency: 0.36621094 Hz
*
* Freq(Hz) SPL(dB) Phase(degrees)
0.366211 49.145 -16.1332
0.368865 49.165 -16.0445
0.371538 49.194 -15.9130
0.374230 49.230 -15.7506
0.376942 49.271 -15.5673
0.379673 49.314 -15.3705
0.382424 49.359 -15.1650
0.385196 49.406 -14.9536
0.387987 49.453 -14.7382
0.390798 49.501 -14.5195
0.393630 49.549 -14.2980
0.396483 49.597 -14.0739
0.399356 49.646 -13.8473
0.402250 49.696 -13.6183
0.405165 49.745 -13.3866
0.408101 49.796 -13.1525
0.411058 49.846 -12.9156
0.414037 49.897 -12.6761
0.417037 49.948 -12.4338
0.420059 50.000 -12.1887
0.423103 50.051 -11.9406
0.426169 50.104 -11.6897
0.429257 50.156 -11.4357
0.432368 50.210 -11.1786
0.435501 50.263 -10.9184
0.438656 50.317 -10.6551
0.441835 50.371 -10.3885
0.445037 50.426 -10.1186
0.448262 50.481 -9.8454
0.451510 50.536 -9.5689
0.454782 50.592 -9.2889
0.458077 50.648 -9.0055
0.461397 50.705 -8.7186
0.464740 50.762 -8.4282
0.468108 50.819 -8.1343
0.471500 50.877 -7.8368
0.474917 50.935 -7.5358
0.478358 50.994 -7.2312
0.481825 51.053 -6.9230
0.485316 51.113 -6.6112
0.488833 51.173 -6.2959
0.492375 51.233 -5.9770
0.495943 51.294 -5.6546
0.499537 51.355 -5.3287
0.503157 51.417 -4.9994
0.506803 51.479 -4.6666
0.510475 51.542 -4.3304
0.514175 51.605 -3.9910
0.517900 51.669 -3.6483
0.521653 51.733 -3.3024
0.525434 51.797 -2.9535
0.529241 51.862 -2.6016
0.533076 51.928 -2.2469
0.536939 51.994 -1.8894
0.540830 52.060 -1.5292
0.544749 52.127 -1.1666
0.548696 52.194 -0.8016
0.552673 52.262 -0.4344
0.556677 52.330 -0.0652
0.560711 52.399 0.3059
0.564774 52.469 0.6787
0.568867 52.538 1.0529
0.572989 52.609 1.4285
0.577141 52.680 1.8051
0.581324 52.751 2.1826
0.585536 52.823 2.5608
0.589779 52.895 2.9393
0.594053 52.968 3.3181
0.598358 53.042 3.6967
0.602694 53.116 4.0750
0.607061 53.190 4.4528
0.611460 53.265 4.8297
0.615891 53.341 5.2054
0.620354 53.417 5.5799
0.624849 53.494 5.9526
0.629377 53.571 6.3234
0.633938 53.649 6.6921
0.638532 53.727 7.0582
0.643159 53.806 7.4216
0.647819 53.886 7.7820
0.652514 53.966 8.1391
0.657242 54.047 8.4926
0.662005 54.128 8.8423
0.666802 54.210 9.1880
0.671634 54.292 9.5293
0.676501 54.375 9.8660
0.681403 54.459 10.1980
0.686341 54.543 10.5249
0.691314 54.628 10.8466
0.696324 54.714 11.1628
0.701370 54.801 11.4736
0.706452 54.889 11.7787
0.711571 54.978 12.0783
0.716728 55.069 12.3725
0.721921 55.163 12.6618
0.727153 55.260 12.9469
0.732422 55.362 13.2288
0.737729 55.469 13.5087
0.743075 55.581 13.7876
0.748460 55.697 14.0663
0.753883 55.816 14.3454
0.759346 55.940 14.6247
0.764849 56.066 14.9043
0.770391 56.195 15.1837
0.775974 56.326 15.4626
0.781597 56.460 15.7406
0.787261 56.597 16.0170
0.792966 56.736 16.2916
0.798712 56.877 16.5637
0.804500 57.021 16.8330
0.810329 57.167 17.0989
0.816201 57.316 17.3610
0.822116 57.467 17.6190
0.828073 57.620 17.8723
0.834074 57.775 18.1206
0.840118 57.933 18.3635
0.846206 58.092 18.6006
0.852338 58.254 18.8316
0.858514 58.418 19.0560
0.864735 58.583 19.2736
0.871001 58.751 19.4841
0.877313 58.921 19.6870
0.883670 59.092 19.8823
0.890074 59.265 20.0694
0.896524 59.440 20.2482
0.903020 59.616 20.4185
0.909564 59.794 20.5799
0.916155 59.973 20.7323
0.922794 60.154 20.8754
0.929481 60.336 21.0091
0.936216 60.519 21.1330
0.943000 60.703 21.2471
0.949834 60.888 21.3512
0.956717 61.074 21.4450
0.963649 61.261 21.5285
0.970632 61.448 21.6015
0.977666 61.636 21.6639
0.984750 61.825 21.7156
0.991886 62.014 21.7564
0.999074 62.202 21.7863
1.006314 62.391 21.8051
1.013606 62.580 21.8128
1.020951 62.768 21.8093
1.028349 62.956 21.7945
1.035801 63.143 21.7685
1.043307 63.330 21.7313
1.050867 63.515 21.6828
1.058482 63.700 21.6234
1.066152 63.883 21.5532
1.073878 64.065 21.4728
1.081660 64.246 21.3831
1.089498 64.426 21.2853
1.097393 64.604 21.1811
1.105345 64.781 21.0726
1.113355 64.958 20.9616
1.121423 65.134 20.8497
1.129549 65.310 20.7379
1.137734 65.486 20.6266
1.145979 65.662 20.5160
1.154283 65.838 20.4058
1.162647 66.013 20.2958
1.171072 66.188 20.1857
1.179558 66.364 20.0750
1.188106 66.539 19.9633
1.196715 66.714 19.8502
1.205387 66.889 19.7353
1.214122 67.064 19.6182
1.222920 67.239 19.4985
1.231782 67.414 19.3758
1.240708 67.589 19.2498
1.249699 67.763 19.1201
1.258754 67.938 18.9864
1.267876 68.113 18.8483
1.277063 68.287 18.7055
1.286318 68.461 18.5577
1.295639 68.636 18.4046
1.305027 68.810 18.2459
1.314484 68.984 18.0813
1.324009 69.158 17.9105
1.333604 69.332 17.7332
1.343268 69.506 17.5492
1.353002 69.679 17.3582
1.362806 69.853 17.1599
1.372681 70.027 16.9542
1.382628 70.200 16.7407
1.392647 70.374 16.5193
1.402739 70.548 16.2898
1.412904 70.721 16.0521
1.423142 70.895 15.8063
1.433455 71.068 15.5526
1.443843 71.241 15.2914
1.454305 71.414 15.0238
1.464844 71.587 14.7509
1.475459 71.759 14.4741
1.486150 71.931 14.1949
1.496920 72.102 13.9144
1.507767 72.272 13.6331
1.518693 72.442 13.3516
1.529698 72.611 13.0697
1.540783 72.779 12.7874
1.551948 72.947 12.5043
1.563194 73.114 12.2202
1.574521 73.280 11.9347
1.585931 73.445 11.6475
1.597423 73.610 11.3582
1.608999 73.774 11.0663
1.620658 73.938 10.7716
1.632402 74.101 10.4737
1.644232 74.263 10.1722
1.656146 74.426 9.8666
1.668147 74.587 9.5568
1.680235 74.748 9.2423
1.692411 74.909 8.9227
1.704675 75.070 8.5977
1.717028 75.230 8.2670
1.729470 75.390 7.9302
1.742003 75.550 7.5870
1.754626 75.710 7.2371
1.767341 75.869 6.8803
1.780147 76.029 6.5164
1.793047 76.188 6.1453
1.806040 76.347 5.7671
1.819128 76.506 5.3823
1.832310 76.665 4.9915
1.845587 76.823 4.5955
1.858961 76.981 4.1951
1.872432 77.138 3.7910
1.886001 77.294 3.3840
1.899667 77.450 2.9744
1.913433 77.604 2.5625
1.927299 77.758 2.1484
1.941265 77.911 1.7322
1.955332 78.063 1.3140
1.969501 78.214 0.8937
1.983773 78.365 0.4714
1.998148 78.515 0.0470
2.012627 78.664 -0.3796
2.027212 78.813 -0.8085
2.041902 78.961 -1.2399
2.056698 79.109 -1.6738
2.071602 79.256 -2.1105
2.086614 79.402 -2.5500
2.101734 79.549 -2.9927
2.116964 79.695 -3.4388
2.132304 79.840 -3.8883
2.147756 79.986 -4.3417
2.163320 80.130 -4.7989
2.178996 80.275 -5.2603
2.194786 80.419 -5.7257
2.210690 80.563 -6.1952
2.226710 80.706 -6.6687
2.242845 80.848 -7.1457
2.259098 80.989 -7.6262
2.275468 81.129 -8.1097
2.291957 81.269 -8.5959
2.308566 81.407 -9.0845
2.325295 81.545 -9.5754
2.342145 81.682 -10.0682
2.359117 81.818 -10.5627
2.376212 81.953 -11.0588
2.393431 82.088 -11.5564
2.410775 82.222 -12.0553
2.428244 82.355 -12.5554
2.445840 82.488 -13.0567
2.463564 82.620 -13.5592
2.481416 82.752 -14.0630
2.499397 82.883 -14.5682
2.517509 83.013 -15.0748
2.535752 83.144 -15.5833
2.554127 83.273 -16.0940
2.572635 83.403 -16.6072
2.591277 83.531 -17.1232
2.610055 83.658 -17.6422
2.628968 83.785 -18.1642
2.648019 83.911 -18.6890
2.667208 84.035 -19.2164
2.686535 84.159 -19.7459
2.706003 84.282 -20.2772
2.725612 84.404 -20.8099
2.745363 84.525 -21.3437
2.765257 84.646 -21.8781
2.785295 84.766 -22.4129
2.805478 84.885 -22.9477
2.825808 85.004 -23.4824
2.846285 85.122 -24.0168
2.866910 85.239 -24.5510
2.887685 85.356 -25.0848
2.908611 85.473 -25.6188
2.929688 85.589 -26.1532
2.950917 85.704 -26.6886
2.972301 85.818 -27.2254
2.993839 85.932 -27.7640
3.015534 86.045 -28.3042
3.037386 86.156 -28.8460
3.059396 86.267 -29.3891
3.081565 86.377 -29.9332
3.103896 86.487 -30.4778
3.126388 86.595 -31.0225
3.149043 86.703 -31.5670
3.171862 86.810 -32.1108
3.194847 86.917 -32.6537
3.217998 87.023 -33.1955
3.241317 87.129 -33.7360
3.264805 87.235 -34.2754
3.288463 87.339 -34.8139
3.312293 87.444 -35.3519
3.336295 87.547 -35.8899
3.360471 87.650 -36.4283
3.384822 87.752 -36.9670
3.409350 87.854 -37.5063
3.434056 87.954 -38.0459
3.458940 88.054 -38.5856
3.484005 88.154 -39.1251
3.509252 88.252 -39.6641
3.534681 88.351 -40.2024
3.560295 88.449 -40.7396
3.586094 88.546 -41.2757
3.612081 88.643 -41.8104
3.638255 88.740 -42.3440
3.664620 88.836 -42.8765
3.691175 88.932 -43.4083
3.717923 89.028 -43.9396
3.744864 89.122 -44.4707
3.772001 89.217 -45.0016
3.799335 89.311 -45.5325
3.826866 89.404 -46.0633
3.854597 89.497 -46.5939
3.882529 89.589 -47.1241
3.910664 89.681 -47.6538
3.939002 89.773 -48.1830
3.967546 89.864 -48.7117
3.996296 89.956 -49.2398
4.025255 90.046 -49.7675
4.054423 90.137 -50.2949
4.083804 90.227 -50.8222
4.113396 90.317 -51.3495
4.143204 90.407 -51.8770
4.173227 90.496 -52.4048
4.203468 90.585 -52.9328
4.233928 90.673 -53.4611
4.264609 90.761 -53.9897
4.295512 90.849 -54.5187
4.326639 90.937 -55.0481
4.357992 91.024 -55.5780
4.389572 91.111 -56.1085
4.421380 91.197 -56.6397
4.453419 91.284 -57.1718
4.485691 91.370 -57.7049
4.518196 91.455 -58.2390
4.550936 91.541 -58.7741
4.583914 91.626 -59.3102
4.617131 91.710 -59.8472
4.650589 91.795 -60.3853
4.684289 91.878 -60.9244
4.718233 91.962 -61.4646
4.752424 92.045 -62.0060
4.786862 92.128 -62.5489
4.821549 92.210 -63.0934
4.856488 92.292 -63.6394
4.891680 92.373 -64.1870
4.927127 92.454 -64.7361
4.962831 92.534 -65.2865
4.998794 92.614 -65.8380
5.035017 92.694 -66.3906
5.071503 92.773 -66.9441
5.108253 92.851 -67.4988
5.145270 92.929 -68.0548
5.182555 93.007 -68.6121
5.220110 93.084 -69.1710
5.257937 93.160 -69.7313
5.296038 93.236 -70.2928
5.334415 93.311 -70.8552
5.373071 93.385 -71.4182
5.412006 93.459 -71.9817
5.451224 93.533 -72.5455
5.490725 93.605 -73.1097
5.530514 93.677 -73.6744
5.570590 93.749 -74.2396
5.610957 93.820 -74.8055
5.651616 93.890 -75.3718
5.692570 93.960 -75.9384
5.733821 94.029 -76.5049
5.775370 94.098 -77.0711
5.817221 94.166 -77.6367
5.859375 94.233 -78.2018
5.901834 94.300 -78.7663
5.944602 94.366 -79.3306
5.987679 94.432 -79.8945
6.031068 94.497 -80.4579
6.074771 94.562 -81.0209
6.118792 94.626 -81.5831
6.163131 94.690 -82.1443
6.207792 94.754 -82.7047
6.252776 94.817 -83.2640
6.298086 94.879 -83.8225
6.343725 94.942 -84.3803
6.389694 95.003 -84.9374
6.435996 95.065 -85.4938
6.482634 95.126 -86.0494
6.529610 95.187 -86.6044
6.576926 95.247 -87.1587
6.624585 95.307 -87.7124
6.672590 95.367 -88.2655
6.720942 95.427 -88.8182
6.769645 95.486 -89.3707
6.818700 95.545 -89.9229
6.868111 95.604 -90.4750
6.917881 95.663 -91.0270
6.968010 95.721 -91.5791
7.018504 95.779 -92.1314
7.069362 95.837 -92.6839
7.120590 95.895 -93.2367
7.172189 95.952 -93.7898
7.224161 96.009 -94.3434
7.276511 96.065 -94.8975
7.329239 96.122 -95.4522
7.382350 96.178 -96.0075
7.435845 96.233 -96.5634
7.489729 96.289 -97.1200
7.544002 96.344 -97.6773
7.598669 96.398 -98.2350
7.653732 96.452 -98.7932
7.709194 96.506 -99.3519
7.765058 96.559 -99.9111
7.821327 96.612 -100.4708
7.878004 96.664 -101.0308
7.935091 96.716 -101.5909
7.992592 96.767 -102.1510
8.050510 96.818 -102.7111
8.108847 96.868 -103.2709
8.167607 96.918 -103.8306
8.226793 96.968 -104.3899
8.286408 97.017 -104.9487
8.346454 97.065 -105.5069
8.406936 97.113 -106.0644
8.467856 97.160 -106.6210
8.529218 97.207 -107.1767
8.591024 97.254 -107.7316
8.653278 97.300 -108.2855
8.715983 97.346 -108.8383
8.779143 97.391 -109.3901
8.842760 97.436 -109.9408
8.906839 97.481 -110.4904
8.971381 97.525 -111.0391
9.036392 97.569 -111.5868
9.101873 97.613 -112.1335
9.167829 97.656 -112.6795
9.234263 97.699 -113.2246
9.301178 97.741 -113.7690
9.368578 97.783 -114.3127
9.436467 97.825 -114.8559
9.504847 97.867 -115.3986
9.573723 97.908 -115.9409
9.643099 97.949 -116.4829
9.712976 97.989 -117.0245
9.783361 98.029 -117.5657
9.854255 98.069 -118.1067
9.925663 98.108 -118.6474
9.997588 98.147 -119.1877
10.070035 98.185 -119.7277
10.143007 98.223 -120.2672
10.216507 98.260 -120.8061
10.290540 98.297 -121.3444
10.365109 98.333 -121.8820
10.440219 98.368 -122.4188
10.515873 98.403 -122.9545
10.592076 98.438 -123.4891
10.668830 98.472 -124.0225
10.746141 98.505 -124.5546
10.824012 98.538 -125.0852
10.902447 98.570 -125.6142
10.981451 98.602 -126.1416
11.061027 98.633 -126.6673
11.141180 98.664 -127.1913
11.221913 98.695 -127.7136
11.303232 98.725 -128.2342
11.385140 98.754 -128.7531
11.467641 98.783 -129.2704
11.550741 98.812 -129.7862
11.634442 98.840 -130.3005
11.718750 98.868 -130.8134
11.803669 98.896 -131.3251
11.889203 98.923 -131.8357
11.975357 98.950 -132.3453
12.062136 98.976 -132.8539
12.149543 99.002 -133.3618
12.237583 99.028 -133.8690
12.326262 99.053 -134.3755
12.415583 99.078 -134.8815
12.505552 99.102 -135.3870
12.596172 99.126 -135.8919
12.687449 99.149 -136.3965
12.779387 99.172 -136.9005
12.871992 99.195 -137.4041
12.965268 99.217 -137.9071
13.059220 99.238 -138.4097
13.153852 99.259 -138.9117
13.249170 99.280 -139.4132
13.345179 99.300 -139.9142
13.441884 99.319 -140.4146
13.539289 99.338 -140.9144
13.637401 99.357 -141.4136
13.736223 99.375 -141.9124
13.835761 99.392 -142.4106
13.936021 99.410 -142.9083
14.037007 99.426 -143.4056
14.138725 99.442 -143.9024
14.241180 99.458 -144.3987
14.344377 99.473 -144.8945
14.448323 99.488 -145.3899
14.553021 99.502 -145.8847
14.658478 99.515 -146.3789
14.764700 99.528 -146.8725
14.871691 99.541 -147.3654
14.979457 99.553 -147.8573
15.088005 99.564 -148.3484
15.197339 99.575 -148.8383
15.307465 99.586 -149.3272
15.418389 99.596 -149.8147
15.530117 99.606 -150.3009
15.642655 99.615 -150.7858
15.756008 99.624 -151.2692
15.870182 99.632 -151.7512
15.985184 99.640 -152.2318
16.101019 99.648 -152.7110
16.217694 99.655 -153.1889
16.335214 99.663 -153.6657
16.453586 99.669 -154.1414
16.572815 99.676 -154.6161
16.692909 99.682 -155.0900
16.813872 99.689 -155.5632
16.935713 99.694 -156.0357
17.058436 99.700 -156.5077
17.182048 99.705 -156.9792
17.306556 99.710 -157.4501
17.431967 99.714 -157.9206
17.558286 99.719 -158.3905
17.685521 99.722 -158.8598
17.813677 99.726 -159.3283
17.942762 99.729 -159.7960
18.072783 99.731 -160.2627
18.203746 99.733 -160.7282
18.335658 99.735 -161.1924
18.468526 99.736 -161.6551
18.602356 99.737 -162.1163
18.737156 99.738 -162.5759
18.872934 99.738 -163.0338
19.009695 99.737 -163.4900
19.147447 99.737 -163.9447
19.286197 99.736 -164.3978
19.425953 99.735 -164.8496
19.566721 99.733 -165.3001
19.708510 99.732 -165.7497
19.851326 99.730 -166.1984
19.995177 99.727 -166.6464
20.140070 99.724 -167.0938
20.286013 99.721 -167.5406
20.433014 99.717 -167.9869
20.581080 99.713 -168.4324
20.730219 99.708 -168.8769
20.880439 99.702 -169.3203
21.031747 99.696 -169.7621
21.184152 99.690 -170.2020
21.337661 99.682 -170.6398
21.492282 99.674 -171.0752
21.648024 99.666 -171.5080
21.804895 99.657 -171.9382
21.962902 99.648 -172.3658
22.122054 99.639 -172.7912
22.282360 99.629 -173.2145
22.443827 99.619 -173.6361
22.606464 99.609 -174.0564
22.770280 99.598 -174.4758
22.935283 99.588 -174.8944
23.101481 99.576 -175.3125
23.268884 99.565 -175.7299
23.437500 99.553 -176.1467
23.607338 99.540 -176.5625
23.778406 99.527 -176.9771
23.950714 99.514 -177.3902
24.124271 99.500 -177.8017
24.299086 99.486 -178.2115
24.475167 99.472 -178.6198
24.652524 99.457 -179.0267
24.831166 99.442 -179.4326
25.011103 99.427 -179.8380
25.192344 99.412 179.7570
25.374898 99.396 179.3519
25.558775 99.380 178.9468
25.743984 99.363 178.5419
25.930536 99.346 178.1375
26.118439 99.329 177.7343
26.307704 99.310 177.3327
26.498341 99.292 176.9335
26.690359 99.272 176.5369
26.883768 99.253 176.1433
27.078579 99.233 175.7526
27.274801 99.213 175.3645
27.472446 99.192 174.9785
27.671522 99.172 174.5943
27.872042 99.151 174.2113
28.074014 99.131 173.8293
28.277450 99.109 173.4481
28.482360 99.088 173.0679
28.688755 99.066 172.6890
28.896645 99.044 172.3117
29.106042 99.021 171.9362
29.316957 98.998 171.5629
29.529400 98.974 171.1915
29.743382 98.950 170.8221
29.958915 98.926 170.4542
30.176009 98.902 170.0878
30.394677 98.877 169.7227
30.614929 98.851 169.3587
30.836778 98.826 168.9963
31.060234 98.799 168.6356
31.285309 98.772 168.2769
31.512015 98.745 167.9207
31.740364 98.717 167.5669
31.970368 98.689 167.2157
32.202039 98.661 166.8668
32.435388 98.632 166.5200
32.670428 98.603 166.1753
32.907171 98.573 165.8325
33.145630 98.544 165.4917
33.385817 98.513 165.1528
33.627745 98.483 164.8160
33.871425 98.452 164.4812
34.116871 98.421 164.1481
34.364096 98.390 163.8163
34.613113 98.359 163.4853
34.863934 98.328 163.1547
35.116572 98.296 162.8245
35.371041 98.264 162.4945
35.627354 98.231 162.1650
35.885525 98.198 161.8364
36.145566 98.164 161.5092
36.407492 98.130 161.1837
36.671316 98.096 160.8604
36.937051 98.061 160.5394
37.204712 98.025 160.2210
37.474313 97.990 159.9054
37.745867 97.954 159.5925
38.019389 97.918 159.2820
38.294893 97.881 158.9738
38.572394 97.845 158.6671
38.851905 97.809 158.3617
39.133442 97.772 158.0574
39.417019 97.735 157.7545
39.702651 97.697 157.4537
39.990353 97.659 157.1559
40.280140 97.621 156.8618
40.572026 97.582 156.5717
40.866028 97.544 156.2852
41.162160 97.505 156.0018
41.460438 97.466 155.7206
41.760877 97.426 155.4413
42.063494 97.387 155.1639
42.368303 97.347 154.8885
42.675322 97.306 154.6157
42.984565 97.265 154.3456
43.296048 97.224 154.0780
43.609789 97.182 153.8128
43.925804 97.139 153.5500
44.244108 97.096 153.2897
44.564719 97.053 153.0320
44.887654 97.008 152.7768
45.212928 96.963 152.5238
45.540560 96.918 152.2728
45.870565 96.871 152.0242
46.202962 96.824 151.7797
46.537768 96.776 151.5417
46.875000 96.728 151.3127
47.214676 96.680 151.0929
47.556813 96.633 150.8795
47.901429 96.588 150.6667
48.248542 96.545 150.4480
48.598171 96.503 150.2183
48.950334 96.460 149.9765
49.305048 96.416 149.7258
49.662333 96.371 149.4718
50.022206 96.324 149.2205
50.384688 96.276 148.9754
50.749796 96.228 148.7377
51.117550 96.180 148.5067
51.487969 96.132 148.2812
51.861072 96.083 148.0607
52.236879 96.035 147.8452
52.615409 95.986 147.6350
52.996681 95.938 147.4298
53.380717 95.889 147.2291
53.767536 95.841 147.0322
54.157158 95.792 146.8389
54.549603 95.742 146.6491
54.944892 95.693 146.4631
55.343045 95.642 146.2808
55.744084 95.592 146.1021
56.148028 95.541 145.9266
56.554900 95.489 145.7544
56.964720 95.437 145.5850
57.377510 95.385 145.4184
57.793291 95.332 145.2543
58.212085 95.279 145.0926
58.633914 95.225 144.9333
59.058799 95.172 144.7766
59.486764 95.118 144.6226
59.917829 95.064 144.4709
60.352019 95.011 144.3215
60.789354 94.957 144.1740
61.229859 94.904 144.0283
61.673556 94.850 143.8845
62.120468 94.796 143.7430
62.570618 94.743 143.6046
63.024031 94.689 143.4696
63.480729 94.635 143.3384
63.940736 94.581 143.2109
64.404077 94.526 143.0872
64.870776 94.472 142.9675
65.340856 94.417 142.8517
65.814343 94.362 142.7400
66.291261 94.307 142.6321
66.771635 94.252 142.5275
67.255489 94.196 142.4256
67.742850 94.140 142.3264
68.233743 94.084 142.2300
68.728193 94.027 142.1372
69.226226 93.969 142.0486
69.727867 93.911 141.9652
70.233144 93.853 141.8882
70.742083 93.794 141.8183
71.254709 93.737 141.7547
71.771050 93.680 141.6941
72.291132 93.624 141.6326
72.814984 93.569 141.5674
73.342631 93.514 141.4984
73.874102 93.458 141.4280
74.409424 93.402 141.3592
74.948626 93.346 141.2940
75.491734 93.289 141.2338
76.038779 93.232 141.1791
76.589787 93.175 141.1304
77.144788 93.118 141.0882
77.703811 93.061 141.0528
78.266885 93.004 141.0237
78.834039 92.947 141.0002
79.405303 92.890 140.9813
79.980706 92.833 140.9657
80.560280 92.776 140.9529
81.144053 92.719 140.9422
81.732056 92.661 140.9339
82.324320 92.603 140.9283
82.920876 92.545 140.9260
83.521755 92.487 140.9275
84.126988 92.429 140.9326
84.736607 92.371 140.9409
85.350643 92.314 140.9525
85.969129 92.257 140.9670
86.592097 92.200 140.9844
87.219579 92.143 141.0050
87.851608 92.087 141.0291
88.488217 92.031 141.0572
89.129439 91.975 141.0902
89.775308 91.918 141.1285
90.425856 91.862 141.1720
91.081119 91.806 141.2201
91.741131 91.749 141.2721
92.405925 91.693 141.3272
93.075536 91.636 141.3847
93.750000 91.580 141.4442
94.429351 91.523 141.5060
95.113625 91.466 141.5711
95.802858 91.409 141.6404
96.497085 91.353 141.7142
97.196342 91.297 141.7921
97.900667 91.243 141.8730
98.610096 91.189 141.9557
99.324665 91.136 142.0402
100.044413 91.083 142.1270
100.769376 91.030 142.2171
101.499592 90.977 142.3112
102.235100 90.924 142.4097
102.975938 90.871 142.5128
103.722144 90.817 142.6205
104.473757 90.764 142.7325
105.230817 90.711 142.8485
105.993363 90.659 142.9685
106.761435 90.607 143.0923
107.535072 90.556 143.2195
108.314315 90.505 143.3499
109.099206 90.455 143.4838
109.889783 90.405 143.6213
110.686090 90.354 143.7626
111.488167 90.303 143.9073
112.296056 90.252 144.0544
113.109800 90.199 144.2037
113.929440 90.147 144.3565
114.755020 90.094 144.5144
115.586582 90.042 144.6780
116.424170 89.993 144.8451
117.267827 89.946 145.0111
118.117598 89.901 145.1719
118.973527 89.858 145.3260
119.835658 89.815 145.4762
120.704037 89.771 145.6290
121.578708 89.726 145.7914
122.459718 89.679 145.9681
123.347111 89.633 146.1575
124.240935 89.587 146.3538
125.141236 89.541 146.5518
126.048061 89.496 146.7490
126.961458 89.452 146.9442
127.881473 89.408 147.1373
128.808154 89.366 147.3296
129.741551 89.325 147.5229
130.681712 89.284 147.7189
131.628686 89.244 147.9183
132.582521 89.204 148.1216
133.543269 89.164 148.3286
134.510979 89.125 148.5383
135.485701 89.085 148.7495
136.467486 89.046 148.9617
137.456386 89.007 149.1753
138.452451 88.969 149.3910
139.455735 88.931 149.6096
140.466288 88.893 149.8312
141.484165 88.857 150.0551
142.509418 88.820 150.2795
143.542100 88.785 150.5032
144.582265 88.750 150.7251
145.629968 88.716 150.9448
146.685262 88.682 151.1639
147.748204 88.648 151.3849
148.818849 88.615 151.6099
149.897251 88.583 151.8401
150.983469 88.550 152.0754
152.077557 88.519 152.3145
153.179574 88.487 152.5559
154.289576 88.456 152.7984
155.407622 88.426 153.0408
156.533770 88.395 153.2820
157.668078 88.366 153.5217
158.810606 88.336 153.7610
159.961413 88.307 154.0009
161.120559 88.278 154.2423
162.288105 88.249 154.4864
163.464112 88.221 154.7336
164.648640 88.193 154.9836
165.841752 88.167 155.2359
167.043510 88.141 155.4900
168.253976 88.115 155.7451
169.473213 88.090 156.0002
170.701286 88.066 156.2553
171.938258 88.042 156.5112
173.184194 88.018 156.7690
174.439158 87.995 157.0286
175.703216 87.972 157.2893
176.976434 87.949 157.5507
178.258878 87.927 157.8127
179.550615 87.905 158.0761
180.851713 87.884 158.3414
182.162239 87.863 158.6089
183.482262 87.843 158.8801
184.811850 87.823 159.1560
186.151073 87.804 159.4372
187.500000 87.785 159.7230
188.858702 87.768 160.0137
190.227250 87.751 160.3110
191.605715 87.736 160.6169
192.994169 87.722 160.9314
194.392685 87.710 161.2518
195.801334 87.699 161.5735
197.220191 87.691 161.8931
198.649330 87.684 162.2097
200.088825 87.678 162.5240
201.538751 87.673 162.8358
202.999184 87.670 163.1433
204.470200 87.667 163.4439
205.951875 87.665 163.7354
207.444287 87.664 164.0176
208.947514 87.666 164.2923
210.461634 87.671 164.5611
211.986726 87.679 164.8213
213.522869 87.689 165.0659
215.070144 87.701 165.2885
216.628631 87.713 165.4861
218.198411 87.723 165.6598
219.779567 87.731 165.8148
221.372180 87.737 165.9575
222.976334 87.744 166.0922
224.592112 87.752 166.2208
226.219600 87.760 166.3423
227.858880 87.767 166.4531
229.510039 87.772 166.5483
231.173164 87.776 166.6266
232.848340 87.779 166.6932
234.535655 87.780 166.7607
236.235197 87.779 166.8419
237.947054 87.775 166.9426
239.671317 87.768 167.0594
241.408074 87.759 167.1845
243.157416 87.748 167.3129
244.919435 87.740 167.4456
246.694223 87.734 167.5871
248.481871 87.730 167.7383
250.282473 87.728 167.8942
252.096123 87.725 168.0468
253.922915 87.722 168.1916
255.762945 87.718 168.3317
257.616309 87.714 168.4731
259.483103 87.710 168.6188
261.363424 87.707 168.7669
263.257372 87.703 168.9135
265.165043 87.699 169.0571
267.086538 87.695 169.1995
269.021957 87.689 169.3427
270.971401 87.682 169.4869
272.934972 87.675 169.6317
274.912771 87.667 169.7769
276.904902 87.660 169.9234
278.911469 87.654 170.0717
280.932577 87.649 170.2219
282.968330 87.645 170.3724
285.018835 87.642 170.5200
287.084199 87.639 170.6614
289.164530 87.636 170.7952
291.259935 87.632 170.9222
293.370525 87.629 171.0458
295.496408 87.626 171.1697
297.637697 87.623 171.2966
299.794503 87.619 171.4272
301.966937 87.616 171.5608
304.155114 87.613 171.6943
306.359147 87.610 171.8243
308.579152 87.606 171.9508
310.815244 87.602 172.0764
313.067539 87.598 172.2032
315.336156 87.594 172.3320
317.621211 87.589 172.4636
319.922826 87.585 172.5990
322.241118 87.580 172.7383
324.576210 87.577 172.8792
326.928223 87.574 173.0179
329.297280 87.572 173.1513
331.683504 87.569 173.2790
334.087019 87.567 173.4030
336.507952 87.563 173.5255
338.946427 87.560 173.6479
341.402572 87.556 173.7713
343.876516 87.552 173.8964
346.368387 87.548 174.0231
348.878315 87.544 174.1505
351.406431 87.541 174.2773
353.952867 87.537 174.4035
356.517756 87.534 174.5298
359.101230 87.531 174.6569
361.703426 87.528 174.7847
364.324478 87.524 174.9121
366.964523 87.521 175.0374
369.623699 87.518 175.1597
372.302145 87.515 175.2790
375.000000 87.512 175.3966
377.717405 87.510 175.5140
380.454501 87.507 175.6319
383.211431 87.504 175.7504
385.988339 87.501 175.8692
388.785369 87.497 175.9885
391.602668 87.493 176.1093
394.440383 87.488 176.2319
397.298660 87.483 176.3566
400.177650 87.478 176.4825
403.077502 87.472 176.6093
405.998368 87.465 176.7366
408.940400 87.458 176.8637
411.903750 87.450 176.9900
414.888575 87.443 177.1151
417.895028 87.436 177.2396
420.923268 87.429 177.3657
423.973452 87.423 177.4964
427.045738 87.417 177.6343
430.140287 87.411 177.7793
433.257261 87.403 177.9283
436.396822 87.396 178.0782
439.559133 87.388 178.2283
442.744360 87.380 178.3811
445.952668 87.373 178.5392
449.184225 87.367 178.7039
452.439199 87.361 178.8756
455.717760 87.356 179.0545
459.020079 87.352 179.2402
462.346327 87.349 179.4312
465.696680 87.347 179.6251
469.071310 87.347 179.8187
472.470394 87.348 -179.9915
475.894109 87.351 -179.8080
479.342634 87.355 -179.6327
482.816148 87.359 -179.4672
486.314833 87.365 -179.3114
489.838871 87.370 -179.1650
493.388445 87.376 -179.0264
496.963741 87.380 -178.8934
500.564945 87.385 -178.7646
504.192245 87.389 -178.6401
507.845830 87.392 -178.5207
511.525890 87.395 -178.4073
515.232618 87.397 -178.3000
518.966206 87.397 -178.1973
522.726849 87.397 -178.0965
526.514743 87.395 -177.9952
530.330086 87.392 -177.8916
534.173076 87.388 -177.7847
538.043915 87.383 -177.6739
541.942803 87.378 -177.5587
545.869944 87.372 -177.4386
549.825542 87.365 -177.3133
553.809805 87.358 -177.1826
557.822939 87.351 -177.0467
561.865154 87.343 -176.9059
565.936660 87.336 -176.7601
570.037671 87.328 -176.6093
574.168399 87.320 -176.4534
578.329060 87.312 -176.2924
582.519870 87.305 -176.1263
586.741049 87.298 -175.9552
590.992817 87.291 -175.7794
595.275394 87.284 -175.5994
599.589005 87.277 -175.4157
603.933874 87.270 -175.2286
608.310228 87.264 -175.0382
612.718295 87.258 -174.8444
617.158304 87.253 -174.6470
621.630488 87.247 -174.4462
626.135079 87.242 -174.2424
630.672311 87.237 -174.0358
635.242423 87.232 -173.8263
639.845651 87.228 -173.6138
644.482237 87.224 -173.3984
649.152421 87.220 -173.1800
653.856447 87.216 -172.9583
658.594560 87.213 -172.7327
663.367008 87.210 -172.5031
668.174039 87.207 -172.2694
673.015903 87.205 -172.0317
677.892854 87.204 -171.7904
682.805145 87.202 -171.5457
687.753032 87.202 -171.2978
692.736774 87.201 -171.0465
697.756631 87.201 -170.7916
702.812863 87.202 -170.5330
707.905735 87.203 -170.2708
713.035511 87.205 -170.0049
718.202461 87.207 -169.7350
723.406852 87.209 -169.4610
728.648956 87.213 -169.1828
733.929047 87.217 -168.9007
739.247399 87.222 -168.6147
744.604290 87.228 -168.3252
750.000000 87.234 -168.0321
755.434809 87.241 -167.7355
760.909001 87.249 -167.4355
766.422861 87.258 -167.1321
771.976677 87.268 -166.8257
777.570739 87.279 -166.5164
783.205337 87.290 -166.2044
788.880766 87.303 -165.8895
794.597321 87.317 -165.5719
800.355301 87.331 -165.2517
806.155005 87.347 -164.9290
811.996736 87.364 -164.6042
817.880799 87.383 -164.2774
823.807501 87.402 -163.9488
829.777150 87.423 -163.6185
835.790057 87.445 -163.2867
841.846536 87.469 -162.9535
847.946903 87.494 -162.6192
854.091476 87.520 -162.2843
860.280575 87.548 -161.9491
866.514523 87.578 -161.6140
872.793644 87.608 -161.2795
879.118267 87.641 -160.9460
885.488720 87.675 -160.6139
891.905336 87.711 -160.2837
898.368450 87.748 -159.9562
904.878398 87.787 -159.6317
911.435520 87.828 -159.3109
918.040157 87.870 -158.9942
924.692655 87.914 -158.6821
931.393359 87.960 -158.3754
938.142619 88.008 -158.0748
944.940787 88.058 -157.7808
951.788218 88.109 -157.4938
958.685268 88.161 -157.2141
965.632296 88.216 -156.9422
972.629666 88.272 -156.6790
979.677741 88.329 -156.4254
986.776890 88.389 -156.1822
993.927482 88.450 -155.9504
1001.129891 88.512 -155.7305
1008.384491 88.577 -155.5231
1015.691660 88.643 -155.3290
1023.051781 88.711 -155.1492
1030.465236 88.780 -154.9852
1037.932411 88.851 -154.8385
1045.453698 88.923 -154.7110
1053.029486 88.998 -154.6050
1060.660172 89.074 -154.5237
1068.346153 89.151 -154.4711
1076.087829 89.230 -154.4520
1083.885605 89.309 -154.4727
1091.739887 89.388 -154.5403
1099.651084 89.466 -154.6626
1107.619609 89.540 -154.8460
1115.645878 89.608 -155.0933
1123.730308 89.664 -155.3999
1131.873321 89.706 -155.7491
1140.075341 89.730 -156.1077
1148.336797 89.733 -156.4243
1156.658119 89.718 -156.6358
1165.039741 89.692 -156.6831
1173.482099 89.666 -156.5374
1181.985634 89.653 -156.2187
1190.550789 89.660 -155.7902
1199.178011 89.691 -155.3317
1207.867749 89.741 -154.9112
1216.620457 89.806 -154.5705
1225.436590 89.879 -154.3263
1234.316609 89.955 -154.1772
1243.260976 90.031 -154.1122
1252.270157 90.105 -154.1162
1261.344623 90.175 -154.1740
1270.484846 90.241 -154.2715
1279.691303 90.302 -154.3969
1288.964474 90.359 -154.5406
1298.304842 90.411 -154.6947
1307.712894 90.458 -154.8522
1317.189120 90.500 -155.0066
1326.734016 90.537 -155.1519
1336.348077 90.572 -155.2834
1346.031806 90.603 -155.3971
1355.785708 90.632 -155.4907
1365.610290 90.660 -155.5631
1375.506065 90.687 -155.6150
1385.473549 90.715 -155.6481
1395.513261 90.745 -155.6653
1405.625726 90.775 -155.6702
1415.811469 90.808 -155.6669
1426.071023 90.843 -155.6591
1436.404921 90.880 -155.6504
1446.813703 90.919 -155.6436
1457.297912 90.960 -155.6410
1467.858093 91.003 -155.6446
1478.494798 91.046 -155.6556
1489.208581 91.091 -155.6750
1500.000000 91.137 -155.7033
1510.869618 91.183 -155.7406
1521.818002 91.230 -155.7868
1532.845723 91.277 -155.8419
1543.953355 91.324 -155.9058
1555.141477 91.372 -155.9784
1566.410674 91.419 -156.0594
1577.761531 91.466 -156.1486
1589.194642 91.514 -156.2457
1600.710601 91.561 -156.3505
1612.310010 91.608 -156.4627
1623.993473 91.654 -156.5820
1635.761599 91.700 -156.7081
1647.615002 91.746 -156.8408
1659.554299 91.792 -156.9798
1671.580114 91.837 -157.1250
1683.693072 91.882 -157.2764
1695.893807 91.926 -157.4339
1708.182952 91.970 -157.5975
1720.561150 92.014 -157.7672
1733.029045 92.056 -157.9429
1745.587288 92.099 -158.1245
1758.236533 92.140 -158.3118
1770.977440 92.181 -158.5047
1783.810673 92.222 -158.7030
1796.736900 92.261 -158.9064
1809.756796 92.300 -159.1150
1822.871040 92.338 -159.3286
1836.080315 92.376 -159.5469
1849.385310 92.413 -159.7698
1862.786718 92.448 -159.9970
1876.285239 92.483 -160.2284
1889.881575 92.517 -160.4636
1903.576436 92.551 -160.7025
1917.370535 92.583 -160.9448
1931.264593 92.614 -161.1905
1945.259332 92.644 -161.4394
1959.355483 92.674 -161.6913
1973.553781 92.702 -161.9457
1987.854965 92.730 -162.2024
2002.259781 92.756 -162.4610
2016.768981 92.781 -162.7211
2031.383320 92.805 -162.9825
2046.103561 92.828 -163.2446
2060.930471 92.850 -163.5073
2075.864823 92.871 -163.7701
2090.907395 92.891 -164.0326
2106.058972 92.910 -164.2943
2121.320344 92.927 -164.5547
2136.692305 92.943 -164.8133
2152.175658 92.959 -165.0696
2167.771210 92.973 -165.3230
2183.479774 92.986 -165.5730
2199.302169 92.998 -165.8190
2215.239219 93.009 -166.0603
2231.291755 93.019 -166.2962
2247.460615 93.029 -166.5257
2263.746641 93.037 -166.7479
2280.150683 93.044 -166.9615
2296.673595 93.051 -167.1654
2313.316238 93.058 -167.3584
2330.079481 93.065 -167.5392
2346.964198 93.072 -167.7072
2363.971268 93.080 -167.8618
2381.101578 93.089 -168.0034
2398.356022 93.101 -168.1331
2415.735498 93.114 -168.2532
2433.240913 93.131 -168.3672
2450.873180 93.151 -168.4798
2468.633217 93.175 -168.5966
2486.521951 93.202 -168.7240
2504.540314 93.233 -168.8683
2522.689246 93.266 -169.0354
2540.969692 93.301 -169.2301
2559.382606 93.338 -169.4555
2577.928947 93.374 -169.7123
2596.609683 93.409 -169.9997
2615.425787 93.442 -170.3151
2634.378241 93.473 -170.6548
2653.468031 93.500 -171.0144
2672.696154 93.524 -171.3895
2692.063613 93.544 -171.7756
2711.571415 93.561 -172.1690
2731.220579 93.575 -172.5664
2751.012130 93.585 -172.9651
2770.947098 93.592 -173.3631
2791.026522 93.597 -173.7589
2811.251451 93.600 -174.1512
2831.622938 93.600 -174.5394
2852.142045 93.598 -174.9229
2872.809842 93.594 -175.3017
2893.627406 93.588 -175.6755
2914.595823 93.581 -176.0443
2935.716186 93.573 -176.4079
2956.989596 93.563 -176.7666
2978.417161 93.552 -177.1205
3000.000000 93.540 -177.4696
3021.739237 93.527 -177.8143
3043.636005 93.512 -178.1548
3065.691446 93.497 -178.4912
3087.906710 93.480 -178.8237
3110.282955 93.462 -179.1524
3132.821347 93.444 -179.4773
3155.523062 93.424 -179.7983
3178.389283 93.403 179.8845
3201.421202 93.382 179.5707
3224.620020 93.359 179.2602
3247.986946 93.336 178.9527
3271.523198 93.312 178.6484
3295.230004 93.287 178.3476
3319.108599 93.262 178.0505
3343.160228 93.235 177.7574
3367.386145 93.208 177.4683
3391.787613 93.179 177.1835
3416.365904 93.150 176.9030
3441.122300 93.120 176.6269
3466.058091 93.090 176.3549
3491.174576 93.058 176.0866
3516.473066 93.026 175.8217
3541.954880 92.993 175.5599
3567.621345 92.959 175.3010
3593.473800 92.925 175.0449
3619.513592 92.889 174.7919
3645.742080 92.852 174.5421
3672.160630 92.815 174.2958
3698.770620 92.776 174.0533
3725.573436 92.736 173.8150
3752.570477 92.694 173.5818
3779.763150 92.651 173.3544
3807.152872 92.607 173.1342
3834.741071 92.561 172.9218
3862.529185 92.514 172.7185
3890.518664 92.466 172.5249
3918.710966 92.417 172.3419
3947.107561 92.367 172.1701
3975.709929 92.316 172.0101
4004.519563 92.264 171.8625
4033.537962 92.211 171.7276
4062.766641 92.158 171.6055
4092.207123 92.105 171.4962
4121.860942 92.052 171.3994
4151.729646 91.998 171.3146
4181.814790 91.945 171.2415
4212.117944 91.892 171.1793
4242.640687 91.839 171.1278
4273.384610 91.786 171.0865
4304.351317 91.734 171.0549
4335.542421 91.682 171.0326
4366.959549 91.631 171.0191
4398.604338 91.580 171.0140
4430.478438 91.530 171.0167
4462.583511 91.480 171.0268
4494.921231 91.432 171.0436
4527.493283 91.384 171.0664
4560.301365 91.336 171.0942
4593.347189 91.290 171.1263
4626.632476 91.244 171.1621
4660.158962 91.199 171.2009
4693.928395 91.154 171.2422
4727.942535 91.109 171.2853
4762.203156 91.066 171.3302
4796.712043 91.022 171.3766
4831.470996 90.979 171.4247
4866.481826 90.936 171.4744
4901.746360 90.893 171.5258
4937.266434 90.851 171.5790
4973.043902 90.808 171.6343
5009.080628 90.766 171.6918
5045.378492 90.724 171.7518
5081.939384 90.682 171.8141
5118.765212 90.639 171.8788
5155.857894 90.597 171.9460
5193.219366 90.554 172.0159
5230.851574 90.511 172.0891
5268.756481 90.467 172.1664
5306.936062 90.423 172.2485
5345.392309 90.379 172.3364
5384.127225 90.334 172.4310
5423.142830 90.288 172.5331
5462.441159 90.242 172.6437
5502.024259 90.195 172.7638
5541.894195 90.148 172.8943
5582.053045 90.100 173.0366
5622.502902 90.052 173.1915
5663.245876 90.003 173.3605
5704.284090 89.954 173.5444
5745.619684 89.905 173.7447
5787.254813 89.856 173.9624
5829.191647 89.806 174.1989
5871.432373 89.757 174.4551
5913.979192 89.708 174.7322
5956.834323 89.660 175.0310
6000.000000 89.613 175.3523
6043.478473 89.566 175.6972
6087.272010 89.521 176.0669
6131.382892 89.477 176.4626
6175.813420 89.436 176.8857
6220.565910 89.396 177.3372
6265.642695 89.360 177.8184
6311.046124 89.327 178.3299
6356.778566 89.298 178.8725
6402.842404 89.273 179.4461
6449.240040 89.254 -179.9498
6495.973891 89.242 -179.3163
6543.046396 89.236 -178.6555
6590.460007 89.239 -177.9696
6638.217197 89.250 -177.2618
6686.320456 89.272 -176.5362
6734.772290 89.304 -175.7972
6783.575226 89.347 -175.0503
6832.731809 89.404 -174.3019
6882.244600 89.473 -173.5591
6932.116181 89.556 -172.8300
6982.349153 89.654 -172.1232
7032.946133 89.767 -171.4489
7083.909760 89.896 -170.8190
7135.242690 90.042 -170.2469
7186.947600 90.205 -169.7482
7239.027185 90.384 -169.3397
7291.484160 90.580 -169.0396
7344.321260 90.791 -168.8676
7397.541239 91.017 -168.8441
7451.146872 91.255 -168.9903
7505.140954 91.503 -169.3272
7559.526299 91.758 -169.8751
7614.305743 92.016 -170.6524
7669.482141 92.273 -171.6743
7725.058371 92.522 -172.9521
7781.037328 92.759 -174.4914
7837.421932 92.975 -176.2909
7894.215122 93.165 -178.3408
7951.419859 93.322 179.3776
8009.039125 93.439 176.8929
8067.075924 93.511 174.2431
8125.533282 93.532 171.4745
8184.414245 93.500 168.6397
8243.721885 93.413 165.7953
8303.459292 93.272 162.9981
8363.629581 93.078 160.3027
8424.235888 92.836 157.7585
8485.281374 92.551 155.4074
8546.769221 92.228 153.2827
8608.702634 91.873 151.4079
8671.084842 91.495 149.7975
8733.919097 91.098 148.4571
8797.208675 90.690 147.3849
8860.956876 90.276 146.5731
8925.167022 89.861 146.0091
8989.842461 89.449 145.6772
9054.986566 89.043 145.5593
9120.602731 88.646 145.6367
9186.694378 88.260 145.8903
9253.264952 87.887 146.3016
9320.317925 87.526 146.8535
9387.856790 87.179 147.5300
9455.885071 86.846 148.3167
9524.406312 86.526 149.2012
9593.424086 86.219 150.1730
9662.941992 85.925 151.2236
9732.963653 85.644 152.3457
9803.492719 85.374 153.5334
9874.532869 85.116 154.7815
9946.087805 84.869 156.0852
10018.161257 84.635 157.4396
10090.756983 84.412 158.8400
10163.878768 84.201 160.2824
10237.530423 84.001 161.7639
10311.715789 83.814 163.2820
10386.438732 83.638 164.8348
10461.703149 83.473 166.4210
10537.512962 83.320 168.0394
10613.872125 83.177 169.6888
10690.784618 83.046 171.3680
10768.254450 82.926 173.0758
10846.285661 82.818 174.8105
10924.882318 82.722 176.5707
11004.048518 82.638 178.3544
11083.788390 82.566 -179.8408
11164.106090 82.506 -178.0173
11245.005805 82.460 -176.1783
11326.491752 82.427 -174.3269
11408.568180 82.407 -172.4667
11491.239368 82.402 -170.6013
11574.509626 82.412 -168.7342
11658.383294 82.437 -166.8691
11742.864745 82.478 -165.0099
11827.958384 82.535 -163.1603
11913.668646 82.609 -161.3241
12000.000000 82.701 -159.5058
12086.956947 82.812 -157.7105
12174.544019 82.943 -155.9443
12262.765784 83.094 -154.2147
12351.626840 83.268 -152.5308
12441.131819 83.464 -150.9037
12531.285389 83.685 -149.3471
12622.092249 83.931 -147.8776
12713.557132 84.203 -146.5149
12805.684808 84.501 -145.2819
12898.480079 84.828 -144.2059
12991.947783 85.182 -143.3189
13086.092792 85.564 -142.6579
13180.920015 85.970 -142.2646
13276.434395 86.399 -142.1835
13372.640911 86.844 -142.4597
13469.544580 87.298 -143.1364
13567.150452 87.753 -144.2526
13665.463617 88.197 -145.8378
13764.489200 88.616 -147.9076
13864.232362 88.998 -150.4579
13964.698305 89.326 -153.4620
14065.892266 89.587 -156.8687
14167.819519 89.767 -160.6024
14270.485380 89.855 -164.5663
14373.895200 89.846 -168.6467
14478.054370 89.737 -172.7197
14582.968320 89.528 -176.6596
14688.642520 89.226 179.6521
14795.082478 88.841 176.3184
14902.293745 88.387 173.4195
15010.281908 87.879 171.0094
15119.052599 87.334 169.1154
15228.611486 86.768 167.7401
15338.964283 86.195 166.8660
15450.116741 85.627 166.4599
15562.074656 85.075 166.4782
15674.843864 84.547 166.8714
15788.430244 84.048 167.5891
15902.839718 83.584 168.5830
16018.078250 83.155 169.8091
16134.151848 82.765 171.2279
16251.066563 82.413 172.8038
16368.828491 82.100 174.5051
16487.443769 81.826 176.3027
16606.918584 81.592 178.1702
16727.259161 81.398 -179.9185
16848.471777 81.245 -177.9901
16970.562748 81.134 -176.0736
17093.538442 81.068 -174.2019
17217.405268 81.048 -172.4141
17342.169684 81.076 -170.7565
17467.838194 81.151 -169.2843
17594.417350 81.273 -168.0599
17721.913751 81.439 -167.1520
17850.334044 81.643 -166.6315
17979.684923 81.876 -166.5668
18109.973131 82.126 -167.0184
18241.205462 82.377 -168.0325
18373.388756 82.612 -169.6352
18506.529905 82.812 -171.8273
18640.635849 82.954 -174.5782
18775.713581 83.019 -177.8236
18911.770141 82.987 178.5347
19048.812624 82.843 174.6248
19186.848172 82.578 170.5965
19325.883983 82.193 166.6108
19465.927305 81.702 162.8325
19606.985439 81.142 159.4285
19749.065738 80.577 156.5781
19892.175609 80.102 154.4851
20036.322514 79.826 153.3632
