* Measurement data measured by REW V5.31.3
* Source: Headset (CX31993 HIFI AUDIO), MICROPHONE (Master Volume), R, volume: 0.400
* Format: 256k Log Swept Sine, 1 sweep at -11.9 dBFS with no timing reference
* Dated: 05 26, 25 6:00:40 PM
* REW Settings:
*  C-weighting compensation: Off
*  Target level: 75.0 dB
* Note: ; 
* Measurement: Final A5000 nofilter R
* Smoothing: 1/12 octave
* Frequency Step: 96 ppo
* Start Frequency: 0.36621094 Hz
*
* Freq(Hz) SPL(dB) Phase(degrees)
0.366211 37.861 161.4379
0.368865 37.861 161.3490
0.371538 37.862 161.2164
0.374230 37.864 161.0512
0.376942 37.865 160.8628
0.379673 37.867 160.6583
0.382424 37.868 160.4421
0.385196 37.870 160.2171
0.387987 37.872 159.9849
0.390798 37.873 159.7462
0.393630 37.875 159.5016
0.396483 37.877 159.2512
0.399356 37.878 158.9950
0.402250 37.880 158.7329
0.405165 37.882 158.4649
0.408101 37.884 158.1908
0.411058 37.886 157.9105
0.414037 37.887 157.6239
0.417037 37.889 157.3309
0.420059 37.891 157.0313
0.423103 37.893 156.7249
0.426169 37.895 156.4116
0.429257 37.897 156.0913
0.432368 37.898 155.7638
0.435501 37.900 155.4289
0.438656 37.902 155.0865
0.441835 37.904 154.7363
0.445037 37.906 154.3783
0.448262 37.908 154.0122
0.451510 37.910 153.6379
0.454782 37.912 153.2551
0.458077 37.914 152.8638
0.461397 37.916 152.4635
0.464740 37.918 152.0543
0.468108 37.920 151.6358
0.471500 37.922 151.2079
0.474917 37.924 150.7703
0.478358 37.926 150.3228
0.481825 37.928 149.8652
0.485316 37.931 149.3973
0.488833 37.933 148.9188
0.492375 37.935 148.4294
0.495943 37.937 147.9290
0.499537 37.939 147.4173
0.503157 37.941 146.8940
0.506803 37.944 146.3589
0.510475 37.946 145.8116
0.514175 37.948 145.2520
0.517900 37.950 144.6798
0.521653 37.953 144.0946
0.525434 37.955 143.4963
0.529241 37.957 142.8844
0.533076 37.960 142.2588
0.536939 37.962 141.6192
0.540830 37.964 140.9652
0.544749 37.967 140.2966
0.548696 37.969 139.6132
0.552673 37.971 138.9145
0.556677 37.974 138.2004
0.560711 37.976 137.4705
0.564774 37.979 136.7246
0.568867 37.981 135.9624
0.572989 37.984 135.1836
0.577141 37.986 134.3881
0.581324 37.989 133.5755
0.585536 37.991 132.7457
0.589779 37.994 131.8983
0.594053 37.997 131.0333
0.598358 37.999 130.1504
0.602694 38.002 129.2495
0.607061 38.004 128.3304
0.611460 38.007 127.3930
0.615891 38.010 126.4373
0.620354 38.013 125.4631
0.624849 38.015 124.4706
0.629377 38.018 123.4596
0.633938 38.021 122.4303
0.638532 38.024 121.3827
0.643159 38.026 120.3170
0.647819 38.029 119.2334
0.652514 38.032 118.1321
0.657242 38.035 117.0134
0.662005 38.038 115.8776
0.666802 38.041 114.7252
0.671634 38.044 113.5567
0.676501 38.047 112.3725
0.681403 38.050 111.1732
0.686341 38.053 109.9594
0.691314 38.056 108.7320
0.696324 38.060 107.4917
0.701370 38.065 106.2394
0.706452 38.071 104.9762
0.711571 38.079 103.7033
0.716728 38.090 102.4222
0.721921 38.108 101.1349
0.727153 38.134 99.8438
0.732422 38.172 98.5518
0.737729 38.222 97.2624
0.743075 38.285 95.9789
0.748460 38.359 94.7043
0.753883 38.442 93.4413
0.759346 38.532 92.1919
0.764849 38.629 90.9579
0.770391 38.732 89.7404
0.775974 38.839 88.5406
0.781597 38.952 87.3593
0.787261 39.070 86.1970
0.792966 39.192 85.0544
0.798712 39.319 83.9318
0.804500 39.451 82.8295
0.810329 39.587 81.7475
0.816201 39.728 80.6859
0.822116 39.873 79.6447
0.828073 40.022 78.6238
0.834074 40.176 77.6228
0.840118 40.334 76.6416
0.846206 40.496 75.6798
0.852338 40.662 74.7370
0.858514 40.832 73.8128
0.864735 41.005 72.9066
0.871001 41.182 72.0181
0.877313 41.363 71.1466
0.883670 41.547 70.2915
0.890074 41.735 69.4524
0.896524 41.926 68.6286
0.903020 42.119 67.8195
0.909564 42.316 67.0246
0.916155 42.515 66.2431
0.922794 42.717 65.4746
0.929481 42.921 64.7184
0.936216 43.127 63.9738
0.943000 43.335 63.2404
0.949834 43.545 62.5176
0.956717 43.756 61.8047
0.963649 43.969 61.1011
0.970632 44.182 60.4065
0.977666 44.397 59.7201
0.984750 44.612 59.0415
0.991886 44.827 58.3702
0.999074 45.042 57.7057
1.006314 45.257 57.0475
1.013606 45.472 56.3951
1.020951 45.685 55.7481
1.028349 45.897 55.1060
1.035801 46.108 54.4685
1.043307 46.317 53.8353
1.050867 46.524 53.2059
1.058482 46.728 52.5803
1.066152 46.929 51.9583
1.073878 47.128 51.3401
1.081660 47.324 50.7261
1.089498 47.517 50.1173
1.097393 47.707 49.5148
1.105345 47.896 48.9201
1.113355 48.084 48.3349
1.121423 48.271 47.7603
1.129549 48.457 47.1970
1.137734 48.644 46.6453
1.145979 48.830 46.1050
1.154283 49.017 45.5759
1.162647 49.203 45.0575
1.171072 49.390 44.5493
1.179558 49.577 44.0508
1.188106 49.764 43.5613
1.196715 49.952 43.0802
1.205387 50.139 42.6071
1.214122 50.326 42.1413
1.222920 50.514 41.6822
1.231782 50.701 41.2293
1.240708 50.889 40.7821
1.249699 51.077 40.3400
1.258754 51.265 39.9025
1.267876 51.453 39.4691
1.277063 51.640 39.0393
1.286318 51.828 38.6127
1.295639 52.016 38.1887
1.305027 52.204 37.7669
1.314484 52.392 37.3469
1.324009 52.579 36.9282
1.333604 52.767 36.5104
1.343268 52.955 36.0931
1.353002 53.142 35.6759
1.362806 53.329 35.2584
1.372681 53.517 34.8402
1.382628 53.704 34.4210
1.392647 53.891 34.0005
1.402739 54.077 33.5784
1.412904 54.264 33.1546
1.423142 54.450 32.7289
1.433455 54.636 32.3016
1.443843 54.822 31.8730
1.454305 55.007 31.4439
1.464844 55.191 31.0155
1.475459 55.375 30.5890
1.486150 55.559 30.1658
1.496920 55.741 29.7468
1.507767 55.923 29.3325
1.518693 56.103 28.9229
1.529698 56.283 28.5178
1.540783 56.462 28.1169
1.551948 56.640 27.7197
1.563194 56.817 27.3257
1.574521 56.994 26.9343
1.585931 57.169 26.5449
1.597423 57.344 26.1570
1.608999 57.518 25.7699
1.620658 57.692 25.3832
1.632402 57.865 24.9963
1.644232 58.037 24.6086
1.656146 58.209 24.2196
1.668147 58.381 23.8289
1.680235 58.552 23.4359
1.692411 58.722 23.0401
1.704675 58.893 22.6410
1.717028 59.063 22.2383
1.729470 59.233 21.8314
1.742003 59.403 21.4199
1.754626 59.573 21.0035
1.767341 59.742 20.5818
1.780147 59.912 20.1548
1.793047 60.082 19.7223
1.806040 60.252 19.2846
1.819128 60.422 18.8422
1.832310 60.591 18.3960
1.845587 60.761 17.9470
1.858961 60.929 17.4964
1.872432 61.097 17.0450
1.886001 61.265 16.5933
1.899667 61.431 16.1418
1.913433 61.597 15.6905
1.927299 61.762 15.2394
1.941265 61.927 14.7884
1.955332 62.090 14.3373
1.969501 62.253 13.8859
1.983773 62.415 13.4339
1.998148 62.576 12.9811
2.012627 62.737 12.5272
2.027212 62.898 12.0718
2.041902 63.057 11.6147
2.056698 63.217 11.1556
2.071602 63.376 10.6940
2.086614 63.534 10.2296
2.101734 63.692 9.7621
2.116964 63.850 9.2912
2.132304 64.008 8.8166
2.147756 64.165 8.3380
2.163320 64.323 7.8552
2.178996 64.479 7.3685
2.194786 64.636 6.8778
2.210690 64.792 6.3837
2.226710 64.947 5.8866
2.242845 65.102 5.3870
2.259098 65.256 4.8854
2.275468 65.409 4.3820
2.291957 65.561 3.8772
2.308566 65.712 3.3709
2.325295 65.863 2.8633
2.342145 66.013 2.3545
2.359117 66.162 1.8444
2.376212 66.310 1.3330
2.393431 66.458 0.8201
2.410775 66.605 0.3057
2.428244 66.751 -0.2104
2.445840 66.897 -0.7284
2.463564 67.042 -1.2485
2.481416 67.187 -1.7709
2.499397 67.331 -2.2959
2.517509 67.475 -2.8237
2.535752 67.618 -3.3547
2.554127 67.761 -3.8891
2.572635 67.903 -4.4270
2.591277 68.044 -4.9685
2.610055 68.185 -5.5136
2.628968 68.324 -6.0619
2.648019 68.463 -6.6132
2.667208 68.600 -7.1671
2.686535 68.737 -7.7233
2.706003 68.872 -8.2815
2.725612 69.007 -8.8412
2.745363 69.141 -9.4022
2.765257 69.274 -9.9643
2.785295 69.407 -10.5273
2.805478 69.538 -11.0910
2.825808 69.669 -11.6555
2.846285 69.799 -12.2206
2.866910 69.928 -12.7866
2.887685 70.057 -13.3538
2.908611 70.185 -13.9226
2.929688 70.312 -14.4934
2.950917 70.438 -15.0669
2.972301 70.563 -15.6435
2.993839 70.687 -16.2232
3.015534 70.810 -16.8060
3.037386 70.932 -17.3915
3.059396 71.053 -17.9791
3.081565 71.173 -18.5682
3.103896 71.292 -19.1583
3.126388 71.409 -19.7487
3.149043 71.526 -20.3389
3.171862 71.642 -20.9284
3.194847 71.757 -21.5168
3.217998 71.871 -22.1039
3.241317 71.985 -22.6897
3.264805 72.097 -23.2745
3.288463 72.208 -23.8589
3.312293 72.319 -24.4435
3.336295 72.428 -25.0292
3.360471 72.536 -25.6164
3.384822 72.643 -26.2051
3.409350 72.749 -26.7950
3.434056 72.854 -27.3857
3.458940 72.958 -27.9765
3.484005 73.060 -28.5664
3.509252 73.162 -29.1548
3.534681 73.262 -29.7409
3.560295 73.362 -30.3240
3.586094 73.461 -30.9036
3.612081 73.559 -31.4796
3.638255 73.656 -32.0521
3.664620 73.752 -32.6217
3.691175 73.847 -33.1889
3.717923 73.941 -33.7546
3.744864 74.034 -34.3191
3.772001 74.126 -34.8824
3.799335 74.216 -35.4442
3.826866 74.306 -36.0039
3.854597 74.395 -36.5609
3.882529 74.483 -37.1144
3.910664 74.570 -37.6635
3.939002 74.657 -38.2077
3.967546 74.743 -38.7464
3.996296 74.829 -39.2795
4.025255 74.914 -39.8069
4.054423 74.998 -40.3292
4.083804 75.082 -40.8467
4.113396 75.164 -41.3600
4.143204 75.246 -41.8692
4.173227 75.328 -42.3744
4.203468 75.409 -42.8754
4.233928 75.489 -43.3721
4.264609 75.569 -43.8639
4.295512 75.649 -44.3506
4.326639 75.729 -44.8319
4.357992 75.809 -45.3073
4.389572 75.889 -45.7768
4.421380 75.969 -46.2403
4.453419 76.049 -46.6981
4.485691 76.129 -47.1506
4.518196 76.208 -47.5981
4.550936 76.288 -48.0412
4.583914 76.368 -48.4804
4.617131 76.448 -48.9161
4.650589 76.528 -49.3487
4.684289 76.609 -49.7784
4.718233 76.691 -50.2053
4.752424 76.773 -50.6292
4.786862 76.856 -51.0501
4.821549 76.939 -51.4680
4.856488 77.023 -51.8831
4.891680 77.108 -52.2960
4.927127 77.193 -52.7077
4.962831 77.279 -53.1192
4.998794 77.365 -53.5315
5.035017 77.452 -53.9455
5.071503 77.540 -54.3619
5.108253 77.629 -54.7812
5.145270 77.718 -55.2033
5.182555 77.808 -55.6282
5.220110 77.899 -56.0559
5.257937 77.991 -56.4868
5.296038 78.083 -56.9217
5.334415 78.175 -57.3613
5.373071 78.268 -57.8069
5.412006 78.362 -58.2593
5.451224 78.456 -58.7193
5.490725 78.549 -59.1873
5.530514 78.644 -59.6634
5.570590 78.738 -60.1476
5.610957 78.832 -60.6396
5.651616 78.927 -61.1395
5.692570 79.021 -61.6473
5.733821 79.115 -62.1633
5.775370 79.208 -62.6879
5.817221 79.301 -63.2214
5.859375 79.392 -63.7642
5.901834 79.484 -64.3164
5.944602 79.574 -64.8778
5.987679 79.663 -65.4479
6.031068 79.752 -66.0259
6.074771 79.839 -66.6111
6.118792 79.924 -67.2027
6.163131 80.009 -67.8001
6.207792 80.092 -68.4034
6.252776 80.173 -69.0123
6.298086 80.252 -69.6269
6.343725 80.330 -70.2466
6.389694 80.406 -70.8704
6.435996 80.480 -71.4968
6.482634 80.552 -72.1244
6.529610 80.622 -72.7519
6.576926 80.691 -73.3785
6.624585 80.757 -74.0039
6.672590 80.822 -74.6279
6.720942 80.884 -75.2500
6.769645 80.945 -75.8690
6.818700 81.004 -76.4836
6.868111 81.061 -77.0922
6.917881 81.116 -77.6936
6.968010 81.170 -78.2870
7.018504 81.223 -78.8720
7.069362 81.274 -79.4484
7.120590 81.324 -80.0159
7.172189 81.373 -80.5739
7.224161 81.421 -81.1217
7.276511 81.469 -81.6585
7.329239 81.516 -82.1838
7.382350 81.563 -82.6975
7.435845 81.610 -83.1998
7.489729 81.657 -83.6911
7.544002 81.703 -84.1721
7.598669 81.751 -84.6434
7.653732 81.799 -85.1052
7.709194 81.848 -85.5582
7.765058 81.898 -86.0027
7.821327 81.948 -86.4397
7.878004 82.000 -86.8704
7.935091 82.053 -87.2964
7.992592 82.108 -87.7191
8.050510 82.164 -88.1398
8.108847 82.221 -88.5595
8.167607 82.279 -88.9789
8.226793 82.339 -89.3994
8.286408 82.399 -89.8221
8.346454 82.461 -90.2485
8.406936 82.524 -90.6798
8.467856 82.587 -91.1168
8.529218 82.651 -91.5599
8.591024 82.716 -92.0096
8.653278 82.781 -92.4662
8.715983 82.846 -92.9299
8.779143 82.911 -93.4010
8.842760 82.975 -93.8795
8.906839 83.039 -94.3652
8.971381 83.103 -94.8574
9.036392 83.165 -95.3554
9.101873 83.227 -95.8585
9.167829 83.288 -96.3659
9.234263 83.348 -96.8770
9.301178 83.406 -97.3911
9.368578 83.464 -97.9071
9.436467 83.520 -98.4239
9.504847 83.575 -98.9406
9.573723 83.630 -99.4565
9.643099 83.683 -99.9710
9.712976 83.735 -100.4837
9.783361 83.787 -100.9940
9.854255 83.838 -101.5015
9.925663 83.888 -102.0061
9.997588 83.938 -102.5078
10.070035 83.988 -103.0068
10.143007 84.037 -103.5036
10.216507 84.086 -103.9985
10.290540 84.136 -104.4922
10.365109 84.185 -104.9852
10.440219 84.234 -105.4780
10.515873 84.283 -105.9716
10.592076 84.331 -106.4665
10.668830 84.380 -106.9635
10.746141 84.428 -107.4628
10.824012 84.475 -107.9648
10.902447 84.522 -108.4696
10.981451 84.569 -108.9772
11.061027 84.614 -109.4874
11.141180 84.658 -109.9998
11.221913 84.701 -110.5135
11.303232 84.743 -111.0277
11.385140 84.783 -111.5413
11.467641 84.822 -112.0534
11.550741 84.859 -112.5626
11.634442 84.895 -113.0676
11.718750 84.930 -113.5672
11.803669 84.963 -114.0602
11.889203 84.996 -114.5457
11.975357 85.027 -115.0229
12.062136 85.059 -115.4913
12.149543 85.089 -115.9507
12.237583 85.120 -116.4012
12.326262 85.151 -116.8433
12.415583 85.183 -117.2780
12.505552 85.215 -117.7063
12.596172 85.249 -118.1297
12.687449 85.283 -118.5499
12.779387 85.318 -118.9689
12.871992 85.355 -119.3886
12.965268 85.392 -119.8108
13.059220 85.431 -120.2373
13.153852 85.470 -120.6697
13.249170 85.510 -121.1095
13.345179 85.550 -121.5575
13.441884 85.589 -122.0142
13.539289 85.629 -122.4799
13.637401 85.668 -122.9542
13.736223 85.705 -123.4367
13.835761 85.742 -123.9262
13.936021 85.777 -124.4216
14.037007 85.811 -124.9215
14.138725 85.843 -125.4245
14.241180 85.874 -125.9289
14.344377 85.903 -126.4335
14.448323 85.931 -126.9369
14.553021 85.958 -127.4382
14.658478 85.983 -127.9366
14.764700 86.008 -128.4316
14.871691 86.031 -128.9228
14.979457 86.054 -129.4104
15.088005 86.076 -129.8944
15.197339 86.098 -130.3749
15.307465 86.119 -130.8523
15.418389 86.140 -131.3266
15.530117 86.160 -131.7979
15.642655 86.179 -132.2661
15.756008 86.198 -132.7307
15.870182 86.217 -133.1912
15.985184 86.235 -133.6472
16.101019 86.252 -134.0977
16.217694 86.269 -134.5423
16.335214 86.286 -134.9804
16.453586 86.303 -135.4118
16.572815 86.320 -135.8366
16.692909 86.337 -136.2554
16.813872 86.356 -136.6693
16.935713 86.375 -137.0797
17.058436 86.395 -137.4882
17.182048 86.417 -137.8971
17.306556 86.439 -138.3083
17.431967 86.462 -138.7237
17.558286 86.486 -139.1448
17.685521 86.509 -139.5728
17.813677 86.533 -140.0081
17.942762 86.556 -140.4502
18.072783 86.578 -140.8984
18.203746 86.599 -141.3509
18.335658 86.618 -141.8059
18.468526 86.636 -142.2610
18.602356 86.653 -142.7141
18.737156 86.668 -143.1632
18.872934 86.682 -143.6072
19.009695 86.696 -144.0453
19.147447 86.709 -144.4776
19.286197 86.722 -144.9052
19.425953 86.736 -145.3293
19.566721 86.749 -145.7519
19.708510 86.762 -146.1749
19.851326 86.776 -146.5996
19.995177 86.789 -147.0269
20.140070 86.800 -147.4567
20.286013 86.811 -147.8878
20.433014 86.820 -148.3178
20.581080 86.827 -148.7438
20.730219 86.832 -149.1621
20.880439 86.836 -149.5694
21.031747 86.839 -149.9626
21.184152 86.841 -150.3402
21.337661 86.845 -150.7020
21.492282 86.850 -151.0501
21.648024 86.857 -151.3883
21.804895 86.867 -151.7222
21.962902 86.880 -152.0587
22.122054 86.896 -152.4050
22.282360 86.914 -152.7676
22.443827 86.934 -153.1517
22.606464 86.954 -153.5602
22.770280 86.973 -153.9933
22.935283 86.989 -154.4485
23.101481 87.002 -154.9207
23.268884 87.011 -155.4028
23.437500 87.015 -155.8867
23.607338 87.015 -156.3643
23.778406 87.012 -156.8288
23.950714 87.006 -157.2749
24.124271 86.999 -157.7002
24.299086 86.992 -158.1051
24.475167 86.986 -158.4925
24.652524 86.981 -158.8672
24.831166 86.979 -159.2352
25.011103 86.978 -159.6019
25.192344 86.979 -159.9721
25.374898 86.980 -160.3482
25.558775 86.981 -160.7308
25.743984 86.982 -161.1183
25.930536 86.982 -161.5079
26.118439 86.980 -161.8959
26.307704 86.977 -162.2796
26.498341 86.974 -162.6572
26.690359 86.972 -163.0287
26.883768 86.969 -163.3956
27.078579 86.967 -163.7606
27.274801 86.966 -164.1266
27.472446 86.965 -164.4959
27.671522 86.963 -164.8691
27.872042 86.961 -165.2453
28.074014 86.957 -165.6216
28.277450 86.951 -165.9947
28.482360 86.944 -166.3610
28.688755 86.937 -166.7186
28.896645 86.929 -167.0675
29.106042 86.922 -167.4099
29.316957 86.916 -167.7500
29.529400 86.911 -168.0924
29.743382 86.906 -168.4407
29.958915 86.900 -168.7964
30.176009 86.893 -169.1581
30.394677 86.883 -169.5215
30.614929 86.872 -169.8808
30.836778 86.858 -170.2307
31.060234 86.844 -170.5682
31.285309 86.830 -170.8941
31.512015 86.818 -171.2129
31.740364 86.808 -171.5321
31.970368 86.798 -171.8595
32.202039 86.790 -172.2004
32.435388 86.779 -172.5555
32.670428 86.767 -172.9196
32.907171 86.750 -173.2831
33.145630 86.731 -173.6345
33.385817 86.710 -173.9645
33.627745 86.688 -174.2691
33.871425 86.670 -174.5518
34.116871 86.655 -174.8232
34.364096 86.645 -175.0978
34.613113 86.638 -175.3897
34.863934 86.633 -175.7074
35.116572 86.627 -176.0513
35.371041 86.618 -176.4133
35.627354 86.604 -176.7801
35.885525 86.587 -177.1373
36.145566 86.568 -177.4746
36.407492 86.548 -177.7890
36.671316 86.530 -178.0854
36.937051 86.515 -178.3739
37.204712 86.502 -178.6653
37.474313 86.490 -178.9669
37.745867 86.477 -179.2797
38.019389 86.463 -179.5986
38.294893 86.446 -179.9154
38.572394 86.427 179.7778
38.851905 86.407 179.4846
39.133442 86.388 179.2040
39.417019 86.370 178.9306
39.702651 86.353 178.6580
39.990353 86.337 178.3814
40.280140 86.320 178.0996
40.572026 86.303 177.8145
40.866028 86.284 177.5297
41.162160 86.264 177.2483
41.460438 86.244 176.9715
41.760877 86.225 176.6986
42.063494 86.205 176.4277
42.368303 86.186 176.1562
42.675322 86.167 175.8819
42.984565 86.149 175.6020
43.296048 86.131 175.3140
43.609789 86.112 175.0159
43.925804 86.092 174.7076
44.244108 86.069 174.3929
44.564719 86.043 174.0799
44.887654 86.013 173.7800
45.212928 85.980 173.5040
45.540560 85.947 173.2589
45.870565 85.915 173.0446
46.202962 85.886 172.8539
46.537768 85.860 172.6750
46.875000 85.839 172.4958
47.214676 85.820 172.3073
47.556813 85.802 172.1051
47.901429 85.784 171.8892
48.248542 85.766 171.6618
48.598171 85.746 171.4259
48.950334 85.724 171.1849
49.305048 85.700 170.9428
49.662333 85.674 170.7039
50.022206 85.647 170.4720
50.384688 85.618 170.2494
50.749796 85.589 170.0360
51.117550 85.560 169.8291
51.487969 85.532 169.6252
51.861072 85.505 169.4208
52.236879 85.478 169.2132
52.615409 85.451 169.0010
52.996681 85.425 168.7834
53.380717 85.398 168.5607
53.767536 85.371 168.3340
54.157158 85.342 168.1060
54.549603 85.314 167.8799
54.944892 85.284 167.6585
55.343045 85.255 167.4434
55.744084 85.225 167.2339
56.148028 85.197 167.0281
56.554900 85.169 166.8240
56.964720 85.141 166.6205
57.377510 85.113 166.4180
57.793291 85.084 166.2181
58.212085 85.056 166.0228
58.633914 85.027 165.8337
59.058799 84.998 165.6509
59.486764 84.969 165.4733
59.917829 84.941 165.2986
60.352019 84.914 165.1252
60.789354 84.886 164.9520
61.229859 84.859 164.7794
61.673556 84.832 164.6082
62.120468 84.804 164.4390
62.570618 84.777 164.2722
63.024031 84.750 164.1080
63.480729 84.723 163.9463
63.940736 84.696 163.7856
64.404077 84.670 163.6245
64.870776 84.643 163.4622
65.340856 84.615 163.3012
65.814343 84.586 163.1461
66.291261 84.557 162.9998
66.771635 84.528 162.8602
67.255489 84.500 162.7206
67.742850 84.472 162.5749
68.233743 84.442 162.4234
68.728193 84.410 162.2741
69.226226 84.377 162.1376
69.727867 84.343 162.0196
70.233144 84.311 161.9149
70.742083 84.282 161.8094
71.254709 84.255 161.6875
71.771050 84.228 161.5432
72.291132 84.198 161.3844
72.814984 84.165 161.2276
73.342631 84.129 161.0845
73.874102 84.094 160.9545
74.409424 84.059 160.8293
74.948626 84.024 160.7035
75.491734 83.988 160.5798
76.038779 83.952 160.4624
76.589787 83.916 160.3490
77.144788 83.881 160.2314
77.703811 83.846 160.1060
78.266885 83.809 159.9793
78.834039 83.771 159.8615
79.405303 83.734 159.7554
79.980706 83.699 159.6533
80.560280 83.666 159.5454
81.144053 83.633 159.4309
81.732056 83.599 159.3190
82.324320 83.565 159.2193
82.920876 83.533 159.1321
83.521755 83.502 159.0479
84.126988 83.473 158.9567
84.736607 83.442 158.8583
85.350643 83.410 158.7629
85.969129 83.376 158.6802
86.592097 83.344 158.6086
87.219579 83.313 158.5343
87.851608 83.283 158.4440
88.488217 83.251 158.3378
89.129439 83.216 158.2310
89.775308 83.180 158.1409
90.425856 83.146 158.0709
91.081119 83.114 158.0062
91.741131 83.086 157.9259
92.405925 83.056 157.8240
93.075536 83.023 157.7173
93.750000 82.987 157.6332
94.429351 82.950 157.5847
95.113625 82.916 157.5580
95.802858 82.886 157.5233
96.497085 82.856 157.4606
97.196342 82.822 157.3770
97.900667 82.783 157.3022
98.610096 82.742 157.2652
99.324665 82.703 157.2693
100.044413 82.672 157.2850
100.769376 82.647 157.2680
101.499592 82.623 157.1927
102.235100 82.593 157.0759
102.975938 82.555 156.9680
103.722144 82.513 156.9164
104.473757 82.474 156.9299
105.230817 82.443 156.9709
105.993363 82.422 156.9815
106.761435 82.402 156.9239
107.535072 82.377 156.8036
108.314315 82.341 156.6650
109.099206 82.295 156.5660
109.889783 82.245 156.5479
110.686090 82.199 156.6122
111.488167 82.165 156.7176
112.296056 82.146 156.7967
113.109800 82.136 156.7902
113.929440 82.126 156.6777
114.755020 82.106 156.4902
115.586582 82.071 156.2982
116.424170 82.022 156.1816
117.267827 81.967 156.1950
118.117598 81.917 156.3405
118.973527 81.881 156.5650
119.835658 81.862 156.7849
120.704037 81.854 156.9258
121.578708 81.851 156.9490
122.459718 81.844 156.8537
123.347111 81.827 156.6674
124.240935 81.797 156.4360
125.141236 81.754 156.2104
126.048061 81.702 156.0318
126.961458 81.646 155.9214
127.881473 81.589 155.8787
128.808154 81.534 155.8873
129.741551 81.482 155.9270
130.681712 81.431 155.9813
131.628686 81.381 156.0411
132.582521 81.332 156.1056
133.543269 81.282 156.1826
134.510979 81.234 156.2868
135.485701 81.190 156.4330
136.467486 81.153 156.6276
137.456386 81.126 156.8618
138.452451 81.109 157.1172
139.455735 81.101 157.3740
140.466288 81.100 157.6136
141.484165 81.102 157.8204
142.509418 81.106 157.9841
143.542100 81.107 158.1027
144.582265 81.105 158.1832
145.629968 81.097 158.2406
146.685262 81.084 158.2936
147.748204 81.064 158.3581
148.818849 81.038 158.4418
149.897251 81.005 158.5433
150.983469 80.965 158.6537
152.077557 80.917 158.7603
153.179574 80.861 158.8480
154.289576 80.797 158.9012
155.407622 80.727 158.9056
156.533770 80.651 158.8475
157.668078 80.573 158.7129
158.810606 80.497 158.4874
159.961413 80.428 158.1633
161.120559 80.374 157.7510
162.288105 80.341 157.2885
163.464112 80.333 156.8415
164.648640 80.349 156.4911
165.841752 80.380 156.3095
167.043510 80.414 156.3307
168.253976 80.438 156.5339
169.473213 80.441 156.8486
170.701286 80.419 157.1790
171.938258 80.376 157.4368
173.184194 80.325 157.5715
174.439158 80.277 157.5890
175.703216 80.242 157.5457
176.976434 80.219 157.5182
178.258878 80.203 157.5616
179.550615 80.184 157.6828
180.851713 80.156 157.8436
182.162239 80.118 157.9879
183.482262 80.077 158.0756
184.811850 80.040 158.1065
186.151073 80.011 158.1186
187.500000 79.988 158.1627
188.858702 79.965 158.2684
190.227250 79.937 158.4263
191.605715 79.903 158.5961
192.994169 79.865 158.7352
194.392685 79.830 158.8239
195.801334 79.803 158.8735
197.220191 79.786 158.9101
198.649330 79.777 158.9532
200.088825 79.769 159.0031
201.538751 79.758 159.0494
202.999184 79.741 159.0849
204.470200 79.717 159.1088
205.951875 79.689 159.1242
207.444287 79.655 159.1368
208.947514 79.618 159.1511
210.461634 79.581 159.1672
211.986726 79.545 159.1898
213.522869 79.515 159.2365
215.070144 79.491 159.3317
216.628631 79.476 159.4870
218.198411 79.468 159.6920
219.779567 79.467 159.9217
221.372180 79.469 160.1492
222.976334 79.472 160.3552
224.592112 79.473 160.5286
226.219600 79.471 160.6675
227.858880 79.463 160.7784
229.510039 79.449 160.8705
231.173164 79.431 160.9516
232.848340 79.407 161.0280
234.535655 79.378 161.1026
236.235197 79.344 161.1733
237.947054 79.305 161.2341
239.671317 79.264 161.2754
241.408074 79.225 161.2916
243.157416 79.187 161.2917
244.919435 79.154 161.2916
246.694223 79.123 161.3032
248.481871 79.095 161.3304
250.282473 79.069 161.3713
252.096123 79.044 161.4198
253.922915 79.018 161.4721
255.762945 78.992 161.5301
257.616309 78.964 161.5980
259.483103 78.936 161.6758
261.363424 78.907 161.7595
263.257372 78.880 161.8447
265.165043 78.854 161.9297
267.086538 78.831 162.0144
269.021957 78.810 162.0983
270.971401 78.791 162.1805
272.934972 78.772 162.2613
274.912771 78.753 162.3418
276.904902 78.733 162.4232
278.911469 78.713 162.5060
280.932577 78.693 162.5912
282.968330 78.673 162.6818
285.018835 78.652 162.7814
287.084199 78.630 162.8938
289.164530 78.606 163.0214
291.259935 78.580 163.1606
293.370525 78.554 163.3016
295.496408 78.528 163.4357
297.637697 78.503 163.5611
299.794503 78.479 163.6816
301.966937 78.455 163.8018
304.155114 78.432 163.9233
306.359147 78.410 164.0449
308.579152 78.388 164.1640
310.815244 78.364 164.2790
313.067539 78.340 164.3891
315.336156 78.316 164.4949
317.621211 78.292 164.5983
319.922826 78.269 164.7017
322.241118 78.247 164.8069
324.576210 78.225 164.9142
326.928223 78.203 165.0225
329.297280 78.180 165.1311
331.683504 78.158 165.2407
334.087019 78.134 165.3527
336.507952 78.111 165.4678
338.946427 78.087 165.5856
341.402572 78.064 165.7051
343.876516 78.041 165.8256
346.368387 78.019 165.9473
348.878315 77.997 166.0716
351.406431 77.976 166.2001
353.952867 77.954 166.3331
356.517756 77.932 166.4689
359.101230 77.909 166.6061
361.703426 77.886 166.7441
364.324478 77.864 166.8817
366.964523 77.841 167.0182
369.623699 77.818 167.1543
372.302145 77.795 167.2927
375.000000 77.773 167.4350
377.717405 77.751 167.5816
380.454501 77.729 167.7318
383.211431 77.708 167.8851
385.988339 77.687 168.0403
388.785369 77.666 168.1965
391.602668 77.645 168.3521
394.440383 77.625 168.5059
397.298660 77.604 168.6574
400.177650 77.584 168.8084
403.077502 77.564 168.9619
405.998368 77.543 169.1193
408.940400 77.523 169.2797
411.903750 77.502 169.4406
414.888575 77.479 169.6006
417.895028 77.457 169.7609
420.923268 77.434 169.9236
423.973452 77.411 170.0897
427.045738 77.388 170.2592
430.140287 77.366 170.4312
433.257261 77.344 170.6053
436.396822 77.322 170.7811
439.559133 77.300 170.9578
442.744360 77.278 171.1346
445.952668 77.256 171.3115
449.184225 77.235 171.4897
452.439199 77.214 171.6706
455.717760 77.193 171.8552
459.020079 77.172 172.0436
462.346327 77.150 172.2356
465.696680 77.128 172.4308
469.071310 77.107 172.6281
472.470394 77.086 172.8267
475.894109 77.065 173.0257
479.342634 77.046 173.2253
482.816148 77.027 173.4267
486.314833 77.008 173.6313
489.838871 76.989 173.8406
493.388445 76.970 174.0558
496.963741 76.950 174.2780
500.564945 76.932 174.5080
504.192245 76.914 174.7462
507.845830 76.897 174.9902
511.525890 76.881 175.2350
515.232618 76.866 175.4751
518.966206 76.851 175.7073
522.726849 76.837 175.9308
526.514743 76.824 176.1461
530.330086 76.810 176.3553
534.173076 76.796 176.5619
538.043915 76.781 176.7697
541.942803 76.766 176.9811
545.869944 76.751 177.1967
549.825542 76.735 177.4150
553.809805 76.718 177.6353
557.822939 76.701 177.8575
561.865154 76.683 178.0816
565.936660 76.665 178.3081
570.037671 76.647 178.5380
574.168399 76.630 178.7724
578.329060 76.613 179.0119
582.519870 76.596 179.2561
586.741049 76.580 179.5047
590.992817 76.565 179.7585
595.275394 76.550 -179.9821
599.589005 76.534 -179.7175
603.933874 76.519 -179.4488
608.310228 76.503 -179.1775
612.718295 76.488 -178.9044
617.158304 76.472 -178.6295
621.630488 76.456 -178.3512
626.135079 76.441 -178.0682
630.672311 76.425 -177.7795
635.242423 76.410 -177.4852
639.845651 76.396 -177.1865
644.482237 76.382 -176.8851
649.152421 76.369 -176.5826
653.856447 76.357 -176.2795
658.594560 76.345 -175.9752
663.367008 76.333 -175.6685
668.174039 76.322 -175.3580
673.015903 76.311 -175.0430
677.892854 76.301 -174.7228
682.805145 76.291 -174.3971
687.753032 76.281 -174.0661
692.736774 76.272 -173.7305
697.756631 76.264 -173.3912
702.812863 76.256 -173.0485
707.905735 76.248 -172.7026
713.035511 76.242 -172.3531
718.202461 76.236 -171.9992
723.406852 76.231 -171.6404
728.648956 76.226 -171.2770
733.929047 76.222 -170.9102
739.247399 76.219 -170.5409
744.604290 76.216 -170.1689
750.000000 76.213 -169.7934
755.434809 76.211 -169.4140
760.909001 76.210 -169.0303
766.422861 76.209 -168.6423
771.976677 76.210 -168.2502
777.570739 76.212 -167.8543
783.205337 76.215 -167.4551
788.880766 76.220 -167.0530
794.597321 76.226 -166.6488
800.355301 76.233 -166.2425
806.155005 76.242 -165.8340
811.996736 76.251 -165.4227
817.880799 76.262 -165.0085
823.807501 76.274 -164.5920
829.777150 76.287 -164.1738
835.790057 76.302 -163.7542
841.846536 76.318 -163.3333
847.946903 76.336 -162.9109
854.091476 76.355 -162.4877
860.280575 76.377 -162.0642
866.514523 76.400 -161.6405
872.793644 76.425 -161.2168
879.118267 76.452 -160.7935
885.488720 76.481 -160.3713
891.905336 76.511 -159.9514
898.368450 76.543 -159.5350
904.878398 76.577 -159.1237
911.435520 76.613 -158.7183
918.040157 76.651 -158.3197
924.692655 76.691 -157.9280
931.393359 76.735 -157.5444
938.142619 76.781 -157.1705
944.940787 76.830 -156.8090
951.788218 76.882 -156.4629
958.685268 76.938 -156.1361
965.632296 76.997 -155.8341
972.629666 77.059 -155.5641
979.677741 77.125 -155.3354
986.776890 77.194 -155.1609
993.927482 77.265 -155.0574
1001.129891 77.336 -155.0443
1008.384491 77.401 -155.1399
1015.691660 77.454 -155.3544
1023.051781 77.487 -155.6792
1030.465236 77.490 -156.0741
1037.932411 77.455 -156.4566
1045.453698 77.381 -156.7047
1053.029486 77.276 -156.6835
1060.660172 77.161 -156.2986
1068.346153 77.060 -155.5470
1076.087829 76.994 -154.5270
1083.885605 76.974 -153.3927
1091.739887 76.997 -152.2894
1099.651084 77.054 -151.3128
1107.619609 77.135 -150.5027
1115.645878 77.228 -149.8580
1123.730308 77.327 -149.3567
1131.873321 77.427 -148.9711
1140.075341 77.525 -148.6760
1148.336797 77.621 -148.4519
1156.658119 77.714 -148.2849
1165.039741 77.803 -148.1662
1173.482099 77.888 -148.0918
1181.985634 77.969 -148.0615
1190.550789 78.044 -148.0770
1199.178011 78.112 -148.1401
1207.867749 78.170 -148.2494
1216.620457 78.216 -148.3978
1225.436590 78.246 -148.5687
1234.316609 78.260 -148.7349
1243.260976 78.256 -148.8596
1252.270157 78.237 -148.9039
1261.344623 78.207 -148.8362
1270.484846 78.173 -148.6416
1279.691303 78.141 -148.3261
1288.964474 78.118 -147.9138
1298.304842 78.106 -147.4391
1307.712894 78.108 -146.9375
1317.189120 78.122 -146.4386
1326.734016 78.146 -145.9630
1336.348077 78.179 -145.5211
1346.031806 78.218 -145.1160
1355.785708 78.261 -144.7460
1365.610290 78.307 -144.4075
1375.506065 78.353 -144.0957
1385.473549 78.399 -143.8057
1395.513261 78.446 -143.5327
1405.625726 78.491 -143.2727
1415.811469 78.536 -143.0232
1426.071023 78.580 -142.7821
1436.404921 78.623 -142.5477
1446.813703 78.665 -142.3182
1457.297912 78.706 -142.0920
1467.858093 78.747 -141.8676
1478.494798 78.787 -141.6437
1489.208581 78.827 -141.4194
1500.000000 78.865 -141.1942
1510.869618 78.904 -140.9674
1521.818002 78.942 -140.7384
1532.845723 78.979 -140.5072
1543.953355 79.017 -140.2738
1555.141477 79.054 -140.0383
1566.410674 79.091 -139.8001
1577.761531 79.128 -139.5587
1589.194642 79.165 -139.3132
1600.710601 79.202 -139.0635
1612.310010 79.240 -138.8100
1623.993473 79.277 -138.5536
1635.761599 79.314 -138.2942
1647.615002 79.352 -138.0312
1659.554299 79.389 -137.7638
1671.580114 79.427 -137.4915
1683.693072 79.464 -137.2141
1695.893807 79.502 -136.9317
1708.182952 79.540 -136.6449
1720.561150 79.578 -136.3537
1733.029045 79.617 -136.0574
1745.587288 79.655 -135.7548
1758.236533 79.693 -135.4446
1770.977440 79.732 -135.1258
1783.810673 79.771 -134.7977
1796.736900 79.810 -134.4597
1809.756796 79.849 -134.1108
1822.871040 79.888 -133.7498
1836.080315 79.929 -133.3746
1849.385310 79.969 -132.9829
1862.786718 80.012 -132.5720
1876.285239 80.055 -132.1392
1889.881575 80.101 -131.6818
1903.576436 80.150 -131.1980
1917.370535 80.203 -130.6874
1931.264593 80.261 -130.1518
1945.259332 80.325 -129.5959
1959.355483 80.396 -129.0270
1973.553781 80.475 -128.4545
1987.854965 80.561 -127.8882
2002.259781 80.655 -127.3381
2016.768981 80.755 -126.8128
2031.383320 80.862 -126.3196
2046.103561 80.974 -125.8641
2060.930471 81.090 -125.4497
2075.864823 81.210 -125.0784
2090.907395 81.331 -124.7505
2106.058972 81.454 -124.4653
2121.320344 81.577 -124.2214
2136.692305 81.700 -124.0166
2152.175658 81.821 -123.8480
2167.771210 81.940 -123.7111
2183.479774 82.055 -123.6001
2199.302169 82.168 -123.5080
2215.239219 82.278 -123.4278
2231.291755 82.384 -123.3534
2247.460615 82.488 -123.2801
2263.746641 82.591 -123.2046
2280.150683 82.692 -123.1250
2296.673595 82.793 -123.0402
2313.316238 82.893 -122.9505
2330.079481 82.994 -122.8570
2346.964198 83.096 -122.7612
2363.971268 83.199 -122.6649
2381.101578 83.303 -122.5700
2398.356022 83.408 -122.4776
2415.735498 83.515 -122.3889
2433.240913 83.623 -122.3050
2450.873180 83.733 -122.2271
2468.633217 83.844 -122.1564
2486.521951 83.957 -122.0939
2504.540314 84.071 -122.0405
2522.689246 84.187 -121.9968
2540.969692 84.304 -121.9634
2559.382606 84.422 -121.9406
2577.928947 84.542 -121.9286
2596.609683 84.662 -121.9278
2615.425787 84.784 -121.9380
2634.378241 84.908 -121.9595
2653.468031 85.033 -121.9922
2672.696154 85.161 -122.0371
2692.063613 85.291 -122.0959
2711.571415 85.423 -122.1713
2731.220579 85.558 -122.2657
2751.012130 85.695 -122.3804
2770.947098 85.834 -122.5163
2791.026522 85.974 -122.6751
2811.251451 86.114 -122.8594
2831.622938 86.255 -123.0726
2852.142045 86.396 -123.3176
2872.809842 86.537 -123.5952
2893.627406 86.677 -123.9055
2914.595823 86.816 -124.2475
2935.716186 86.954 -124.6193
2956.989596 87.090 -125.0187
2978.417161 87.225 -125.4433
3000.000000 87.359 -125.8911
3021.739237 87.491 -126.3608
3043.636005 87.622 -126.8517
3065.691446 87.752 -127.3639
3087.906710 87.882 -127.8982
3110.282955 88.010 -128.4561
3132.821347 88.139 -129.0407
3155.523062 88.266 -129.6559
3178.389283 88.394 -130.3059
3201.421202 88.520 -130.9950
3224.620020 88.644 -131.7263
3247.986946 88.765 -132.5018
3271.523198 88.883 -133.3216
3295.230004 88.996 -134.1845
3319.108599 89.104 -135.0883
3343.160228 89.206 -136.0299
3367.386145 89.301 -137.0054
3391.787613 89.388 -138.0105
3416.365904 89.468 -139.0406
3441.122300 89.539 -140.0912
3466.058091 89.602 -141.1583
3491.174576 89.657 -142.2373
3516.473066 89.704 -143.3240
3541.954880 89.741 -144.4139
3567.621345 89.771 -145.5028
3593.473800 89.792 -146.5861
3619.513592 89.805 -147.6596
3645.742080 89.810 -148.7194
3672.160630 89.807 -149.7621
3698.770620 89.797 -150.7847
3725.573436 89.780 -151.7842
3752.570477 89.757 -152.7583
3779.763150 89.727 -153.7046
3807.152872 89.691 -154.6210
3834.741071 89.651 -155.5059
3862.529185 89.605 -156.3578
3890.518664 89.554 -157.1758
3918.710966 89.500 -157.9592
3947.107561 89.442 -158.7076
3975.709929 89.381 -159.4211
4004.519563 89.316 -160.0998
4033.537962 89.249 -160.7442
4062.766641 89.180 -161.3543
4092.207123 89.108 -161.9305
4121.860942 89.034 -162.4727
4151.729646 88.958 -162.9810
4181.814790 88.880 -163.4553
4212.117944 88.801 -163.8950
4242.640687 88.720 -164.2991
4273.384610 88.637 -164.6662
4304.351317 88.553 -164.9943
4335.542421 88.468 -165.2813
4366.959549 88.382 -165.5251
4398.604338 88.297 -165.7239
4430.478438 88.212 -165.8767
4462.583511 88.128 -165.9836
4494.921231 88.047 -166.0460
4527.493283 87.969 -166.0664
4560.301365 87.895 -166.0482
4593.347189 87.825 -165.9954
4626.632476 87.759 -165.9120
4660.158962 87.698 -165.8021
4693.928395 87.642 -165.6691
4727.942535 87.590 -165.5160
4762.203156 87.543 -165.3450
4796.712043 87.501 -165.1577
4831.470996 87.463 -164.9552
4866.481826 87.430 -164.7389
4901.746360 87.403 -164.5106
4937.266434 87.381 -164.2727
4973.043902 87.365 -164.0281
5009.080628 87.354 -163.7800
5045.378492 87.349 -163.5316
5081.939384 87.349 -163.2860
5118.765212 87.354 -163.0460
5155.857894 87.365 -162.8141
5193.219366 87.380 -162.5923
5230.851574 87.400 -162.3818
5268.756481 87.425 -162.1838
5306.936062 87.454 -161.9991
5345.392309 87.487 -161.8287
5384.127225 87.525 -161.6738
5423.142830 87.567 -161.5358
5462.441159 87.613 -161.4162
5502.024259 87.663 -161.3169
5541.894195 87.716 -161.2398
5582.053045 87.774 -161.1866
5622.502902 87.835 -161.1595
5663.245876 87.900 -161.1603
5704.284090 87.968 -161.1912
5745.619684 88.039 -161.2540
5787.254813 88.112 -161.3502
5829.191647 88.188 -161.4815
5871.432373 88.265 -161.6492
5913.979192 88.345 -161.8552
5956.834323 88.426 -162.1009
6000.000000 88.507 -162.3875
6043.478473 88.590 -162.7155
6087.272010 88.672 -163.0852
6131.382892 88.753 -163.4966
6175.813420 88.834 -163.9498
6220.565910 88.914 -164.4450
6265.642695 88.993 -164.9824
6311.046124 89.069 -165.5620
6356.778566 89.143 -166.1837
6402.842404 89.214 -166.8468
6449.240040 89.282 -167.5505
6495.973891 89.346 -168.2935
6543.046396 89.406 -169.0745
6590.460007 89.461 -169.8920
6638.217197 89.512 -170.7445
6686.320456 89.558 -171.6305
6734.772290 89.598 -172.5475
6783.575226 89.631 -173.4913
6832.731809 89.656 -174.4560
6882.244600 89.675 -175.4339
6932.116181 89.685 -176.4164
6982.349153 89.689 -177.3947
7032.946133 89.686 -178.3610
7083.909760 89.678 -179.3092
7135.242690 89.667 179.7643
7186.947600 89.653 178.8602
7239.027185 89.638 177.9757
7291.484160 89.624 177.1055
7344.321260 89.612 176.2421
7397.541239 89.602 175.3771
7451.146872 89.595 174.5021
7505.140954 89.590 173.6091
7559.526299 89.588 172.6908
7614.305743 89.586 171.7405
7669.482141 89.586 170.7526
7725.058371 89.587 169.7219
7781.037328 89.588 168.6435
7837.421932 89.588 167.5120
7894.215122 89.587 166.3220
7951.419859 89.583 165.0682
8009.039125 89.576 163.7456
8067.075924 89.564 162.3496
8125.533282 89.546 160.8765
8184.414245 89.520 159.3234
8243.721885 89.485 157.6889
8303.459292 89.438 155.9736
8363.629581 89.376 154.1801
8424.235888 89.298 152.3138
8485.281374 89.202 150.3825
8546.769221 89.084 148.3972
8608.702634 88.943 146.3720
8671.084842 88.777 144.3249
8733.919097 88.583 142.2767
8797.208675 88.361 140.2510
8860.956876 88.110 138.2725
8925.167022 87.831 136.3660
8989.842461 87.524 134.5552
9054.986566 87.191 132.8621
9120.602731 86.834 131.3065
9186.694378 86.454 129.9057
9253.264952 86.056 128.6742
9320.317925 85.641 127.6234
9387.856790 85.212 126.7607
9455.885071 84.773 126.0901
9524.406312 84.327 125.6117
9593.424086 83.876 125.3224
9662.941992 83.424 125.2170
9732.963653 82.974 125.2882
9803.492719 82.528 125.5282
9874.532869 82.087 125.9281
9946.087805 81.654 126.4784
10018.161257 81.229 127.1694
10090.756983 80.813 127.9910
10163.878768 80.407 128.9335
10237.530423 80.011 129.9875
10311.715789 79.627 131.1442
10386.438732 79.253 132.3962
10461.703149 78.891 133.7371
10537.512962 78.540 135.1611
10613.872125 78.201 136.6636
10690.784618 77.873 138.2402
10768.254450 77.556 139.8877
10846.285661 77.251 141.6032
10924.882318 76.958 143.3839
11004.048518 76.677 145.2261
11083.788390 76.409 147.1245
11164.106090 76.154 149.0730
11245.005805 75.912 151.0645
11326.491752 75.683 153.0922
11408.568180 75.468 155.1494
11491.239368 75.267 157.2302
11574.509626 75.080 159.3290
11658.383294 74.906 161.4405
11742.864745 74.747 163.5591
11827.958384 74.601 165.6791
11913.668646 74.469 167.7950
12000.000000 74.352 169.9016
12086.956947 74.247 171.9945
12174.544019 74.157 174.0690
12262.765784 74.080 176.1208
12351.626840 74.017 178.1461
12441.131819 73.967 -179.8586
12531.285389 73.931 -177.8960
12622.092249 73.909 -175.9679
12713.557132 73.900 -174.0766
12805.684808 73.905 -172.2256
12898.480079 73.926 -170.4213
12991.947783 73.964 -168.6742
13086.092792 74.020 -166.9995
13180.920015 74.095 -165.4169
13276.434395 74.189 -163.9501
13372.640911 74.304 -162.6247
13469.544580 74.437 -161.4673
13567.150452 74.587 -160.5035
13665.463617 74.751 -159.7580
13764.489200 74.926 -159.2530
13864.232362 75.107 -159.0079
13964.698305 75.290 -159.0377
14065.892266 75.470 -159.3518
14167.819519 75.639 -159.9524
14270.485380 75.790 -160.8337
14373.895200 75.917 -161.9800
14478.054370 76.013 -163.3645
14582.968320 76.070 -164.9494
14688.642520 76.084 -166.6871
14795.082478 76.052 -168.5229
14902.293745 75.970 -170.3973
15010.281908 75.840 -172.2491
15119.052599 75.662 -174.0191
15228.611486 75.442 -175.6524
15338.964283 75.184 -177.1025
15450.116741 74.893 -178.3329
15562.074656 74.578 -179.3177
15674.843864 74.244 179.9601
15788.430244 73.897 179.5109
15902.839718 73.542 179.3412
16018.078250 73.184 179.4554
16134.151848 72.828 179.8570
16251.066563 72.477 -179.4519
16368.828491 72.137 -178.4701
16487.443769 71.812 -177.1993
16606.918584 71.509 -175.6465
16727.259161 71.235 -173.8282
16848.471777 70.996 -171.7760
16970.562748 70.799 -169.5410
17093.538442 70.648 -167.1929
17217.405268 70.544 -164.8110
17342.169684 70.484 -162.4689
17467.838194 70.461 -160.2193
17594.417350 70.467 -158.0874
17721.913751 70.497 -156.0758
17850.334044 70.546 -154.1774
17979.684923 70.614 -152.3896
18109.973131 70.701 -150.7256
18241.205462 70.808 -149.2190
18373.388756 70.934 -147.9238
18506.529905 71.076 -146.9093
18640.635849 71.228 -146.2520
18775.713581 71.379 -146.0253
18911.770141 71.514 -146.2894
19048.812624 71.616 -147.0807
19186.848172 71.665 -148.4000
19325.883983 71.646 -150.2009
19465.927305 71.550 -152.3765
19606.985439 71.384 -154.7464
19749.065738 71.179 -157.0441
19892.175609 70.987 -158.9187
20036.322514 70.870 -159.9902
