* Measurement data measured by REW V5.31.3
* Source: Headset (CX31993 HIFI AUDIO), MICROPHONE (Master Volume), R, volume: 0.400
* Format: 256k Log Swept Sine, 1 sweep at -11.9 dBFS with no timing reference
* Dated: 05 26, 25 6:09:20 PM
* REW Settings:
*  C-weighting compensation: Off
*  Target level: 75.0 dB
* Note: ; 
* Measurement: Final A5000 2HDF 500 L
* Smoothing: 1/12 octave
* Frequency Step: 96 ppo
* Start Frequency: 0.36621094 Hz
*
* Freq(Hz) SPL(dB) Phase(degrees)
0.366211 42.109 -0.7032
0.368865 42.117 -0.6274
0.371538 42.128 -0.5146
0.374230 42.143 -0.3744
0.376942 42.159 -0.2152
0.379673 42.176 -0.0431
0.382424 42.194 0.1380
0.385196 42.213 0.3257
0.387987 42.231 0.5185
0.390798 42.251 0.7156
0.393630 42.270 0.9166
0.396483 42.289 1.1214
0.399356 42.309 1.3299
0.402250 42.329 1.5419
0.405165 42.348 1.7577
0.408101 42.368 1.9770
0.411058 42.389 2.2001
0.414037 42.409 2.4270
0.417037 42.429 2.6576
0.420059 42.450 2.8921
0.423103 42.471 3.1304
0.426169 42.492 3.3726
0.429257 42.513 3.6187
0.432368 42.534 3.8689
0.435501 42.555 4.1230
0.438656 42.577 4.3812
0.441835 42.599 4.6435
0.445037 42.621 4.9100
0.448262 42.643 5.1806
0.451510 42.665 5.4555
0.454782 42.687 5.7346
0.458077 42.709 6.0180
0.461397 42.732 6.3057
0.464740 42.755 6.5978
0.468108 42.778 6.8944
0.471500 42.801 7.1954
0.474917 42.824 7.5009
0.478358 42.848 7.8109
0.481825 42.872 8.1255
0.485316 42.895 8.4448
0.488833 42.919 8.7686
0.492375 42.944 9.0972
0.495943 42.968 9.4305
0.499537 42.992 9.7686
0.503157 43.017 10.1115
0.506803 43.042 10.4593
0.510475 43.067 10.8119
0.514175 43.092 11.1695
0.517900 43.118 11.5320
0.521653 43.143 11.8996
0.525434 43.169 12.2722
0.529241 43.195 12.6500
0.533076 43.221 13.0328
0.536939 43.248 13.4209
0.540830 43.274 13.8141
0.544749 43.301 14.2126
0.548696 43.328 14.6164
0.552673 43.355 15.0256
0.556677 43.382 15.4401
0.560711 43.410 15.8601
0.564774 43.438 16.2855
0.568867 43.466 16.7165
0.572989 43.494 17.1530
0.577141 43.522 17.5951
0.581324 43.551 18.0428
0.585536 43.579 18.4962
0.589779 43.608 18.9554
0.594053 43.637 19.4203
0.598358 43.667 19.8910
0.602694 43.696 20.3676
0.607061 43.726 20.8501
0.611460 43.756 21.3385
0.615891 43.786 21.8329
0.620354 43.817 22.3334
0.624849 43.848 22.8399
0.629377 43.878 23.3525
0.633938 43.910 23.8713
0.638532 43.941 24.3963
0.643159 43.973 24.9276
0.647819 44.004 25.4651
0.652514 44.036 26.0089
0.657242 44.069 26.5591
0.662005 44.101 27.1158
0.666802 44.134 27.6788
0.671634 44.167 28.2483
0.676501 44.200 28.8242
0.681403 44.234 29.4065
0.686341 44.267 29.9950
0.691314 44.302 30.5894
0.696324 44.336 31.1892
0.701370 44.372 31.7932
0.706452 44.409 32.3994
0.711571 44.447 33.0043
0.716728 44.488 33.6025
0.721921 44.534 34.1864
0.727153 44.585 34.7461
0.732422 44.644 35.2723
0.737729 44.712 35.7598
0.743075 44.789 36.2121
0.748460 44.874 36.6371
0.753883 44.964 37.0432
0.759346 45.060 37.4371
0.764849 45.161 37.8233
0.770391 45.266 38.2044
0.775974 45.375 38.5816
0.781597 45.487 38.9555
0.787261 45.603 39.3260
0.792966 45.722 39.6927
0.798712 45.845 40.0552
0.804500 45.972 40.4129
0.810329 46.101 40.7652
0.816201 46.234 41.1116
0.822116 46.370 41.4516
0.828073 46.510 41.7845
0.834074 46.652 42.1098
0.840118 46.798 42.4270
0.846206 46.947 42.7356
0.852338 47.099 43.0352
0.858514 47.253 43.3253
0.864735 47.411 43.6053
0.871001 47.571 43.8750
0.877313 47.733 44.1339
0.883670 47.899 44.3817
0.890074 48.066 44.6178
0.896524 48.237 44.8422
0.903020 48.409 45.0543
0.909564 48.583 45.2538
0.916155 48.760 45.4406
0.922794 48.938 45.6143
0.929481 49.119 45.7746
0.936216 49.300 45.9213
0.943000 49.484 46.0542
0.949834 49.668 46.1730
0.956717 49.854 46.2776
0.963649 50.041 46.3677
0.970632 50.228 46.4432
0.977666 50.417 46.5040
0.984750 50.606 46.5498
0.991886 50.795 46.5805
0.999074 50.984 46.5960
1.006314 51.173 46.5962
1.013606 51.361 46.5810
1.020951 51.549 46.5502
1.028349 51.737 46.5039
1.035801 51.923 46.4419
1.043307 52.108 46.3642
1.050867 52.291 46.2710
1.058482 52.473 46.1623
1.066152 52.653 46.0386
1.073878 52.830 45.9003
1.081660 53.006 45.7485
1.089498 53.180 45.5847
1.097393 53.352 45.4108
1.105345 53.523 45.2291
1.113355 53.693 45.0421
1.121423 53.862 44.8516
1.129549 54.031 44.6588
1.137734 54.200 44.4647
1.145979 54.369 44.2694
1.154283 54.538 44.0730
1.162647 54.707 43.8754
1.171072 54.876 43.6764
1.179558 55.045 43.4757
1.188106 55.214 43.2729
1.196715 55.383 43.0679
1.205387 55.552 42.8602
1.214122 55.721 42.6495
1.222920 55.891 42.4356
1.231782 56.060 42.2182
1.240708 56.229 41.9968
1.249699 56.399 41.7713
1.258754 56.568 41.5413
1.267876 56.738 41.3066
1.277063 56.907 41.0668
1.286318 57.077 40.8216
1.295639 57.246 40.5709
1.305027 57.416 40.3142
1.314484 57.585 40.0513
1.324009 57.755 39.7820
1.333604 57.924 39.5060
1.343268 58.094 39.2229
1.353002 58.263 38.9325
1.362806 58.433 38.6346
1.372681 58.602 38.3288
1.382628 58.771 38.0150
1.392647 58.941 37.6929
1.402739 59.110 37.3622
1.412904 59.279 37.0230
1.423142 59.448 36.6751
1.433455 59.617 36.3189
1.443843 59.786 35.9547
1.454305 59.955 35.5835
1.464844 60.123 35.2066
1.475459 60.291 34.8253
1.486150 60.459 34.4414
1.496920 60.626 34.0558
1.507767 60.792 33.6694
1.518693 60.957 33.2825
1.529698 61.122 32.8953
1.540783 61.287 32.5076
1.551948 61.450 32.1192
1.563194 61.614 31.7297
1.574521 61.776 31.3389
1.585931 61.938 30.9464
1.597423 62.099 30.5517
1.608999 62.260 30.1546
1.620658 62.420 29.7545
1.632402 62.580 29.3512
1.644232 62.740 28.9441
1.656146 62.899 28.5330
1.668147 63.057 28.1173
1.680235 63.216 27.6967
1.692411 63.374 27.2708
1.704675 63.532 26.8391
1.717028 63.689 26.4013
1.729470 63.847 25.9569
1.742003 64.004 25.5055
1.754626 64.161 25.0469
1.767341 64.318 24.5805
1.780147 64.475 24.1063
1.793047 64.633 23.6241
1.806040 64.790 23.1340
1.819128 64.947 22.6364
1.832310 65.104 22.1318
1.845587 65.260 21.6212
1.858961 65.416 21.1055
1.872432 65.571 20.5856
1.886001 65.726 20.0623
1.899667 65.880 19.5360
1.913433 66.033 19.0072
1.927299 66.186 18.4760
1.941265 66.338 17.9427
1.955332 66.489 17.4074
1.969501 66.640 16.8700
1.983773 66.790 16.3307
1.998148 66.939 15.7894
2.012627 67.088 15.2460
2.027212 67.236 14.7004
2.041902 67.384 14.1524
2.056698 67.532 13.6020
2.071602 67.679 13.0488
2.086614 67.825 12.4926
2.101734 67.972 11.9333
2.116964 68.118 11.3704
2.132304 68.264 10.8038
2.147756 68.409 10.2331
2.163320 68.554 9.6581
2.178996 68.699 9.0785
2.194786 68.844 8.4942
2.210690 68.988 7.9053
2.226710 69.132 7.3118
2.242845 69.275 6.7142
2.259098 69.417 6.1128
2.275468 69.558 5.5080
2.291957 69.698 4.9002
2.308566 69.838 4.2898
2.325295 69.977 3.6771
2.342145 70.115 3.0624
2.359117 70.253 2.4460
2.376212 70.390 1.8280
2.393431 70.526 1.2087
2.410775 70.662 0.5881
2.428244 70.797 -0.0337
2.445840 70.931 -0.6567
2.463564 71.065 -1.2809
2.481416 71.199 -1.9065
2.499397 71.332 -2.5337
2.517509 71.464 -3.1627
2.535752 71.597 -3.7940
2.554127 71.728 -4.4280
2.572635 71.859 -5.0652
2.591277 71.990 -5.7061
2.610055 72.119 -6.3508
2.628968 72.248 -6.9993
2.648019 72.376 -7.6513
2.667208 72.503 -8.3063
2.686535 72.629 -8.9640
2.706003 72.754 -9.6238
2.725612 72.878 -10.2852
2.745363 73.002 -10.9478
2.765257 73.125 -11.6110
2.785295 73.247 -12.2745
2.805478 73.369 -12.9379
2.825808 73.490 -13.6012
2.846285 73.610 -14.2640
2.866910 73.730 -14.9266
2.887685 73.849 -15.5890
2.908611 73.968 -16.2518
2.929688 74.086 -16.9156
2.950917 74.203 -17.5811
2.972301 74.319 -18.2489
2.993839 74.435 -18.9194
3.015534 74.549 -19.5926
3.037386 74.663 -20.2681
3.059396 74.776 -20.9455
3.081565 74.887 -21.6242
3.103896 74.998 -22.3036
3.126388 75.109 -22.9831
3.149043 75.218 -23.6620
3.171862 75.327 -24.3400
3.194847 75.435 -25.0165
3.217998 75.542 -25.6913
3.241317 75.649 -26.3643
3.264805 75.755 -27.0358
3.288463 75.860 -27.7063
3.312293 75.965 -28.3765
3.336295 76.069 -29.0471
3.360471 76.172 -29.7186
3.384822 76.274 -30.3913
3.409350 76.375 -31.0650
3.434056 76.476 -31.7393
3.458940 76.575 -32.4137
3.484005 76.674 -33.0876
3.509252 76.772 -33.7604
3.534681 76.869 -34.4314
3.560295 76.966 -35.1002
3.586094 77.062 -35.7665
3.612081 77.157 -36.4300
3.638255 77.252 -37.0910
3.664620 77.346 -37.7499
3.691175 77.440 -38.4072
3.717923 77.533 -39.0637
3.744864 77.625 -39.7196
3.772001 77.716 -40.3751
3.799335 77.806 -41.0300
3.826866 77.896 -41.6838
3.854597 77.985 -42.3363
3.882529 78.073 -42.9869
3.910664 78.161 -43.6351
3.939002 78.248 -44.2806
3.967546 78.335 -44.9230
3.996296 78.422 -45.5623
4.025255 78.507 -46.1988
4.054423 78.593 -46.8329
4.083804 78.677 -47.4649
4.113396 78.761 -48.0953
4.143204 78.845 -48.7242
4.173227 78.928 -49.3514
4.203468 79.010 -49.9769
4.233928 79.092 -50.6004
4.264609 79.173 -51.2216
4.295512 79.254 -51.8402
4.326639 79.334 -52.4560
4.357992 79.415 -53.0690
4.389572 79.494 -53.6792
4.421380 79.574 -54.2869
4.453419 79.653 -54.8924
4.485691 79.731 -55.4960
4.518196 79.809 -56.0976
4.550936 79.887 -56.6975
4.583914 79.964 -57.2953
4.617131 80.041 -57.8911
4.650589 80.117 -58.4847
4.684289 80.194 -59.0760
4.718233 80.269 -59.6649
4.752424 80.345 -60.2516
4.786862 80.420 -60.8361
4.821549 80.495 -61.4187
4.856488 80.570 -61.9996
4.891680 80.644 -62.5787
4.927127 80.718 -63.1561
4.962831 80.792 -63.7318
4.998794 80.865 -64.3057
5.035017 80.938 -64.8777
5.071503 81.011 -65.4478
5.108253 81.083 -66.0160
5.145270 81.155 -66.5824
5.182555 81.227 -67.1473
5.220110 81.299 -67.7106
5.257937 81.370 -68.2725
5.296038 81.441 -68.8329
5.334415 81.512 -69.3918
5.373071 81.582 -69.9491
5.412006 81.652 -70.5047
5.451224 81.722 -71.0585
5.490725 81.792 -71.6108
5.530514 81.861 -72.1614
5.570590 81.930 -72.7106
5.610957 81.999 -73.2585
5.651616 82.068 -73.8050
5.692570 82.136 -74.3501
5.733821 82.204 -74.8938
5.775370 82.272 -75.4360
5.817221 82.340 -75.9766
5.859375 82.407 -76.5159
5.901834 82.474 -77.0537
5.944602 82.541 -77.5902
5.987679 82.608 -78.1255
6.031068 82.675 -78.6597
6.074771 82.741 -79.1930
6.118792 82.808 -79.7252
6.163131 82.874 -80.2566
6.207792 82.940 -80.7870
6.252776 83.006 -81.3168
6.298086 83.072 -81.8458
6.343725 83.138 -82.3744
6.389694 83.204 -82.9026
6.435996 83.269 -83.4307
6.482634 83.335 -83.9589
6.529610 83.400 -84.4874
6.576926 83.466 -85.0163
6.624585 83.531 -85.5459
6.672590 83.596 -86.0761
6.720942 83.661 -86.6073
6.769645 83.726 -87.1396
6.818700 83.791 -87.6733
6.868111 83.856 -88.2086
6.917881 83.920 -88.7457
6.968010 83.985 -89.2850
7.018504 84.049 -89.8264
7.069362 84.112 -90.3702
7.120590 84.176 -90.9164
7.172189 84.239 -91.4651
7.224161 84.302 -92.0164
7.276511 84.364 -92.5704
7.329239 84.426 -93.1273
7.382350 84.487 -93.6871
7.435845 84.547 -94.2498
7.489729 84.607 -94.8153
7.544002 84.666 -95.3834
7.598669 84.725 -95.9538
7.653732 84.782 -96.5265
7.709194 84.839 -97.1012
7.765058 84.895 -97.6780
7.821327 84.949 -98.2566
7.878004 85.003 -98.8365
7.935091 85.056 -99.4173
7.992592 85.107 -99.9984
8.050510 85.158 -100.5794
8.108847 85.207 -101.1601
8.167607 85.255 -101.7402
8.226793 85.302 -102.3192
8.286408 85.348 -102.8965
8.346454 85.393 -103.4715
8.406936 85.437 -104.0437
8.467856 85.479 -104.6126
8.529218 85.521 -105.1780
8.591024 85.562 -105.7395
8.653278 85.601 -106.2968
8.715983 85.640 -106.8495
8.779143 85.679 -107.3971
8.842760 85.716 -107.9395
8.906839 85.753 -108.4765
8.971381 85.790 -109.0082
9.036392 85.826 -109.5346
9.101873 85.862 -110.0558
9.167829 85.897 -110.5718
9.234263 85.933 -111.0827
9.301178 85.968 -111.5890
9.368578 86.004 -112.0909
9.436467 86.039 -112.5891
9.504847 86.075 -113.0840
9.573723 86.111 -113.5760
9.643099 86.147 -114.0656
9.712976 86.184 -114.5535
9.783361 86.220 -115.0403
9.854255 86.257 -115.5267
9.925663 86.294 -116.0131
9.997588 86.331 -116.5002
10.070035 86.369 -116.9883
10.143007 86.406 -117.4779
10.216507 86.444 -117.9694
10.290540 86.481 -118.4632
10.365109 86.518 -118.9594
10.440219 86.555 -119.4582
10.515873 86.592 -119.9595
10.592076 86.628 -120.4633
10.668830 86.664 -120.9695
10.746141 86.699 -121.4779
10.824012 86.733 -121.9882
10.902447 86.767 -122.5000
10.981451 86.800 -123.0128
11.061027 86.832 -123.5264
11.141180 86.864 -124.0402
11.221913 86.894 -124.5537
11.303232 86.924 -125.0666
11.385140 86.953 -125.5783
11.467641 86.982 -126.0884
11.550741 87.009 -126.5967
11.634442 87.036 -127.1029
11.718750 87.063 -127.6067
11.803669 87.089 -128.1080
11.889203 87.114 -128.6068
11.975357 87.139 -129.1029
12.062136 87.164 -129.5966
12.149543 87.188 -130.0880
12.237583 87.213 -130.5772
12.326262 87.236 -131.0644
12.415583 87.260 -131.5499
12.505552 87.283 -132.0340
12.596172 87.307 -132.5168
12.687449 87.329 -132.9986
12.779387 87.352 -133.4796
12.871992 87.374 -133.9599
12.965268 87.396 -134.4395
13.059220 87.418 -134.9185
13.153852 87.439 -135.3968
13.249170 87.459 -135.8744
13.345179 87.480 -136.3509
13.441884 87.499 -136.8263
13.539289 87.518 -137.3004
13.637401 87.537 -137.7727
13.736223 87.555 -138.2433
13.835761 87.573 -138.7117
13.936021 87.590 -139.1780
14.037007 87.607 -139.6419
14.138725 87.624 -140.1034
14.241180 87.640 -140.5627
14.344377 87.656 -141.0197
14.448323 87.672 -141.4748
14.553021 87.687 -141.9282
14.658478 87.702 -142.3802
14.764700 87.718 -142.8313
14.871691 87.733 -143.2817
14.979457 87.747 -143.7320
15.088005 87.762 -144.1824
15.197339 87.776 -144.6333
15.307465 87.790 -145.0847
15.418389 87.803 -145.5369
15.530117 87.816 -145.9897
15.642655 87.828 -146.4430
15.756008 87.840 -146.8965
15.870182 87.850 -147.3497
15.985184 87.860 -147.8022
16.101019 87.869 -148.2533
16.217694 87.877 -148.7025
16.335214 87.884 -149.1490
16.453586 87.890 -149.5924
16.572815 87.896 -150.0322
16.692909 87.901 -150.4678
16.813872 87.905 -150.8993
16.935713 87.909 -151.3265
17.058436 87.913 -151.7497
17.182048 87.916 -152.1691
17.306556 87.920 -152.5852
17.431967 87.923 -152.9988
17.558286 87.926 -153.4104
17.685521 87.930 -153.8209
17.813677 87.933 -154.2309
17.942762 87.936 -154.6409
18.072783 87.939 -155.0516
18.203746 87.942 -155.4632
18.335658 87.945 -155.8758
18.468526 87.947 -156.2894
18.602356 87.948 -156.7037
18.737156 87.949 -157.1185
18.872934 87.949 -157.5334
19.009695 87.949 -157.9481
19.147447 87.948 -158.3622
19.286197 87.947 -158.7758
19.425953 87.945 -159.1887
19.566721 87.943 -159.6013
19.708510 87.941 -160.0137
19.851326 87.938 -160.4265
19.995177 87.935 -160.8400
20.140070 87.931 -161.2543
20.286013 87.926 -161.6694
20.433014 87.921 -162.0851
20.581080 87.914 -162.5005
20.730219 87.907 -162.9143
20.880439 87.898 -163.3250
21.031747 87.888 -163.7306
21.184152 87.877 -164.1291
21.337661 87.865 -164.5186
21.492282 87.853 -164.8974
21.648024 87.841 -165.2648
21.804895 87.829 -165.6205
21.962902 87.818 -165.9655
22.122054 87.809 -166.3018
22.282360 87.801 -166.6322
22.443827 87.796 -166.9605
22.606464 87.793 -167.2907
22.770280 87.792 -167.6269
22.935283 87.792 -167.9727
23.101481 87.793 -168.3307
23.268884 87.795 -168.7025
23.437500 87.796 -169.0880
23.607338 87.797 -169.4858
23.778406 87.795 -169.8933
23.950714 87.792 -170.3069
24.124271 87.786 -170.7222
24.299086 87.779 -171.1352
24.475167 87.769 -171.5421
24.652524 87.758 -171.9400
24.831166 87.746 -172.3275
25.011103 87.733 -172.7041
25.192344 87.721 -173.0707
25.374898 87.708 -173.4291
25.558775 87.697 -173.7816
25.743984 87.686 -174.1307
25.930536 87.676 -174.4785
26.118439 87.665 -174.8262
26.307704 87.655 -175.1744
26.498341 87.644 -175.5228
26.690359 87.632 -175.8700
26.883768 87.620 -176.2146
27.078579 87.607 -176.5550
27.274801 87.593 -176.8899
27.472446 87.579 -177.2186
27.671522 87.565 -177.5413
27.872042 87.551 -177.8589
28.074014 87.537 -178.1730
28.277450 87.524 -178.4857
28.482360 87.511 -178.7990
28.688755 87.498 -179.1147
28.896645 87.485 -179.4339
29.106042 87.471 -179.7566
29.316957 87.457 179.9177
29.529400 87.441 179.5907
29.743382 87.424 179.2643
29.958915 87.405 178.9407
30.176009 87.386 178.6217
30.394677 87.365 178.3085
30.614929 87.344 178.0013
30.836778 87.323 177.6993
31.060234 87.302 177.4010
31.285309 87.282 177.1045
31.512015 87.261 176.8084
31.740364 87.240 176.5119
31.970368 87.218 176.2155
32.202039 87.196 175.9206
32.435388 87.172 175.6295
32.670428 87.149 175.3445
32.907171 87.125 175.0670
33.145630 87.102 174.7967
33.385817 87.080 174.5314
33.627745 87.060 174.2673
33.871425 87.041 173.9993
34.116871 87.023 173.7230
34.364096 87.006 173.4355
34.613113 86.988 173.1363
34.863934 86.968 172.8279
35.116572 86.947 172.5155
35.371041 86.923 172.2051
35.627354 86.897 171.9029
35.885525 86.870 171.6130
36.145566 86.843 171.3371
36.407492 86.816 171.0739
36.671316 86.790 170.8198
36.937051 86.766 170.5705
37.204712 86.743 170.3215
37.474313 86.721 170.0699
37.745867 86.699 169.8144
38.019389 86.677 169.5554
38.294893 86.655 169.2939
38.572394 86.632 169.0316
38.851905 86.608 168.7694
39.133442 86.584 168.5076
39.417019 86.560 168.2457
39.702651 86.535 167.9835
39.990353 86.510 167.7206
40.280140 86.484 167.4580
40.572026 86.456 167.1970
40.866028 86.428 166.9397
41.162160 86.398 166.6884
41.460438 86.368 166.4449
41.760877 86.338 166.2096
42.063494 86.307 165.9822
42.368303 86.277 165.7612
42.675322 86.248 165.5452
42.984565 86.219 165.3327
43.296048 86.190 165.1230
43.609789 86.162 164.9153
43.925804 86.134 164.7086
44.244108 86.108 164.5006
44.564719 86.082 164.2885
44.887654 86.056 164.0692
45.212928 86.030 163.8411
45.540560 86.004 163.6046
45.870565 85.975 163.3629
46.202962 85.945 163.1210
46.537768 85.912 162.8836
46.875000 85.879 162.6543
47.214676 85.844 162.4346
47.556813 85.810 162.2240
47.901429 85.775 162.0211
48.248542 85.740 161.8246
48.598171 85.706 161.6335
48.950334 85.672 161.4465
49.305048 85.639 161.2626
49.662333 85.607 161.0800
50.022206 85.574 160.8975
50.384688 85.542 160.7142
50.749796 85.511 160.5303
51.117550 85.479 160.3461
51.487969 85.447 160.1619
51.861072 85.414 159.9774
52.236879 85.382 159.7927
52.615409 85.349 159.6084
52.996681 85.316 159.4261
53.380717 85.282 159.2475
53.767536 85.248 159.0736
54.157158 85.213 158.9044
54.549603 85.179 158.7391
54.944892 85.145 158.5765
55.343045 85.111 158.4161
55.744084 85.077 158.2577
56.148028 85.044 158.1011
56.554900 85.010 157.9458
56.964720 84.976 157.7907
57.377510 84.943 157.6355
57.793291 84.909 157.4806
58.212085 84.875 157.3275
58.633914 84.840 157.1773
59.058799 84.806 157.0308
59.486764 84.772 156.8872
59.917829 84.738 156.7455
60.352019 84.704 156.6046
60.789354 84.671 156.4635
61.229859 84.637 156.3220
61.673556 84.604 156.1802
62.120468 84.570 156.0390
62.570618 84.535 155.8997
63.024031 84.500 155.7630
63.480729 84.465 155.6290
63.940736 84.430 155.4969
64.404077 84.394 155.3662
64.870776 84.357 155.2376
65.340856 84.320 155.1132
65.814343 84.281 154.9960
66.291261 84.241 154.8894
66.771635 84.200 154.7961
67.255489 84.161 154.7164
67.742850 84.122 154.6458
68.233743 84.086 154.5755
68.728193 84.052 154.4958
69.226226 84.017 154.4018
69.727867 83.982 154.2949
70.233144 83.946 154.1795
70.742083 83.909 154.0588
71.254709 83.870 153.9352
71.771050 83.830 153.8145
72.291132 83.790 153.7066
72.814984 83.750 153.6177
73.342631 83.714 153.5414
73.874102 83.682 153.4609
74.409424 83.653 153.3611
74.948626 83.625 153.2414
75.491734 83.596 153.1135
76.038779 83.565 152.9901
76.589787 83.534 152.8755
77.144788 83.503 152.7666
77.703811 83.471 152.6603
78.266885 83.439 152.5573
78.834039 83.405 152.4608
79.405303 83.369 152.3735
79.980706 83.333 152.2953
80.560280 83.297 152.2230
81.144053 83.260 152.1522
81.732056 83.223 152.0796
82.324320 83.185 152.0052
82.920876 83.147 151.9319
83.521755 83.109 151.8626
84.126988 83.072 151.7974
84.736607 83.036 151.7328
85.350643 83.001 151.6652
85.969129 82.966 151.5950
86.592097 82.931 151.5270
87.219579 82.896 151.4670
87.851608 82.861 151.4174
88.488217 82.827 151.3760
89.129439 82.793 151.3383
89.775308 82.759 151.2999
90.425856 82.725 151.2579
91.081119 82.690 151.2112
91.741131 82.654 151.1606
92.405925 82.616 151.1093
93.075536 82.578 151.0594
93.750000 82.541 151.0114
94.429351 82.503 150.9630
95.113625 82.467 150.9124
95.802858 82.431 150.8594
96.497085 82.395 150.8061
97.196342 82.359 150.7549
97.900667 82.324 150.7071
98.610096 82.290 150.6631
99.324665 82.255 150.6235
100.044413 82.220 150.5892
100.769376 82.186 150.5599
101.499592 82.152 150.5335
102.235100 82.118 150.5085
102.975938 82.084 150.4860
103.722144 82.049 150.4677
104.473757 82.015 150.4532
105.230817 81.981 150.4397
105.993363 81.948 150.4249
106.761435 81.913 150.4091
107.535072 81.878 150.3947
108.314315 81.843 150.3838
109.099206 81.807 150.3767
109.889783 81.770 150.3709
110.686090 81.734 150.3633
111.488167 81.698 150.3531
112.296056 81.662 150.3419
113.109800 81.627 150.3328
113.929440 81.592 150.3278
114.755020 81.559 150.3269
115.586582 81.527 150.3306
116.424170 81.496 150.3394
117.267827 81.467 150.3528
118.117598 81.439 150.3671
118.973527 81.411 150.3747
119.835658 81.382 150.3690
120.704037 81.351 150.3519
121.578708 81.316 150.3315
122.459718 81.278 150.3163
123.347111 81.240 150.3113
124.240935 81.201 150.3160
125.141236 81.165 150.3251
126.048061 81.130 150.3335
126.961458 81.096 150.3384
127.881473 81.062 150.3393
128.808154 81.028 150.3401
129.741551 80.993 150.3465
130.681712 80.957 150.3587
131.628686 80.921 150.3720
132.582521 80.886 150.3815
133.543269 80.851 150.3828
134.510979 80.817 150.3774
135.485701 80.783 150.3754
136.467486 80.750 150.3860
137.456386 80.719 150.4109
138.452451 80.689 150.4491
139.455735 80.660 150.4987
140.466288 80.632 150.5548
141.484165 80.603 150.6107
142.509418 80.574 150.6613
143.542100 80.542 150.7051
144.582265 80.509 150.7418
145.629968 80.475 150.7719
146.685262 80.440 150.7964
147.748204 80.406 150.8178
148.818849 80.371 150.8403
149.897251 80.337 150.8672
150.983469 80.304 150.8999
152.077557 80.272 150.9389
153.179574 80.241 150.9847
154.289576 80.211 151.0363
155.407622 80.182 151.0903
156.533770 80.152 151.1433
157.668078 80.122 151.1936
158.810606 80.091 151.2406
159.961413 80.059 151.2826
161.120559 80.027 151.3183
162.288105 79.994 151.3486
163.464112 79.962 151.3765
164.648640 79.929 151.4055
165.841752 79.898 151.4387
167.043510 79.866 151.4781
168.253976 79.836 151.5238
169.473213 79.806 151.5746
170.701286 79.776 151.6301
171.938258 79.746 151.6903
173.184194 79.716 151.7539
174.439158 79.687 151.8171
175.703216 79.658 151.8762
176.976434 79.628 151.9302
178.258878 79.598 151.9808
179.550615 79.567 152.0304
180.851713 79.535 152.0809
182.162239 79.505 152.1341
183.482262 79.475 152.1922
184.811850 79.445 152.2574
186.151073 79.415 152.3301
187.500000 79.385 152.4092
188.858702 79.354 152.4941
190.227250 79.322 152.5842
191.605715 79.291 152.6786
192.994169 79.260 152.7747
194.392685 79.232 152.8688
195.801334 79.204 152.9591
197.220191 79.178 153.0468
198.649330 79.152 153.1342
200.088825 79.126 153.2227
201.538751 79.100 153.3122
202.999184 79.075 153.3999
204.470200 79.050 153.4815
205.951875 79.026 153.5540
207.444287 79.004 153.6185
208.947514 78.982 153.6788
210.461634 78.960 153.7382
211.986726 78.939 153.7980
213.522869 78.917 153.8572
215.070144 78.896 153.9144
216.628631 78.873 153.9694
218.198411 78.850 154.0226
219.779567 78.826 154.0749
221.372180 78.802 154.1277
222.976334 78.777 154.1837
224.592112 78.752 154.2463
226.219600 78.725 154.3176
227.858880 78.697 154.3972
229.510039 78.670 154.4816
231.173164 78.642 154.5659
232.848340 78.615 154.6479
234.535655 78.589 154.7301
236.235197 78.563 154.8154
237.947054 78.538 154.9010
239.671317 78.513 154.9794
241.408074 78.487 155.0443
243.157416 78.459 155.0968
244.919435 78.430 155.1432
246.694223 78.399 155.1895
248.481871 78.369 155.2391
250.282473 78.340 155.2961
252.096123 78.313 155.3641
253.922915 78.289 155.4433
255.762945 78.266 155.5296
257.616309 78.245 155.6163
259.483103 78.222 155.6993
261.363424 78.197 155.7776
263.257372 78.169 155.8519
265.165043 78.139 155.9228
267.086538 78.107 155.9895
269.021957 78.075 156.0515
270.971401 78.044 156.1116
272.934972 78.015 156.1754
274.912771 77.987 156.2466
276.904902 77.960 156.3219
278.911469 77.931 156.3967
280.932577 77.901 156.4734
282.968330 77.871 156.5587
285.018835 77.843 156.6534
287.084199 77.818 156.7507
289.164530 77.799 156.8431
291.259935 77.781 156.9332
293.370525 77.764 157.0313
295.496408 77.745 157.1429
297.637697 77.724 157.2629
299.794503 77.703 157.3821
301.966937 77.681 157.4944
304.155114 77.658 157.5992
306.359147 77.633 157.6985
308.579152 77.608 157.7933
310.815244 77.582 157.8849
313.067539 77.557 157.9762
315.336156 77.532 158.0709
317.621211 77.507 158.1698
319.922826 77.483 158.2701
322.241118 77.459 158.3688
324.576210 77.434 158.4642
326.928223 77.410 158.5573
329.297280 77.385 158.6501
331.683504 77.360 158.7448
334.087019 77.335 158.8430
336.507952 77.311 158.9456
338.946427 77.286 159.0528
341.402572 77.262 159.1632
343.876516 77.238 159.2748
346.368387 77.213 159.3858
348.878315 77.188 159.4960
351.406431 77.162 159.6064
353.952867 77.137 159.7176
356.517756 77.111 159.8290
359.101230 77.086 159.9402
361.703426 77.061 160.0508
364.324478 77.036 160.1611
366.964523 77.011 160.2718
369.623699 76.986 160.3845
372.302145 76.961 160.5013
375.000000 76.936 160.6232
377.717405 76.911 160.7495
380.454501 76.886 160.8788
383.211431 76.861 161.0101
385.988339 76.836 161.1429
388.785369 76.811 161.2771
391.602668 76.786 161.4125
394.440383 76.761 161.5483
397.298660 76.735 161.6830
400.177650 76.710 161.8152
403.077502 76.684 161.9450
405.998368 76.658 162.0740
408.940400 76.633 162.2050
411.903750 76.608 162.3392
414.888575 76.582 162.4756
417.895028 76.557 162.6132
420.923268 76.531 162.7523
423.973452 76.505 162.8938
427.045738 76.479 163.0381
430.140287 76.454 163.1859
433.257261 76.428 163.3387
436.396822 76.403 163.4971
439.559133 76.377 163.6611
442.744360 76.351 163.8295
445.952668 76.325 164.0003
449.184225 76.298 164.1718
452.439199 76.271 164.3442
455.717760 76.243 164.5200
459.020079 76.216 164.7017
462.346327 76.188 164.8918
465.696680 76.161 165.0933
469.071310 76.135 165.3079
472.470394 76.110 165.5345
475.894109 76.088 165.7682
479.342634 76.069 166.0024
482.816148 76.052 166.2325
486.314833 76.038 166.4558
489.838871 76.025 166.6695
493.388445 76.012 166.8714
496.963741 76.001 167.0610
500.564945 75.990 167.2399
504.192245 75.980 167.4095
507.845830 75.969 167.5695
511.525890 75.958 167.7188
515.232618 75.945 167.8593
518.966206 75.930 167.9935
522.726849 75.914 168.1246
526.514743 75.895 168.2556
530.330086 75.874 168.3895
534.173076 75.852 168.5291
538.043915 75.830 168.6775
541.942803 75.807 168.8363
545.869944 75.783 169.0053
549.825542 75.759 169.1826
553.809805 75.735 169.3656
557.822939 75.711 169.5526
561.865154 75.687 169.7440
565.936660 75.663 169.9404
570.037671 75.639 170.1414
574.168399 75.615 170.3463
578.329060 75.592 170.5552
582.519870 75.568 170.7686
586.741049 75.545 170.9858
590.992817 75.522 171.2058
595.275394 75.499 171.4285
599.589005 75.477 171.6556
603.933874 75.455 171.8892
608.310228 75.433 172.1298
612.718295 75.412 172.3756
617.158304 75.392 172.6244
621.630488 75.372 172.8748
626.135079 75.352 173.1274
630.672311 75.334 173.3829
635.242423 75.315 173.6411
639.845651 75.296 173.9013
644.482237 75.277 174.1630
649.152421 75.259 174.4272
653.856447 75.240 174.6951
658.594560 75.221 174.9677
663.367008 75.203 175.2457
668.174039 75.186 175.5292
673.015903 75.169 175.8172
677.892854 75.152 176.1073
682.805145 75.135 176.3976
687.753032 75.119 176.6878
692.736774 75.103 176.9792
697.756631 75.087 177.2734
702.812863 75.072 177.5716
707.905735 75.058 177.8746
713.035511 75.045 178.1830
718.202461 75.032 178.4970
723.406852 75.019 178.8167
728.648956 75.007 179.1417
733.929047 74.996 179.4716
739.247399 74.986 179.8062
744.604290 74.977 -179.8545
750.000000 74.968 -179.5113
755.434809 74.959 -179.1651
760.909001 74.952 -178.8157
766.422861 74.944 -178.4631
771.976677 74.938 -178.1084
777.570739 74.933 -177.7528
783.205337 74.928 -177.3967
788.880766 74.925 -177.0391
794.597321 74.922 -176.6778
800.355301 74.920 -176.3114
806.155005 74.920 -175.9397
811.996736 74.921 -175.5635
817.880799 74.923 -175.1831
823.807501 74.928 -174.7986
829.777150 74.933 -174.4105
835.790057 74.939 -174.0202
841.846536 74.947 -173.6293
847.946903 74.956 -173.2391
854.091476 74.967 -172.8503
860.280575 74.978 -172.4630
866.514523 74.991 -172.0768
872.793644 75.005 -171.6909
879.118267 75.021 -171.3055
885.488720 75.037 -170.9206
891.905336 75.055 -170.5358
898.368450 75.074 -170.1506
904.878398 75.095 -169.7661
911.435520 75.117 -169.3841
918.040157 75.141 -169.0059
924.692655 75.167 -168.6317
931.393359 75.194 -168.2605
938.142619 75.223 -167.8919
944.940787 75.254 -167.5263
951.788218 75.287 -167.1651
958.685268 75.321 -166.8098
965.632296 75.357 -166.4620
972.629666 75.394 -166.1227
979.677741 75.433 -165.7923
986.776890 75.473 -165.4705
993.927482 75.514 -165.1575
1001.129891 75.557 -164.8546
1008.384491 75.601 -164.5632
1015.691660 75.647 -164.2841
1023.051781 75.695 -164.0182
1030.465236 75.744 -163.7671
1037.932411 75.796 -163.5330
1045.453698 75.849 -163.3178
1053.029486 75.904 -163.1237
1060.660172 75.960 -162.9531
1068.346153 76.018 -162.8091
1076.087829 76.077 -162.6961
1083.885605 76.137 -162.6199
1091.739887 76.198 -162.5886
1099.651084 76.257 -162.6127
1107.619609 76.313 -162.7035
1115.645878 76.361 -162.8686
1123.730308 76.397 -163.1060
1131.873321 76.415 -163.3968
1140.075341 76.411 -163.6995
1148.336797 76.382 -163.9488
1156.658119 76.333 -164.0669
1165.039741 76.273 -163.9893
1173.482099 76.215 -163.6946
1181.985634 76.172 -163.2181
1190.550789 76.154 -162.6368
1199.178011 76.162 -162.0359
1207.867749 76.192 -161.4824
1216.620457 76.238 -161.0142
1225.436590 76.293 -160.6433
1234.316609 76.353 -160.3638
1243.260976 76.414 -160.1619
1252.270157 76.474 -160.0225
1261.344623 76.531 -159.9326
1270.484846 76.584 -159.8816
1279.691303 76.633 -159.8625
1288.964474 76.678 -159.8707
1298.304842 76.718 -159.9032
1307.712894 76.752 -159.9568
1317.189120 76.781 -160.0271
1326.734016 76.804 -160.1087
1336.348077 76.821 -160.1950
1346.031806 76.832 -160.2788
1355.785708 76.836 -160.3522
1365.610290 76.834 -160.4074
1375.506065 76.827 -160.4366
1385.473549 76.814 -160.4328
1395.513261 76.797 -160.3901
1405.625726 76.777 -160.3042
1415.811469 76.756 -160.1732
1426.071023 76.736 -159.9977
1436.404921 76.716 -159.7811
1446.813703 76.700 -159.5290
1457.297912 76.686 -159.2480
1467.858093 76.677 -158.9448
1478.494798 76.672 -158.6256
1489.208581 76.672 -158.2964
1500.000000 76.676 -157.9623
1510.869618 76.683 -157.6274
1521.818002 76.694 -157.2952
1532.845723 76.707 -156.9680
1543.953355 76.723 -156.6474
1555.141477 76.740 -156.3348
1566.410674 76.758 -156.0309
1577.761531 76.777 -155.7359
1589.194642 76.798 -155.4486
1600.710601 76.819 -155.1676
1612.310010 76.841 -154.8915
1623.993473 76.863 -154.6193
1635.761599 76.885 -154.3498
1647.615002 76.907 -154.0828
1659.554299 76.929 -153.8181
1671.580114 76.950 -153.5542
1683.693072 76.971 -153.2892
1695.893807 76.991 -153.0207
1708.182952 77.011 -152.7470
1720.561150 77.030 -152.4672
1733.029045 77.050 -152.1811
1745.587288 77.070 -151.8882
1758.236533 77.089 -151.5876
1770.977440 77.109 -151.2780
1783.810673 77.129 -150.9580
1796.736900 77.149 -150.6262
1809.756796 77.170 -150.2814
1822.871040 77.192 -149.9232
1836.080315 77.216 -149.5515
1849.385310 77.241 -149.1665
1862.786718 77.268 -148.7682
1876.285239 77.297 -148.3563
1889.881575 77.328 -147.9304
1903.576436 77.362 -147.4903
1917.370535 77.398 -147.0353
1931.264593 77.437 -146.5648
1945.259332 77.480 -146.0781
1959.355483 77.528 -145.5752
1973.553781 77.581 -145.0585
1987.854965 77.642 -144.5333
2002.259781 77.711 -144.0087
2016.768981 77.788 -143.4976
2031.383320 77.875 -143.0149
2046.103561 77.969 -142.5759
2060.930471 78.069 -142.1935
2075.864823 78.172 -141.8767
2090.907395 78.277 -141.6286
2106.058972 78.380 -141.4469
2121.320344 78.480 -141.3240
2136.692305 78.575 -141.2489
2152.175658 78.664 -141.2091
2167.771210 78.747 -141.1917
2183.479774 78.824 -141.1852
2199.302169 78.896 -141.1800
2215.239219 78.963 -141.1696
2231.291755 79.026 -141.1495
2247.460615 79.087 -141.1176
2263.746641 79.145 -141.0736
2280.150683 79.201 -141.0175
2296.673595 79.256 -140.9500
2313.316238 79.311 -140.8715
2330.079481 79.365 -140.7826
2346.964198 79.420 -140.6842
2363.971268 79.475 -140.5772
2381.101578 79.530 -140.4630
2398.356022 79.587 -140.3432
2415.735498 79.643 -140.2188
2433.240913 79.701 -140.0906
2450.873180 79.759 -139.9592
2468.633217 79.818 -139.8254
2486.521951 79.877 -139.6898
2504.540314 79.938 -139.5531
2522.689246 80.000 -139.4157
2540.969692 80.063 -139.2782
2559.382606 80.126 -139.1412
2577.928947 80.191 -139.0056
2596.609683 80.257 -138.8722
2615.425787 80.324 -138.7419
2634.378241 80.392 -138.6157
2653.468031 80.461 -138.4946
2672.696154 80.530 -138.3787
2692.063613 80.600 -138.2682
2711.571415 80.671 -138.1626
2731.220579 80.741 -138.0616
2751.012130 80.812 -137.9644
2770.947098 80.884 -137.8707
2791.026522 80.955 -137.7797
2811.251451 81.027 -137.6908
2831.622938 81.099 -137.6034
2852.142045 81.171 -137.5169
2872.809842 81.243 -137.4305
2893.627406 81.317 -137.3432
2914.595823 81.391 -137.2541
2935.716186 81.466 -137.1621
2956.989596 81.542 -137.0660
2978.417161 81.620 -136.9648
3000.000000 81.700 -136.8581
3021.739237 81.783 -136.7475
3043.636005 81.869 -136.6358
3065.691446 81.958 -136.5280
3087.906710 82.052 -136.4298
3110.282955 82.150 -136.3475
3132.821347 82.251 -136.2866
3155.523062 82.356 -136.2518
3178.389283 82.464 -136.2467
3201.421202 82.573 -136.2740
3224.620020 82.683 -136.3349
3247.986946 82.793 -136.4295
3271.523198 82.903 -136.5561
3295.230004 83.011 -136.7121
3319.108599 83.118 -136.8944
3343.160228 83.223 -137.1001
3367.386145 83.326 -137.3266
3391.787613 83.427 -137.5715
3416.365904 83.527 -137.8328
3441.122300 83.625 -138.1088
3466.058091 83.722 -138.3985
3491.174576 83.818 -138.7015
3516.473066 83.912 -139.0173
3541.954880 84.005 -139.3455
3567.621345 84.097 -139.6864
3593.473800 84.187 -140.0406
3619.513592 84.277 -140.4084
3645.742080 84.365 -140.7897
3672.160630 84.451 -141.1843
3698.770620 84.537 -141.5918
3725.573436 84.621 -142.0127
3752.570477 84.704 -142.4473
3779.763150 84.785 -142.8961
3807.152872 84.865 -143.3598
3834.741071 84.944 -143.8390
3862.529185 85.021 -144.3345
3890.518664 85.096 -144.8465
3918.710966 85.170 -145.3754
3947.107561 85.241 -145.9209
3975.709929 85.309 -146.4825
4004.519563 85.375 -147.0599
4033.537962 85.439 -147.6526
4062.766641 85.500 -148.2602
4092.207123 85.559 -148.8825
4121.860942 85.614 -149.5191
4151.729646 85.667 -150.1698
4181.814790 85.717 -150.8338
4212.117944 85.763 -151.5094
4242.640687 85.804 -152.1942
4273.384610 85.841 -152.8866
4304.351317 85.873 -153.5854
4335.542421 85.899 -154.2903
4366.959549 85.920 -154.9999
4398.604338 85.935 -155.7121
4430.478438 85.945 -156.4235
4462.583511 85.949 -157.1298
4494.921231 85.947 -157.8262
4527.493283 85.940 -158.5078
4560.301365 85.928 -159.1703
4593.347189 85.912 -159.8102
4626.632476 85.893 -160.4253
4660.158962 85.870 -161.0148
4693.928395 85.846 -161.5790
4727.942535 85.821 -162.1195
4762.203156 85.794 -162.6389
4796.712043 85.768 -163.1407
4831.470996 85.740 -163.6286
4866.481826 85.713 -164.1056
4901.746360 85.684 -164.5738
4937.266434 85.655 -165.0346
4973.043902 85.624 -165.4892
5009.080628 85.593 -165.9389
5045.378492 85.560 -166.3848
5081.939384 85.527 -166.8264
5118.765212 85.493 -167.2622
5155.857894 85.458 -167.6903
5193.219366 85.422 -168.1089
5230.851574 85.384 -168.5161
5268.756481 85.345 -168.9102
5306.936062 85.305 -169.2897
5345.392309 85.263 -169.6537
5384.127225 85.220 -170.0018
5423.142830 85.176 -170.3332
5462.441159 85.132 -170.6473
5502.024259 85.087 -170.9434
5541.894195 85.041 -171.2208
5582.053045 84.996 -171.4790
5622.502902 84.950 -171.7174
5663.245876 84.905 -171.9357
5704.284090 84.861 -172.1341
5745.619684 84.818 -172.3129
5787.254813 84.775 -172.4730
5829.191647 84.734 -172.6150
5871.432373 84.695 -172.7394
5913.979192 84.658 -172.8468
5956.834323 84.622 -172.9382
6000.000000 84.589 -173.0143
6043.478473 84.558 -173.0759
6087.272010 84.530 -173.1237
6131.382892 84.504 -173.1584
6175.813420 84.481 -173.1804
6220.565910 84.462 -173.1909
6265.642695 84.446 -173.1908
6311.046124 84.434 -173.1819
6356.778566 84.427 -173.1659
6402.842404 84.424 -173.1454
6449.240040 84.426 -173.1230
6495.973891 84.433 -173.1020
6543.046396 84.446 -173.0856
6590.460007 84.464 -173.0774
6638.217197 84.487 -173.0811
6686.320456 84.516 -173.1006
6734.772290 84.550 -173.1394
6783.575226 84.588 -173.1995
6832.731809 84.631 -173.2801
6882.244600 84.676 -173.3773
6932.116181 84.726 -173.4854
6982.349153 84.779 -173.5980
7032.946133 84.838 -173.7103
7083.909760 84.905 -173.8206
7135.242690 84.980 -173.9314
7186.947600 85.067 -174.0499
7239.027185 85.169 -174.1884
7291.484160 85.287 -174.3649
7344.321260 85.422 -174.6014
7397.541239 85.575 -174.9230
7451.146872 85.745 -175.3555
7505.140954 85.930 -175.9233
7559.526299 86.128 -176.6491
7614.305743 86.335 -177.5540
7669.482141 86.548 -178.6577
7725.058371 86.764 -179.9779
7781.037328 86.979 178.4707
7837.421932 87.187 176.6761
7894.215122 87.384 174.6306
7951.419859 87.564 172.3314
8009.039125 87.720 169.7827
8067.075924 87.844 166.9969
8125.533282 87.931 163.9958
8184.414245 87.974 160.8110
8243.721885 87.967 157.4834
8303.459292 87.905 154.0611
8363.629581 87.787 150.5980
8424.235888 87.609 147.1513
8485.281374 87.374 143.7789
8546.769221 87.082 140.5369
8608.702634 86.737 137.4771
8671.084842 86.344 134.6444
8733.919097 85.910 132.0758
8797.208675 85.441 129.7985
8860.956876 84.944 127.8298
8925.167022 84.427 126.1774
8989.842461 83.896 124.8403
9054.986566 83.358 123.8097
9120.602731 82.819 123.0707
9186.694378 82.284 122.6042
9253.264952 81.758 122.3881
9320.317925 81.243 122.3988
9387.856790 80.741 122.6124
9455.885071 80.254 123.0061
9524.406312 79.781 123.5601
9593.424086 79.323 124.2579
9662.941992 78.879 125.0870
9732.963653 78.449 126.0375
9803.492719 78.033 127.1017
9874.532869 77.630 128.2720
9946.087805 77.241 129.5410
10018.161257 76.865 130.9008
10090.756983 76.503 132.3434
10163.878768 76.155 133.8614
10237.530423 75.820 135.4472
10311.715789 75.499 137.0941
10386.438732 75.190 138.7964
10461.703149 74.895 140.5500
10537.512962 74.611 142.3514
10613.872125 74.340 144.1980
10690.784618 74.080 146.0870
10768.254450 73.832 148.0157
10846.285661 73.595 149.9815
10924.882318 73.370 151.9814
11004.048518 73.156 154.0128
11083.788390 72.954 156.0722
11164.106090 72.763 158.1564
11245.005805 72.583 160.2614
11326.491752 72.415 162.3834
11408.568180 72.259 164.5186
11491.239368 72.114 166.6640
11574.509626 71.981 168.8169
11658.383294 71.859 170.9739
11742.864745 71.750 173.1322
11827.958384 71.653 175.2891
11913.668646 71.569 177.4420
12000.000000 71.498 179.5874
12086.956947 71.442 -178.2788
12174.544019 71.399 -176.1615
12262.765784 71.372 -174.0659
12351.626840 71.359 -171.9974
12441.131819 71.363 -169.9625
12531.285389 71.382 -167.9683
12622.092249 71.418 -166.0231
12713.557132 71.471 -164.1360
12805.684808 71.542 -162.3177
12898.480079 71.631 -160.5790
12991.947783 71.738 -158.9316
13086.092792 71.865 -157.3882
13180.920015 72.011 -155.9628
13276.434395 72.177 -154.6719
13372.640911 72.366 -153.5362
13469.544580 72.575 -152.5811
13567.150452 72.805 -151.8365
13665.463617 73.055 -151.3353
13764.489200 73.320 -151.1108
13864.232362 73.598 -151.1938
13964.698305 73.882 -151.6102
14065.892266 74.166 -152.3790
14167.819519 74.441 -153.5099
14270.485380 74.698 -155.0024
14373.895200 74.929 -156.8443
14478.054370 75.125 -159.0105
14582.968320 75.275 -161.4626
14688.642520 75.372 -164.1490
14795.082478 75.409 -167.0050
14902.293745 75.381 -169.9555
15010.281908 75.286 -172.9170
15119.052599 75.124 -175.8028
15228.611486 74.899 -178.5280
15338.964283 74.616 178.9841
15450.116741 74.285 176.7974
15562.074656 73.914 174.9607
15674.843864 73.515 173.5060
15788.430244 73.097 172.4502
15902.839718 72.671 171.7959
16018.078250 72.245 171.5334
16134.151848 71.829 171.6422
16251.066563 71.428 172.0933
16368.828491 71.048 172.8524
16487.443769 70.692 173.8828
16606.918584 70.362 175.1471
16727.259161 70.059 176.6113
16848.471777 69.783 178.2471
16970.562748 69.535 -179.9675
17093.538442 69.313 -178.0506
17217.405268 69.120 -176.0209
17342.169684 68.955 -173.9013
17467.838194 68.820 -171.7214
17594.417350 68.716 -169.5170
17721.913751 68.640 -167.3288
17850.334044 68.591 -165.2003
17979.684923 68.567 -163.1755
18109.973131 68.563 -161.2961
18241.205462 68.573 -159.5980
18373.388756 68.591 -158.1123
18506.529905 68.613 -156.8672
18640.635849 68.630 -155.8889
18775.713581 68.636 -155.2020
18911.770141 68.621 -154.8268
19048.812624 68.578 -154.7769
19186.848172 68.497 -155.0547
19325.883983 68.372 -155.6455
19465.927305 68.203 -156.5072
19606.985439 68.001 -157.5565
19749.065738 67.791 -158.6536
19892.175609 67.611 -159.5970
20036.322514 67.507 -160.1544
