* Measurement data measured by REW V5.31.3
* Source: Headset (CX31993 HIFI AUDIO), MICROPHONE (Master Volume), R, volume: 0.400
* Format: 256k Log Swept Sine, 1 sweep at -11.9 dBFS with no timing reference
* Dated: 05 26, 25 6:01:28 PM
* REW Settings:
*  C-weighting compensation: Off
*  Target level: 75.0 dB
* Note: ; 
* Measurement: Final A5000 nofilter L
* Smoothing: 1/12 octave
* Frequency Step: 96 ppo
* Start Frequency: 0.36621094 Hz
*
* Freq(Hz) SPL(dB) Phase(degrees)
0.366211 29.436 -154.0772
0.368865 29.459 -154.2640
0.371538 29.494 -154.5465
0.374230 29.537 -154.9057
0.376942 29.585 -155.3253
0.379673 29.637 -155.7934
0.382424 29.690 -156.3022
0.385196 29.746 -156.8473
0.387987 29.802 -157.4264
0.390798 29.858 -158.0387
0.393630 29.916 -158.6844
0.396483 29.973 -159.3642
0.399356 30.032 -160.0789
0.402250 30.090 -160.8298
0.405165 30.149 -161.6182
0.408101 30.209 -162.4452
0.411058 30.269 -163.3124
0.414037 30.329 -164.2212
0.417037 30.390 -165.1730
0.420059 30.451 -166.1692
0.423103 30.513 -167.2113
0.426169 30.575 -168.3009
0.429257 30.638 -169.4392
0.432368 30.701 -170.6278
0.435501 30.764 -171.8678
0.438656 30.828 -173.1608
0.441835 30.893 -174.5077
0.445037 30.957 -175.9096
0.448262 31.023 -177.3675
0.451510 31.089 -178.8820
0.454782 31.155 179.5462
0.458077 31.222 177.9171
0.461397 31.289 176.2304
0.464740 31.357 174.4868
0.468108 31.425 172.6867
0.471500 31.494 170.8312
0.474917 31.563 168.9220
0.478358 31.633 166.9608
0.481825 31.703 164.9501
0.485316 31.774 162.8927
0.488833 31.845 160.7918
0.492375 31.917 158.6513
0.495943 31.989 156.4752
0.499537 32.062 154.2681
0.503157 32.136 152.0347
0.506803 32.210 149.7803
0.510475 32.284 147.5101
0.514175 32.359 145.2294
0.517900 32.435 142.9438
0.521653 32.511 140.6585
0.525434 32.587 138.3788
0.529241 32.664 136.1097
0.533076 32.742 133.8560
0.536939 32.821 131.6219
0.540830 32.899 129.4115
0.544749 32.979 127.2285
0.548696 33.059 125.0758
0.552673 33.140 122.9564
0.556677 33.221 120.8724
0.560711 33.303 118.8257
0.564774 33.385 116.8177
0.568867 33.468 114.8495
0.572989 33.551 112.9217
0.577141 33.636 111.0348
0.581324 33.720 109.1888
0.585536 33.806 107.3836
0.589779 33.892 105.6189
0.594053 33.979 103.8940
0.598358 34.066 102.2084
0.602694 34.154 100.5612
0.607061 34.242 98.9514
0.611460 34.332 97.3782
0.615891 34.421 95.8405
0.620354 34.512 94.3372
0.624849 34.603 92.8672
0.629377 34.695 91.4294
0.633938 34.787 90.0229
0.638532 34.881 88.6465
0.643159 34.974 87.2991
0.647819 35.069 85.9798
0.652514 35.164 84.6875
0.657242 35.260 83.4214
0.662005 35.357 82.1805
0.666802 35.454 80.9639
0.671634 35.552 79.7708
0.676501 35.651 78.6005
0.681403 35.750 77.4521
0.686341 35.851 76.3251
0.691314 35.952 75.2189
0.696324 36.054 74.1330
0.701370 36.158 73.0671
0.706452 36.263 72.0213
0.711571 36.371 70.9960
0.716728 36.483 69.9922
0.721921 36.600 69.0118
0.727153 36.725 68.0577
0.732422 36.859 67.1339
0.737729 37.003 66.2446
0.743075 37.158 65.3932
0.748460 37.322 64.5822
0.753883 37.494 63.8118
0.759346 37.673 63.0814
0.764849 37.858 62.3893
0.770391 38.048 61.7333
0.775974 38.244 61.1111
0.781597 38.444 60.5200
0.787261 38.650 59.9577
0.792966 38.861 59.4218
0.798712 39.076 58.9101
0.804500 39.296 58.4204
0.810329 39.521 57.9508
0.816201 39.750 57.4994
0.822116 39.984 57.0644
0.828073 40.222 56.6441
0.834074 40.464 56.2371
0.840118 40.710 55.8419
0.846206 40.960 55.4571
0.852338 41.214 55.0815
0.858514 41.472 54.7140
0.864735 41.734 54.3532
0.871001 41.999 53.9984
0.877313 42.267 53.6484
0.883670 42.538 53.3024
0.890074 42.812 52.9594
0.896524 43.090 52.6187
0.903020 43.369 52.2796
0.909564 43.651 51.9413
0.916155 43.935 51.6031
0.922794 44.221 51.2644
0.929481 44.509 50.9247
0.936216 44.798 50.5833
0.943000 45.089 50.2397
0.949834 45.380 49.8935
0.956717 45.672 49.5441
0.963649 45.965 49.1912
0.970632 46.258 48.8342
0.977666 46.550 48.4729
0.984750 46.842 48.1068
0.991886 47.134 47.7356
0.999074 47.424 47.3590
1.006314 47.712 46.9767
1.013606 47.999 46.5883
1.020951 48.283 46.1936
1.028349 48.565 45.7924
1.035801 48.843 45.3846
1.043307 49.119 44.9698
1.050867 49.390 44.5481
1.058482 49.657 44.1195
1.066152 49.920 43.6843
1.073878 50.177 43.2430
1.081660 50.430 42.7964
1.089498 50.678 42.3462
1.097393 50.922 41.8943
1.105345 51.161 41.4431
1.113355 51.396 40.9951
1.121423 51.627 40.5522
1.129549 51.856 40.1156
1.137734 52.081 39.6859
1.145979 52.303 39.2634
1.154283 52.523 38.8478
1.162647 52.740 38.4388
1.171072 52.954 38.0361
1.179558 53.165 37.6390
1.188106 53.375 37.2472
1.196715 53.581 36.8600
1.205387 53.786 36.4769
1.214122 53.988 36.0975
1.222920 54.188 35.7211
1.231782 54.386 35.3472
1.240708 54.582 34.9755
1.249699 54.776 34.6053
1.258754 54.968 34.2361
1.267876 55.159 33.8676
1.277063 55.348 33.4992
1.286318 55.536 33.1305
1.295639 55.722 32.7610
1.305027 55.907 32.3904
1.314484 56.091 32.0181
1.324009 56.275 31.6437
1.333604 56.457 31.2669
1.343268 56.639 30.8872
1.353002 56.821 30.5042
1.362806 57.003 30.1176
1.372681 57.185 29.7269
1.382628 57.367 29.3318
1.392647 57.549 28.9319
1.402739 57.732 28.5270
1.412904 57.916 28.1169
1.423142 58.101 27.7014
1.433455 58.287 27.2808
1.443843 58.473 26.8552
1.454305 58.661 26.4257
1.464844 58.849 25.9933
1.475459 59.036 25.5593
1.486150 59.224 25.1254
1.496920 59.410 24.6923
1.507767 59.596 24.2610
1.518693 59.780 23.8317
1.529698 59.963 23.4044
1.540783 60.145 22.9790
1.551948 60.326 22.5553
1.563194 60.505 22.1329
1.574521 60.683 21.7114
1.585931 60.859 21.2905
1.597423 61.035 20.8698
1.608999 61.210 20.4489
1.620658 61.383 20.0272
1.632402 61.556 19.6046
1.644232 61.727 19.1804
1.656146 61.898 18.7545
1.668147 62.068 18.3262
1.680235 62.238 17.8953
1.692411 62.407 17.4612
1.704675 62.575 17.0237
1.717028 62.743 16.5823
1.729470 62.910 16.1366
1.742003 63.078 15.6863
1.754626 63.245 15.2309
1.767341 63.412 14.7701
1.780147 63.579 14.3039
1.793047 63.746 13.8319
1.806040 63.914 13.3542
1.819128 64.081 12.8711
1.832310 64.247 12.3831
1.845587 64.413 11.8907
1.858961 64.579 11.3951
1.872432 64.744 10.8968
1.886001 64.907 10.3964
1.899667 65.070 9.8944
1.913433 65.231 9.3912
1.927299 65.392 8.8870
1.941265 65.551 8.3818
1.955332 65.710 7.8760
1.969501 65.867 7.3694
1.983773 66.024 6.8623
1.998148 66.179 6.3544
2.012627 66.334 5.8459
2.027212 66.489 5.3367
2.041902 66.642 4.8265
2.056698 66.795 4.3155
2.071602 66.947 3.8033
2.086614 67.099 3.2898
2.101734 67.250 2.7748
2.116964 67.401 2.2582
2.132304 67.552 1.7396
2.147756 67.703 1.2188
2.163320 67.853 0.6956
2.178996 68.002 0.1697
2.194786 68.152 -0.3591
2.210690 68.300 -0.8907
2.226710 68.448 -1.4252
2.242845 68.595 -1.9624
2.259098 68.741 -2.5021
2.275468 68.886 -3.0438
2.291957 69.030 -3.5875
2.308566 69.173 -4.1327
2.325295 69.315 -4.6791
2.342145 69.457 -5.2264
2.359117 69.597 -5.7744
2.376212 69.736 -6.3229
2.393431 69.875 -6.8717
2.410775 70.013 -7.4207
2.428244 70.151 -7.9697
2.445840 70.287 -8.5187
2.463564 70.424 -9.0676
2.481416 70.559 -9.6165
2.499397 70.695 -10.1654
2.517509 70.830 -10.7146
2.535752 70.964 -11.2644
2.554127 71.098 -11.8151
2.572635 71.232 -12.3671
2.591277 71.364 -12.9208
2.610055 71.496 -13.4764
2.628968 71.627 -14.0341
2.648019 71.757 -14.5936
2.667208 71.885 -15.1547
2.686535 72.013 -15.7172
2.706003 72.141 -16.2804
2.725612 72.267 -16.8443
2.745363 72.392 -17.4083
2.765257 72.517 -17.9722
2.785295 72.641 -18.5355
2.805478 72.765 -19.0981
2.825808 72.888 -19.6598
2.846285 73.011 -20.2203
2.866910 73.133 -20.7796
2.887685 73.254 -21.3378
2.908611 73.375 -21.8951
2.929688 73.496 -22.4520
2.950917 73.616 -23.0089
2.972301 73.735 -23.5662
2.993839 73.854 -24.1241
3.015534 73.972 -24.6829
3.037386 74.089 -25.2424
3.059396 74.205 -25.8023
3.081565 74.320 -26.3624
3.103896 74.435 -26.9225
3.126388 74.549 -27.4821
3.149043 74.662 -28.0410
3.171862 74.775 -28.5989
3.194847 74.887 -29.1556
3.217998 75.000 -29.7109
3.241317 75.111 -30.2646
3.264805 75.223 -30.8171
3.288463 75.334 -31.3683
3.312293 75.444 -31.9185
3.336295 75.554 -32.4683
3.360471 75.664 -33.0177
3.384822 75.772 -33.5671
3.409350 75.881 -34.1165
3.434056 75.988 -34.6657
3.458940 76.095 -35.2148
3.484005 76.202 -35.7635
3.509252 76.308 -36.3118
3.534681 76.413 -36.8595
3.560295 76.519 -37.4065
3.586094 76.624 -37.9527
3.612081 76.728 -38.4980
3.638255 76.833 -39.0427
3.664620 76.937 -39.5867
3.691175 77.041 -40.1304
3.717923 77.144 -40.6738
3.744864 77.247 -41.2172
3.772001 77.350 -41.7606
3.799335 77.452 -42.3041
3.826866 77.554 -42.8478
3.854597 77.655 -43.3917
3.882529 77.756 -43.9357
3.910664 77.856 -44.4800
3.939002 77.957 -45.0244
3.967546 78.057 -45.5692
3.996296 78.156 -46.1144
4.025255 78.256 -46.6602
4.054423 78.355 -47.2066
4.083804 78.454 -47.7538
4.113396 78.552 -48.3020
4.143204 78.650 -48.8511
4.173227 78.747 -49.4012
4.203468 78.845 -49.9521
4.233928 78.941 -50.5040
4.264609 79.038 -51.0569
4.295512 79.133 -51.6107
4.326639 79.229 -52.1655
4.357992 79.324 -52.7217
4.389572 79.418 -53.2792
4.421380 79.512 -53.8384
4.453419 79.606 -54.3993
4.485691 79.699 -54.9620
4.518196 79.791 -55.5266
4.550936 79.883 -56.0926
4.583914 79.974 -56.6600
4.617131 80.065 -57.2284
4.650589 80.155 -57.7979
4.684289 80.245 -58.3682
4.718233 80.333 -58.9394
4.752424 80.421 -59.5118
4.786862 80.509 -60.0856
4.821549 80.595 -60.6609
4.856488 80.681 -61.2379
4.891680 80.766 -61.8163
4.927127 80.851 -62.3959
4.962831 80.934 -62.9761
4.998794 81.017 -63.5565
5.035017 81.099 -64.1368
5.071503 81.180 -64.7167
5.108253 81.260 -65.2963
5.145270 81.339 -65.8756
5.182555 81.418 -66.4551
5.220110 81.495 -67.0347
5.257937 81.572 -67.6144
5.296038 81.648 -68.1938
5.334415 81.723 -68.7723
5.373071 81.797 -69.3495
5.412006 81.870 -69.9249
5.451224 81.943 -70.4980
5.490725 82.014 -71.0690
5.530514 82.085 -71.6379
5.570590 82.155 -72.2050
5.610957 82.224 -72.7701
5.651616 82.292 -73.3334
5.692570 82.360 -73.8943
5.733821 82.427 -74.4526
5.775370 82.493 -75.0078
5.817221 82.559 -75.5598
5.859375 82.624 -76.1083
5.901834 82.688 -76.6535
5.944602 82.752 -77.1955
5.987679 82.816 -77.7344
6.031068 82.879 -78.2704
6.074771 82.941 -78.8033
6.118792 83.003 -79.3334
6.163131 83.065 -79.8604
6.207792 83.127 -80.3842
6.252776 83.188 -80.9050
6.298086 83.249 -81.4229
6.343725 83.310 -81.9381
6.389694 83.371 -82.4509
6.435996 83.432 -82.9617
6.482634 83.492 -83.4706
6.529610 83.552 -83.9779
6.576926 83.613 -84.4838
6.624585 83.673 -84.9886
6.672590 83.733 -85.4923
6.720942 83.793 -85.9951
6.769645 83.853 -86.4975
6.818700 83.913 -86.9996
6.868111 83.973 -87.5020
6.917881 84.032 -88.0048
6.968010 84.092 -88.5083
7.018504 84.151 -89.0127
7.069362 84.211 -89.5181
7.120590 84.270 -90.0245
7.172189 84.329 -90.5321
7.224161 84.387 -91.0410
7.276511 84.445 -91.5514
7.329239 84.503 -92.0632
7.382350 84.560 -92.5768
7.435845 84.617 -93.0918
7.489729 84.673 -93.6083
7.544002 84.729 -94.1261
7.598669 84.785 -94.6450
7.653732 84.839 -95.1647
7.709194 84.893 -95.6852
7.765058 84.947 -96.2065
7.821327 85.000 -96.7283
7.878004 85.052 -97.2504
7.935091 85.103 -97.7724
7.992592 85.154 -98.2941
8.050510 85.204 -98.8151
8.108847 85.254 -99.3353
8.167607 85.303 -99.8546
8.226793 85.351 -100.3729
8.286408 85.399 -100.8900
8.346454 85.446 -101.4056
8.406936 85.493 -101.9197
8.467856 85.539 -102.4321
8.529218 85.585 -102.9430
8.591024 85.631 -103.4524
8.653278 85.677 -103.9604
8.715983 85.722 -104.4672
8.779143 85.767 -104.9728
8.842760 85.811 -105.4774
8.906839 85.856 -105.9813
8.971381 85.900 -106.4847
9.036392 85.944 -106.9880
9.101873 85.988 -107.4915
9.167829 86.032 -107.9955
9.234263 86.076 -108.5001
9.301178 86.120 -109.0057
9.368578 86.163 -109.5125
9.436467 86.206 -110.0206
9.504847 86.249 -110.5304
9.573723 86.291 -111.0418
9.643099 86.333 -111.5551
9.712976 86.375 -112.0699
9.783361 86.416 -112.5863
9.854255 86.456 -113.1041
9.925663 86.495 -113.6232
9.997588 86.534 -114.1432
10.070035 86.573 -114.6638
10.143007 86.610 -115.1846
10.216507 86.647 -115.7052
10.290540 86.683 -116.2250
10.365109 86.718 -116.7437
10.440219 86.752 -117.2609
10.515873 86.785 -117.7761
10.592076 86.818 -118.2888
10.668830 86.851 -118.7987
10.746141 86.882 -119.3055
10.824012 86.913 -119.8091
10.902447 86.944 -120.3094
10.981451 86.975 -120.8062
11.061027 87.005 -121.2996
11.141180 87.035 -121.7898
11.221913 87.065 -122.2771
11.303232 87.095 -122.7617
11.385140 87.124 -123.2443
11.467641 87.154 -123.7249
11.550741 87.184 -124.2043
11.634442 87.214 -124.6829
11.718750 87.244 -125.1613
11.803669 87.274 -125.6398
11.889203 87.304 -126.1188
11.975357 87.334 -126.5988
12.062136 87.363 -127.0797
12.149543 87.392 -127.5620
12.237583 87.421 -128.0454
12.326262 87.449 -128.5298
12.415583 87.477 -129.0151
12.505552 87.504 -129.5010
12.596172 87.530 -129.9868
12.687449 87.556 -130.4724
12.779387 87.580 -130.9569
12.871992 87.605 -131.4399
12.965268 87.628 -131.9210
13.059220 87.651 -132.3997
13.153852 87.673 -132.8755
13.249170 87.694 -133.3483
13.345179 87.715 -133.8177
13.441884 87.736 -134.2840
13.539289 87.756 -134.7471
13.637401 87.776 -135.2074
13.736223 87.796 -135.6652
13.835761 87.816 -136.1210
13.936021 87.835 -136.5753
14.037007 87.855 -137.0288
14.138725 87.874 -137.4819
14.241180 87.893 -137.9351
14.344377 87.912 -138.3887
14.448323 87.930 -138.8430
14.553021 87.948 -139.2980
14.658478 87.965 -139.7535
14.764700 87.982 -140.2095
14.871691 87.997 -140.6651
14.979457 88.012 -141.1199
15.088005 88.026 -141.5731
15.197339 88.039 -142.0240
15.307465 88.051 -142.4718
15.418389 88.062 -142.9158
15.530117 88.073 -143.3556
15.642655 88.083 -143.7908
15.756008 88.093 -144.2213
15.870182 88.103 -144.6473
15.985184 88.112 -145.0694
16.101019 88.122 -145.4883
16.217694 88.132 -145.9048
16.335214 88.143 -146.3203
16.453586 88.153 -146.7358
16.572815 88.164 -147.1523
16.692909 88.175 -147.5711
16.813872 88.186 -147.9927
16.935713 88.196 -148.4177
17.058436 88.206 -148.8462
17.182048 88.216 -149.2779
17.306556 88.225 -149.7121
17.431967 88.233 -150.1480
17.558286 88.239 -150.5844
17.685521 88.245 -151.0198
17.813677 88.250 -151.4532
17.942762 88.254 -151.8834
18.072783 88.257 -152.3094
18.203746 88.260 -152.7310
18.335658 88.263 -153.1476
18.468526 88.266 -153.5599
18.602356 88.268 -153.9685
18.737156 88.271 -154.3744
18.872934 88.275 -154.7786
19.009695 88.279 -155.1825
19.147447 88.283 -155.5869
19.286197 88.287 -155.9926
19.425953 88.291 -156.3998
19.566721 88.295 -156.8085
19.708510 88.298 -157.2180
19.851326 88.301 -157.6274
19.995177 88.304 -158.0358
20.140070 88.306 -158.4420
20.286013 88.307 -158.8452
20.433014 88.309 -159.2454
20.581080 88.311 -159.6429
20.730219 88.314 -160.0387
20.880439 88.317 -160.4346
21.031747 88.321 -160.8327
21.184152 88.325 -161.2354
21.337661 88.329 -161.6449
21.492282 88.333 -162.0627
21.648024 88.336 -162.4894
21.804895 88.338 -162.9243
21.962902 88.337 -163.3653
22.122054 88.334 -163.8091
22.282360 88.328 -164.2510
22.443827 88.319 -164.6858
22.606464 88.307 -165.1083
22.770280 88.293 -165.5135
22.935283 88.277 -165.8981
23.101481 88.261 -166.2598
23.268884 88.245 -166.5991
23.437500 88.230 -166.9182
23.607338 88.218 -167.2214
23.778406 88.208 -167.5144
23.950714 88.201 -167.8038
24.124271 88.197 -168.0958
24.299086 88.194 -168.3956
24.475167 88.193 -168.7068
24.652524 88.192 -169.0312
24.831166 88.191 -169.3682
25.011103 88.188 -169.7158
25.192344 88.184 -170.0704
25.374898 88.178 -170.4285
25.558775 88.170 -170.7861
25.743984 88.161 -171.1406
25.930536 88.150 -171.4902
26.118439 88.139 -171.8344
26.307704 88.128 -172.1740
26.498341 88.117 -172.5102
26.690359 88.105 -172.8447
26.883768 88.094 -173.1788
27.078579 88.082 -173.5134
27.274801 88.069 -173.8486
27.472446 88.057 -174.1837
27.671522 88.043 -174.5178
27.872042 88.029 -174.8498
28.074014 88.014 -175.1790
28.277450 88.000 -175.5049
28.482360 87.985 -175.8279
28.688755 87.970 -176.1484
28.896645 87.955 -176.4674
29.106042 87.941 -176.7858
29.316957 87.926 -177.1042
29.529400 87.912 -177.4231
29.743382 87.897 -177.7424
29.958915 87.882 -178.0618
30.176009 87.866 -178.3807
30.394677 87.850 -178.6984
30.614929 87.834 -179.0141
30.836778 87.817 -179.3271
31.060234 87.801 -179.6367
31.285309 87.783 -179.9424
31.512015 87.766 179.7559
31.740364 87.749 179.4579
31.970368 87.732 179.1628
32.202039 87.716 178.8694
32.435388 87.700 178.5760
32.670428 87.684 178.2811
32.907171 87.668 177.9841
33.145630 87.651 177.6849
33.385817 87.634 177.3851
33.627745 87.615 177.0869
33.871425 87.595 176.7928
34.116871 87.575 176.5051
34.364096 87.555 176.2249
34.613113 87.534 175.9514
34.863934 87.514 175.6829
35.116572 87.495 175.4163
35.371041 87.476 175.1487
35.627354 87.457 174.8784
35.885525 87.438 174.6050
36.145566 87.417 174.3300
36.407492 87.396 174.0562
36.671316 87.374 173.7859
36.937051 87.351 173.5210
37.204712 87.329 173.2614
37.474313 87.306 173.0055
37.745867 87.284 172.7508
38.019389 87.262 172.4949
38.294893 87.240 172.2362
38.572394 87.217 171.9750
38.851905 87.193 171.7126
39.133442 87.169 171.4514
39.417019 87.144 171.1933
39.702651 87.119 170.9392
39.990353 87.094 170.6886
40.280140 87.069 170.4396
40.572026 87.044 170.1895
40.866028 87.020 169.9363
41.162160 86.996 169.6789
41.460438 86.971 169.4180
41.760877 86.945 169.1560
42.063494 86.918 168.8961
42.368303 86.890 168.6413
42.675322 86.863 168.3930
42.984565 86.835 168.1505
43.296048 86.809 167.9109
43.609789 86.783 167.6702
43.925804 86.758 167.4252
44.244108 86.732 167.1754
44.564719 86.705 166.9238
44.887654 86.675 166.6764
45.212928 86.645 166.4399
45.540560 86.613 166.2195
45.870565 86.582 166.0164
46.202962 86.552 165.8278
46.537768 86.524 165.6479
46.875000 86.497 165.4703
47.214676 86.472 165.2902
47.556813 86.447 165.1058
47.901429 86.421 164.9180
48.248542 86.395 164.7288
48.598171 86.369 164.5399
48.950334 86.341 164.3525
49.305048 86.313 164.1669
49.662333 86.285 163.9831
50.022206 86.256 163.8010
50.384688 86.226 163.6205
50.749796 86.197 163.4410
51.117550 86.166 163.2621
51.487969 86.136 163.0831
51.861072 86.105 162.9037
52.236879 86.074 162.7238
52.615409 86.043 162.5438
52.996681 86.011 162.3638
53.380717 85.979 162.1838
53.767536 85.947 162.0040
54.157158 85.915 161.8244
54.549603 85.883 161.6458
54.944892 85.851 161.4688
55.343045 85.818 161.2943
55.744084 85.786 161.1221
56.148028 85.755 160.9518
56.554900 85.724 160.7822
56.964720 85.693 160.6123
57.377510 85.663 160.4420
57.793291 85.632 160.2726
58.212085 85.600 160.1064
58.633914 85.568 159.9464
59.058799 85.536 159.7944
59.486764 85.504 159.6508
59.917829 85.472 159.5142
60.352019 85.441 159.3824
60.789354 85.410 159.2532
61.229859 85.378 159.1253
61.673556 85.346 158.9988
62.120468 85.312 158.8749
62.570618 85.277 158.7545
63.024031 85.242 158.6384
63.480729 85.205 158.5266
63.940736 85.167 158.4188
64.404077 85.128 158.3143
64.870776 85.089 158.2111
65.340856 85.049 158.1068
65.814343 85.009 158.0007
66.291261 84.969 157.8951
66.771635 84.929 157.7932
67.255489 84.891 157.6944
67.742850 84.857 157.5907
68.233743 84.826 157.4695
68.728193 84.797 157.3210
69.226226 84.769 157.1447
69.727867 84.739 156.9493
70.233144 84.707 156.7488
70.742083 84.672 156.5574
71.254709 84.636 156.3868
71.771050 84.600 156.2433
72.291132 84.566 156.1262
72.814984 84.533 156.0284
73.342631 84.503 155.9408
73.874102 84.473 155.8582
74.409424 84.444 155.7794
74.948626 84.414 155.7048
75.491734 84.383 155.6334
76.038779 84.353 155.5630
76.589787 84.321 155.4915
77.144788 84.288 155.4174
77.703811 84.255 155.3400
78.266885 84.221 155.2597
78.834039 84.186 155.1784
79.405303 84.150 155.0978
79.980706 84.115 155.0183
80.560280 84.081 154.9395
81.144053 84.046 154.8611
81.732056 84.013 154.7833
82.324320 83.979 154.7068
82.920876 83.946 154.6324
83.521755 83.913 154.5608
84.126988 83.879 154.4927
84.736607 83.846 154.4285
85.350643 83.811 154.3679
85.969129 83.777 154.3101
86.592097 83.741 154.2544
87.219579 83.706 154.2006
87.851608 83.669 154.1491
88.488217 83.633 154.1004
89.129439 83.596 154.0553
89.775308 83.561 154.0139
90.425856 83.526 153.9747
91.081119 83.492 153.9338
91.741131 83.460 153.8869
92.405925 83.428 153.8317
93.075536 83.395 153.7695
93.750000 83.362 153.7042
94.429351 83.327 153.6399
95.113625 83.291 153.5798
95.802858 83.255 153.5252
96.497085 83.219 153.4769
97.196342 83.182 153.4351
97.900667 83.146 153.3987
98.610096 83.111 153.3658
99.324665 83.077 153.3346
100.044413 83.043 153.3051
100.769376 83.010 153.2780
101.499592 82.978 153.2540
102.235100 82.946 153.2330
102.975938 82.914 153.2144
103.722144 82.883 153.1973
104.473757 82.851 153.1808
105.230817 82.819 153.1643
105.993363 82.786 153.1469
106.761435 82.752 153.1284
107.535072 82.718 153.1092
108.314315 82.684 153.0901
109.099206 82.650 153.0716
109.889783 82.617 153.0538
110.686090 82.584 153.0369
111.488167 82.552 153.0220
112.296056 82.520 153.0114
113.109800 82.489 153.0075
113.929440 82.456 153.0117
114.755020 82.423 153.0242
115.586582 82.390 153.0437
116.424170 82.354 153.0688
117.267827 82.318 153.0983
118.117598 82.281 153.1305
118.973527 82.245 153.1613
119.835658 82.210 153.1821
120.704037 82.177 153.1846
121.578708 82.145 153.1675
122.459718 82.113 153.1376
123.347111 82.082 153.1036
124.240935 82.051 153.0718
125.141236 82.022 153.0460
126.048061 81.993 153.0284
126.961458 81.964 153.0213
127.881473 81.936 153.0255
128.808154 81.907 153.0403
129.741551 81.877 153.0646
130.681712 81.846 153.0991
131.628686 81.813 153.1459
132.582521 81.780 153.2050
133.543269 81.747 153.2711
134.510979 81.715 153.3326
135.485701 81.684 153.3770
136.467486 81.653 153.3983
137.456386 81.621 153.4017
138.452451 81.587 153.3984
139.455735 81.553 153.3968
140.466288 81.519 153.4001
141.484165 81.485 153.4088
142.509418 81.453 153.4226
143.542100 81.420 153.4411
144.582265 81.388 153.4636
145.629968 81.357 153.4893
146.685262 81.325 153.5171
147.748204 81.293 153.5462
148.818849 81.262 153.5764
149.897251 81.231 153.6080
150.983469 81.200 153.6415
152.077557 81.170 153.6770
153.179574 81.139 153.7148
154.289576 81.109 153.7546
155.407622 81.079 153.7969
156.533770 81.049 153.8424
157.668078 81.018 153.8914
158.810606 80.987 153.9429
159.961413 80.956 153.9955
161.120559 80.926 154.0490
162.288105 80.896 154.1031
163.464112 80.867 154.1578
164.648640 80.838 154.2136
165.841752 80.809 154.2709
167.043510 80.780 154.3292
168.253976 80.751 154.3871
169.473213 80.721 154.4426
170.701286 80.691 154.4941
171.938258 80.661 154.5417
173.184194 80.630 154.5878
174.439158 80.599 154.6355
175.703216 80.569 154.6876
176.976434 80.539 154.7449
178.258878 80.510 154.8067
179.550615 80.481 154.8721
180.851713 80.453 154.9400
182.162239 80.424 155.0094
183.482262 80.395 155.0791
184.811850 80.366 155.1485
186.151073 80.337 155.2177
187.500000 80.308 155.2875
188.858702 80.279 155.3589
190.227250 80.250 155.4330
191.605715 80.221 155.5104
192.994169 80.192 155.5917
194.392685 80.164 155.6771
195.801334 80.137 155.7659
197.220191 80.111 155.8566
198.649330 80.084 155.9471
200.088825 80.058 156.0357
201.538751 80.031 156.1206
202.999184 80.003 156.2015
204.470200 79.974 156.2797
205.951875 79.944 156.3579
207.444287 79.913 156.4388
208.947514 79.883 156.5240
210.461634 79.853 156.6147
211.986726 79.825 156.7103
213.522869 79.799 156.8090
215.070144 79.776 156.9083
216.628631 79.755 157.0063
218.198411 79.734 157.1012
219.779567 79.713 157.1923
221.372180 79.692 157.2787
222.976334 79.670 157.3582
224.592112 79.648 157.4272
226.219600 79.626 157.4838
227.858880 79.603 157.5315
229.510039 79.579 157.5797
231.173164 79.555 157.6382
232.848340 79.532 157.7136
234.535655 79.510 157.8095
236.235197 79.489 157.9234
237.947054 79.469 158.0466
239.671317 79.448 158.1682
241.408074 79.425 158.2819
243.157416 79.399 158.3892
244.919435 79.369 158.4924
246.694223 79.339 158.5900
248.481871 79.310 158.6777
250.282473 79.282 158.7536
252.096123 79.256 158.8215
253.922915 79.231 158.8885
255.762945 79.205 158.9606
257.616309 79.177 159.0402
259.483103 79.149 159.1263
261.363424 79.120 159.2178
263.257372 79.090 159.3135
265.165043 79.062 159.4125
267.086538 79.036 159.5125
269.021957 79.012 159.6107
270.971401 78.990 159.7068
272.934972 78.969 159.8024
274.912771 78.949 159.8988
276.904902 78.928 159.9987
278.911469 78.906 160.1062
280.932577 78.883 160.2249
282.968330 78.859 160.3536
285.018835 78.834 160.4839
287.084199 78.809 160.6031
289.164530 78.783 160.7026
291.259935 78.758 160.7853
293.370525 78.733 160.8629
295.496408 78.708 160.9454
297.637697 78.683 161.0363
299.794503 78.658 161.1331
301.966937 78.633 161.2327
304.155114 78.608 161.3329
306.359147 78.583 161.4339
308.579152 78.557 161.5367
310.815244 78.531 161.6429
313.067539 78.505 161.7533
315.336156 78.479 161.8680
317.621211 78.454 161.9860
319.922826 78.429 162.1059
322.241118 78.404 162.2274
324.576210 78.379 162.3513
326.928223 78.354 162.4789
329.297280 78.329 162.6105
331.683504 78.304 162.7453
334.087019 78.279 162.8821
336.507952 78.253 163.0199
338.946427 78.228 163.1568
341.402572 78.203 163.2900
343.876516 78.177 163.4173
346.368387 78.152 163.5401
348.878315 78.126 163.6626
351.406431 78.100 163.7894
353.952867 78.074 163.9227
356.517756 78.049 164.0622
359.101230 78.024 164.2059
361.703426 77.999 164.3524
364.324478 77.974 164.5010
366.964523 77.948 164.6518
369.623699 77.922 164.8047
372.302145 77.895 164.9595
375.000000 77.868 165.1161
377.717405 77.841 165.2751
380.454501 77.813 165.4378
383.211431 77.786 165.6050
385.988339 77.758 165.7772
388.785369 77.729 165.9551
391.602668 77.701 166.1401
394.440383 77.672 166.3337
397.298660 77.643 166.5371
400.177650 77.614 166.7515
403.077502 77.585 166.9780
405.998368 77.557 167.2180
408.940400 77.529 167.4727
411.903750 77.503 167.7418
414.888575 77.480 168.0244
417.895028 77.459 168.3195
420.923268 77.442 168.6259
423.973452 77.429 168.9391
427.045738 77.421 169.2492
430.140287 77.418 169.5432
433.257261 77.419 169.8092
436.396822 77.423 170.0406
439.559133 77.431 170.2361
442.744360 77.438 170.3973
445.952668 77.445 170.5273
449.184225 77.448 170.6292
452.439199 77.448 170.7075
455.717760 77.442 170.7700
459.020079 77.432 170.8254
462.346327 77.417 170.8821
465.696680 77.400 170.9461
469.071310 77.381 171.0220
472.470394 77.360 171.1124
475.894109 77.338 171.2194
479.342634 77.316 171.3434
482.816148 77.294 171.4822
486.314833 77.271 171.6317
489.838871 77.249 171.7875
493.388445 77.226 171.9468
496.963741 77.204 172.1089
500.564945 77.181 172.2739
504.192245 77.158 172.4429
507.845830 77.135 172.6174
511.525890 77.111 172.7987
515.232618 77.087 172.9865
518.966206 77.063 173.1793
522.726849 77.039 173.3761
526.514743 77.015 173.5768
530.330086 76.992 173.7817
534.173076 76.969 173.9914
538.043915 76.946 174.2062
541.942803 76.924 174.4255
545.869944 76.902 174.6479
549.825542 76.880 174.8724
553.809805 76.858 175.0989
557.822939 76.836 175.3275
561.865154 76.814 175.5583
565.936660 76.793 175.7913
570.037671 76.772 176.0269
574.168399 76.751 176.2657
578.329060 76.730 176.5076
582.519870 76.709 176.7528
586.741049 76.689 177.0020
590.992817 76.669 177.2552
595.275394 76.649 177.5126
599.589005 76.630 177.7738
603.933874 76.612 178.0396
608.310228 76.594 178.3104
612.718295 76.575 178.5861
617.158304 76.557 178.8654
621.630488 76.538 179.1467
626.135079 76.519 179.4296
630.672311 76.501 179.7141
635.242423 76.483 -179.9988
639.845651 76.465 -179.7084
644.482237 76.449 -179.4140
649.152421 76.432 -179.1158
653.856447 76.417 -178.8132
658.594560 76.401 -178.5060
663.367008 76.386 -178.1940
668.174039 76.371 -177.8773
673.015903 76.357 -177.5565
677.892854 76.343 -177.2319
682.805145 76.330 -176.9038
687.753032 76.317 -176.5720
692.736774 76.305 -176.2360
697.756631 76.293 -175.8947
702.812863 76.281 -175.5475
707.905735 76.270 -175.1947
713.035511 76.259 -174.8373
718.202461 76.248 -174.4766
723.406852 76.238 -174.1133
728.648956 76.229 -173.7480
733.929047 76.221 -173.3809
739.247399 76.213 -173.0112
744.604290 76.206 -172.6386
750.000000 76.201 -172.2629
755.434809 76.196 -171.8848
760.909001 76.192 -171.5043
766.422861 76.189 -171.1206
771.976677 76.187 -170.7328
777.570739 76.185 -170.3405
783.205337 76.185 -169.9437
788.880766 76.185 -169.5425
794.597321 76.186 -169.1368
800.355301 76.188 -168.7267
806.155005 76.191 -168.3127
811.996736 76.195 -167.8952
817.880799 76.200 -167.4741
823.807501 76.206 -167.0499
829.777150 76.214 -166.6238
835.790057 76.223 -166.1969
841.846536 76.233 -165.7694
847.946903 76.245 -165.3408
854.091476 76.258 -164.9103
860.280575 76.273 -164.4779
866.514523 76.288 -164.0446
872.793644 76.305 -163.6118
879.118267 76.324 -163.1804
885.488720 76.344 -162.7505
891.905336 76.366 -162.3219
898.368450 76.389 -161.8944
904.878398 76.414 -161.4683
911.435520 76.440 -161.0446
918.040157 76.467 -160.6235
924.692655 76.497 -160.2054
931.393359 76.527 -159.7905
938.142619 76.560 -159.3795
944.940787 76.594 -158.9733
951.788218 76.630 -158.5724
958.685268 76.668 -158.1770
965.632296 76.708 -157.7876
972.629666 76.749 -157.4049
979.677741 76.792 -157.0298
986.776890 76.837 -156.6625
993.927482 76.883 -156.3033
1001.129891 76.931 -155.9532
1008.384491 76.981 -155.6136
1015.691660 77.031 -155.2864
1023.051781 77.083 -154.9733
1030.465236 77.137 -154.6765
1037.932411 77.192 -154.3978
1045.453698 77.249 -154.1388
1053.029486 77.307 -153.9014
1060.660172 77.367 -153.6885
1068.346153 77.429 -153.5046
1076.087829 77.493 -153.3563
1083.885605 77.557 -153.2520
1091.739887 77.621 -153.2019
1099.651084 77.682 -153.2167
1107.619609 77.738 -153.3047
1115.645878 77.784 -153.4674
1123.730308 77.814 -153.6922
1131.873321 77.824 -153.9467
1140.075341 77.809 -154.1746
1148.336797 77.771 -154.3019
1156.658119 77.717 -154.2551
1165.039741 77.658 -153.9909
1173.482099 77.608 -153.5186
1181.985634 77.581 -152.8983
1190.550789 77.580 -152.2155
1199.178011 77.604 -151.5490
1207.867749 77.647 -150.9515
1216.620457 77.704 -150.4468
1225.436590 77.768 -150.0371
1234.316609 77.834 -149.7133
1243.260976 77.900 -149.4611
1252.270157 77.965 -149.2664
1261.344623 78.026 -149.1171
1270.484846 78.084 -149.0038
1279.691303 78.139 -148.9199
1288.964474 78.189 -148.8609
1298.304842 78.234 -148.8237
1307.712894 78.275 -148.8058
1317.189120 78.310 -148.8041
1326.734016 78.340 -148.8149
1336.348077 78.364 -148.8326
1346.031806 78.381 -148.8503
1355.785708 78.392 -148.8595
1365.610290 78.397 -148.8508
1375.506065 78.396 -148.8150
1385.473549 78.389 -148.7443
1395.513261 78.379 -148.6326
1405.625726 78.366 -148.4754
1415.811469 78.351 -148.2709
1426.071023 78.336 -148.0193
1436.404921 78.323 -147.7238
1446.813703 78.312 -147.3890
1457.297912 78.305 -147.0214
1467.858093 78.302 -146.6278
1478.494798 78.304 -146.2154
1489.208581 78.310 -145.7908
1500.000000 78.320 -145.3599
1510.869618 78.335 -144.9274
1521.818002 78.353 -144.4974
1532.845723 78.375 -144.0729
1543.953355 78.399 -143.6555
1555.141477 78.425 -143.2456
1566.410674 78.454 -142.8434
1577.761531 78.484 -142.4481
1589.194642 78.515 -142.0588
1600.710601 78.546 -141.6749
1612.310010 78.579 -141.2959
1623.993473 78.612 -140.9215
1635.761599 78.645 -140.5511
1647.615002 78.678 -140.1835
1659.554299 78.712 -139.8175
1671.580114 78.745 -139.4519
1683.693072 78.779 -139.0859
1695.893807 78.812 -138.7181
1708.182952 78.845 -138.3469
1720.561150 78.878 -137.9706
1733.029045 78.911 -137.5879
1745.587288 78.944 -137.1974
1758.236533 78.977 -136.7976
1770.977440 79.010 -136.3865
1783.810673 79.043 -135.9617
1796.736900 79.077 -135.5204
1809.756796 79.111 -135.0602
1822.871040 79.146 -134.5785
1836.080315 79.182 -134.0725
1849.385310 79.220 -133.5396
1862.786718 79.262 -132.9769
1876.285239 79.307 -132.3828
1889.881575 79.359 -131.7573
1903.576436 79.418 -131.1044
1917.370535 79.486 -130.4323
1931.264593 79.564 -129.7531
1945.259332 79.652 -129.0817
1959.355483 79.752 -128.4358
1973.553781 79.861 -127.8329
1987.854965 79.979 -127.2891
2002.259781 80.103 -126.8164
2016.768981 80.229 -126.4215
2031.383320 80.356 -126.1040
2046.103561 80.480 -125.8571
2060.930471 80.600 -125.6691
2075.864823 80.714 -125.5259
2090.907395 80.821 -125.4130
2106.058972 80.922 -125.3173
2121.320344 81.017 -125.2280
2136.692305 81.107 -125.1371
2152.175658 81.193 -125.0383
2167.771210 81.276 -124.9279
2183.479774 81.356 -124.8040
2199.302169 81.436 -124.6670
2215.239219 81.515 -124.5176
2231.291755 81.593 -124.3572
2247.460615 81.672 -124.1866
2263.746641 81.751 -124.0070
2280.150683 81.831 -123.8194
2296.673595 81.912 -123.6251
2313.316238 81.994 -123.4254
2330.079481 82.077 -123.2219
2346.964198 82.162 -123.0159
2363.971268 82.248 -122.8085
2381.101578 82.336 -122.6006
2398.356022 82.426 -122.3932
2415.735498 82.517 -122.1873
2433.240913 82.609 -121.9836
2450.873180 82.703 -121.7825
2468.633217 82.799 -121.5844
2486.521951 82.897 -121.3899
2504.540314 82.996 -121.2000
2522.689246 83.098 -121.0157
2540.969692 83.201 -120.8383
2559.382606 83.306 -120.6691
2577.928947 83.413 -120.5088
2596.609683 83.521 -120.3584
2615.425787 83.631 -120.2189
2634.378241 83.743 -120.0912
2653.468031 83.857 -119.9767
2672.696154 83.971 -119.8760
2692.063613 84.087 -119.7897
2711.571415 84.204 -119.7181
2731.220579 84.323 -119.6616
2751.012130 84.442 -119.6206
2770.947098 84.563 -119.5959
2791.026522 84.684 -119.5878
2811.251451 84.806 -119.5967
2831.622938 84.929 -119.6224
2852.142045 85.052 -119.6653
2872.809842 85.175 -119.7252
2893.627406 85.299 -119.8018
2914.595823 85.423 -119.8948
2935.716186 85.548 -120.0036
2956.989596 85.673 -120.1276
2978.417161 85.799 -120.2652
3000.000000 85.924 -120.4139
3021.739237 86.049 -120.5708
3043.636005 86.173 -120.7340
3065.691446 86.298 -120.9031
3087.906710 86.423 -121.0797
3110.282955 86.549 -121.2661
3132.821347 86.678 -121.4661
3155.523062 86.809 -121.6842
3178.389283 86.942 -121.9265
3201.421202 87.079 -122.1995
3224.620020 87.217 -122.5098
3247.986946 87.356 -122.8625
3271.523198 87.496 -123.2611
3295.230004 87.635 -123.7072
3319.108599 87.772 -124.2004
3343.160228 87.906 -124.7394
3367.386145 88.037 -125.3214
3391.787613 88.164 -125.9428
3416.365904 88.286 -126.5999
3441.122300 88.404 -127.2892
3466.058091 88.516 -128.0078
3491.174576 88.622 -128.7529
3516.473066 88.724 -129.5220
3541.954880 88.819 -130.3124
3567.621345 88.908 -131.1213
3593.473800 88.992 -131.9459
3619.513592 89.069 -132.7831
3645.742080 89.140 -133.6300
3672.160630 89.205 -134.4839
3698.770620 89.263 -135.3424
3725.573436 89.316 -136.2032
3752.570477 89.362 -137.0641
3779.763150 89.403 -137.9226
3807.152872 89.437 -138.7766
3834.741071 89.465 -139.6236
3862.529185 89.488 -140.4614
3890.518664 89.505 -141.2880
3918.710966 89.516 -142.1016
3947.107561 89.523 -142.9004
3975.709929 89.524 -143.6826
4004.519563 89.519 -144.4465
4033.537962 89.510 -145.1904
4062.766641 89.497 -145.9126
4092.207123 89.478 -146.6113
4121.860942 89.455 -147.2845
4151.729646 89.428 -147.9294
4181.814790 89.396 -148.5434
4212.117944 89.361 -149.1235
4242.640687 89.322 -149.6668
4273.384610 89.281 -150.1708
4304.351317 89.237 -150.6335
4335.542421 89.192 -151.0542
4366.959549 89.146 -151.4328
4398.604338 89.101 -151.7708
4430.478438 89.056 -152.0704
4462.583511 89.013 -152.3351
4494.921231 88.972 -152.5684
4527.493283 88.932 -152.7737
4560.301365 88.895 -152.9541
4593.347189 88.859 -153.1117
4626.632476 88.825 -153.2479
4660.158962 88.793 -153.3630
4693.928395 88.763 -153.4570
4727.942535 88.734 -153.5287
4762.203156 88.707 -153.5771
4796.712043 88.682 -153.6013
4831.470996 88.661 -153.6005
4866.481826 88.642 -153.5750
4901.746360 88.627 -153.5260
4937.266434 88.617 -153.4555
4973.043902 88.611 -153.3665
5009.080628 88.611 -153.2622
5045.378492 88.616 -153.1466
5081.939384 88.626 -153.0234
5118.765212 88.643 -152.8965
5155.857894 88.665 -152.7695
5193.219366 88.693 -152.6458
5230.851574 88.727 -152.5287
5268.756481 88.767 -152.4215
5306.936062 88.812 -152.3274
5345.392309 88.862 -152.2491
5384.127225 88.918 -152.1895
5423.142830 88.978 -152.1508
5462.441159 89.043 -152.1354
5502.024259 89.112 -152.1458
5541.894195 89.186 -152.1840
5582.053045 89.263 -152.2523
5622.502902 89.344 -152.3522
5663.245876 89.427 -152.4854
5704.284090 89.513 -152.6527
5745.619684 89.602 -152.8550
5787.254813 89.692 -153.0926
5829.191647 89.783 -153.3655
5871.432373 89.876 -153.6736
5913.979192 89.971 -154.0168
5956.834323 90.066 -154.3956
6000.000000 90.162 -154.8105
6043.478473 90.260 -155.2631
6087.272010 90.358 -155.7556
6131.382892 90.457 -156.2906
6175.813420 90.556 -156.8710
6220.565910 90.655 -157.4993
6265.642695 90.753 -158.1778
6311.046124 90.850 -158.9075
6356.778566 90.944 -159.6885
6402.842404 91.035 -160.5201
6449.240040 91.123 -161.4014
6495.973891 91.207 -162.3311
6543.046396 91.287 -163.3074
6590.460007 91.361 -164.3286
6638.217197 91.430 -165.3921
6686.320456 91.492 -166.4949
6734.772290 91.548 -167.6339
6783.575226 91.598 -168.8055
6832.731809 91.640 -170.0062
6882.244600 91.675 -171.2322
6932.116181 91.702 -172.4792
6982.349153 91.723 -173.7429
7032.946133 91.735 -175.0187
7083.909760 91.741 -176.3022
7135.242690 91.740 -177.5904
7186.947600 91.733 -178.8804
7239.027185 91.719 179.8300
7291.484160 91.699 178.5433
7344.321260 91.674 177.2617
7397.541239 91.643 175.9872
7451.146872 91.608 174.7214
7505.140954 91.569 173.4653
7559.526299 91.528 172.2188
7614.305743 91.484 170.9796
7669.482141 91.441 169.7435
7725.058371 91.397 168.5031
7781.037328 91.356 167.2480
7837.421932 91.316 165.9653
7894.215122 91.278 164.6401
7951.419859 91.240 163.2570
8009.039125 91.201 161.8021
8067.075924 91.159 160.2640
8125.533282 91.111 158.6355
8184.414245 91.053 156.9135
8243.721885 90.982 155.1002
8303.459292 90.894 153.2034
8363.629581 90.787 151.2355
8424.235888 90.657 149.2129
8485.281374 90.503 147.1550
8546.769221 90.323 145.0829
8608.702634 90.116 143.0189
8671.084842 89.881 140.9858
8733.919097 89.619 139.0065
8797.208675 89.331 137.1029
8860.956876 89.016 135.2962
8925.167022 88.677 133.6058
8989.842461 88.316 132.0496
9054.986566 87.934 130.6428
9120.602731 87.534 129.3983
9186.694378 87.120 128.3257
9253.264952 86.692 127.4323
9320.317925 86.255 126.7215
9387.856790 85.811 126.1943
9455.885071 85.362 125.8492
9524.406312 84.911 125.6827
9593.424086 84.459 125.6901
9662.941992 84.010 125.8655
9732.963653 83.563 126.2020
9803.492719 83.123 126.6923
9874.532869 82.689 127.3287
9946.087805 82.264 128.1031
10018.161257 81.849 129.0075
10090.756983 81.444 130.0337
10163.878768 81.050 131.1740
10237.530423 80.667 132.4211
10311.715789 80.296 133.7680
10386.438732 79.938 135.2083
10461.703149 79.592 136.7360
10537.512962 79.259 138.3455
10613.872125 78.939 140.0311
10690.784618 78.632 141.7875
10768.254450 78.338 143.6091
10846.285661 78.059 145.4901
10924.882318 77.793 147.4252
11004.048518 77.540 149.4096
11083.788390 77.301 151.4395
11164.106090 77.076 153.5110
11245.005805 76.865 155.6205
11326.491752 76.668 157.7644
11408.568180 76.485 159.9388
11491.239368 76.317 162.1405
11574.509626 76.164 164.3658
11658.383294 76.027 166.6106
11742.864745 75.905 168.8702
11827.958384 75.801 171.1400
11913.668646 75.714 173.4146
12000.000000 75.645 175.6888
12086.956947 75.595 177.9566
12174.544019 75.564 -179.7885
12262.765784 75.554 -177.5539
12351.626840 75.565 -175.3479
12441.131819 75.598 -173.1800
12531.285389 75.653 -171.0613
12622.092249 75.733 -169.0050
12713.557132 75.836 -167.0262
12805.684808 75.965 -165.1417
12898.480079 76.120 -163.3702
12991.947783 76.302 -161.7328
13086.092792 76.512 -160.2543
13180.920015 76.749 -158.9639
13276.434395 77.014 -157.8963
13372.640911 77.307 -157.0920
13469.544580 77.624 -156.5963
13567.150452 77.962 -156.4583
13665.463617 78.316 -156.7273
13764.489200 78.675 -157.4487
13864.232362 79.030 -158.6578
13964.698305 79.367 -160.3743
14065.892266 79.669 -162.5964
14167.819519 79.921 -165.2975
14270.485380 80.107 -168.4232
14373.895200 80.213 -171.8922
14478.054370 80.227 -175.5984
14582.968320 80.140 -179.4161
14688.642520 79.951 176.7910
14795.082478 79.662 173.1602
14902.293745 79.279 169.8192
15010.281908 78.815 166.8775
15119.052599 78.283 164.4201
15228.611486 77.701 162.5036
15338.964283 77.086 161.1556
15450.116741 76.456 160.3773
15562.074656 75.825 160.1470
15674.843864 75.207 160.4270
15788.430244 74.612 161.1693
15902.839718 74.049 162.3223
16018.078250 73.523 163.8352
16134.151848 73.036 165.6620
16251.066563 72.591 167.7614
16368.828491 72.188 170.0973
16487.443769 71.829 172.6375
16606.918584 71.514 175.3527
16727.259161 71.243 178.2158
16848.471777 71.019 -178.7996
16970.562748 70.842 -175.7198
17093.538442 70.714 -172.5745
17217.405268 70.637 -169.4000
17342.169684 70.614 -166.2424
17467.838194 70.646 -163.1584
17594.417350 70.732 -160.2148
17721.913751 70.871 -157.4882
17850.334044 71.059 -155.0617
17979.684923 71.289 -153.0217
18109.973131 71.551 -151.4518
18241.205462 71.833 -150.4272
18373.388756 72.119 -150.0089
18506.529905 72.388 -150.2366
18640.635849 72.619 -151.1230
18775.713581 72.788 -152.6486
18911.770141 72.872 -154.7560
19048.812624 72.848 -157.3470
19186.848172 72.699 -160.2834
19325.883983 72.417 -163.3948
19465.927305 72.008 -166.4897
19606.985439 71.504 -169.3659
19749.065738 70.970 -171.8158
19892.175609 70.506 -173.6263
20036.322514 70.233 -174.5970
