* Measurement data measured by REW V5.30.4
* Source: Headset (CX31993 HIFI AUDIO), MICROPHONE (Master Volume), L, volume: 1.000
* Format: 256k Log Swept Sine, 1 sweep at -12.0 dBFS with no timing reference
* Dated: 05 28, 24 1:05:31 PM
* REW Settings:
*  C-weighting compensation: Off
*  Target level: 75.0 dB
* Note: ; 
* Measurement: Galaxy Buds2 Clear R
* Smoothing: 1/12 octave
* Frequency Step: 96 ppo
* Start Frequency: 20.141602 Hz
*
* Freq(Hz) SPL(dB) Phase(degrees)
20.141602 87.453 -173.5081
20.287556 87.448 -173.8082
20.434568 87.436 -174.2292
20.582645 87.411 -174.7168
20.731796 87.370 -175.2199
20.882027 87.312 -175.6965
21.033346 87.239 -176.1173
21.185762 87.156 -176.4686
21.339283 87.071 -176.7536
21.493916 86.991 -176.9942
21.649670 86.924 -177.2292
21.806553 86.874 -177.5093
21.964573 86.844 -177.8898
22.123737 86.829 -178.4205
22.284056 86.826 -179.1353
22.445536 86.826 179.9535
22.608185 86.820 178.8593
22.772013 86.802 177.6200
22.937029 86.766 176.2930
23.103241 86.711 174.9501
23.270657 86.639 173.6671
23.439285 86.559 172.5145
23.609137 86.483 171.5458
23.780218 86.424 170.7855
23.952539 86.399 170.2221
24.126110 86.417 169.8073
24.300938 86.484 169.4647
24.477032 86.596 169.1093
24.654402 86.740 168.6683
24.833057 86.899 168.1004
25.013008 87.055 167.4039
25.194263 87.190 166.6160
25.376831 87.291 165.8042
25.560722 87.352 165.0526
25.745945 87.373 164.4471
25.932510 87.361 164.0591
26.120428 87.328 163.9287
26.309708 87.289 164.0516
26.500359 87.260 164.3715
26.692390 87.252 164.7866
26.885815 87.267 165.1695
27.080641 87.303 165.3982
27.276878 87.348 165.3846
27.474539 87.386 165.0942
27.673630 87.405 164.5482
27.874165 87.395 163.8146
28.076153 87.354 162.9907
28.279604 87.285 162.1824
28.484529 87.202 161.4815
28.690941 87.120 160.9460
28.898848 87.058 160.5850
29.108261 87.028 160.3560
29.319191 87.038 160.1778
29.531651 87.082 159.9564
29.745649 87.148 159.6146
29.961199 87.216 159.1141
30.178310 87.270 158.4629
30.396996 87.296 157.7089
30.617264 87.288 156.9247
30.839128 87.247 156.1891
31.062601 87.182 155.5687
31.287693 87.108 155.1017
31.514416 87.043 154.7885
31.742783 87.001 154.5901
31.972803 86.993 154.4384
32.204491 87.020 154.2564
32.437859 87.079 153.9793
32.672916 87.157 153.5705
32.909679 87.243 153.0259
33.148155 87.322 152.3681
33.388359 87.388 151.6349
33.630306 87.435 150.8665
33.874004 87.461 150.0954
34.119469 87.468 149.3415
34.366711 87.458 148.6112
34.615746 87.437 147.9015
34.866585 87.406 147.2070
35.119244 87.369 146.5277
35.373734 87.329 145.8743
35.630066 87.287 145.2697
35.888256 87.248 144.7450
36.148315 87.215 144.3305
36.410259 87.194 144.0444
36.674103 87.188 143.8818
36.939857 87.200 143.8108
37.207539 87.230 143.7757
37.477161 87.271 143.7109
37.748737 87.317 143.5572
38.022282 87.359 143.2764
38.297806 87.387 142.8586
38.575329 87.399 142.3199
38.854862 87.395 141.6938
39.136421 87.380 141.0181
39.420021 87.362 140.3235
39.705673 87.351 139.6269
39.993397 87.350 138.9307
40.283207 87.363 138.2289
40.575115 87.387 137.5148
40.869141 87.415 136.7878
41.165295 87.442 136.0542
41.463596 87.464 135.3243
41.764057 87.476 134.6074
42.066696 87.479 133.9081
42.371529 87.473 133.2259
42.678570 87.461 132.5582
42.987835 87.443 131.9048
43.299343 87.420 131.2709
43.613110 87.395 130.6672
43.929150 87.368 130.1063
44.247478 87.342 129.5976
44.568115 87.317 129.1425
44.891075 87.296 128.7312
45.216373 87.278 128.3446
45.544029 87.265 127.9586
45.874062 87.253 127.5500
46.206486 87.243 127.1027
46.541317 87.231 126.6122
46.878574 87.216 126.0861
47.218277 87.196 125.5408
47.560440 87.173 124.9970
47.905083 87.147 124.4727
48.252224 87.121 123.9779
48.601879 87.096 123.5117
48.954067 87.076 123.0610
49.308807 87.063 122.6032
49.666119 87.057 122.1099
50.026020 87.059 121.5539
50.388531 87.067 120.9165
50.753666 87.079 120.1937
51.121449 87.092 119.3990
51.491894 87.105 118.5605
51.865025 87.116 117.7142
52.240860 87.127 116.8940
52.619419 87.139 116.1238
53.000721 87.151 115.4142
53.384785 87.164 114.7631
53.771633 87.174 114.1608
54.161285 87.181 113.5937
54.553761 87.181 113.0473
54.949081 87.176 112.5061
55.347263 87.167 111.9545
55.748333 87.154 111.3791
56.152309 87.140 110.7714
56.559212 87.127 110.1302
56.969063 87.116 109.4618
57.381886 87.106 108.7768
57.797699 87.099 108.0883
58.216526 87.094 107.4091
58.638386 87.091 106.7502
59.063305 87.089 106.1195
59.491302 87.087 105.5189
59.922401 87.085 104.9421
60.356625 87.084 104.3739
60.793995 87.085 103.7905
61.234531 87.089 103.1656
61.678261 87.099 102.4780
62.125206 87.114 101.7209
62.575390 87.134 100.9084
63.028835 87.153 100.0740
63.485569 87.165 99.2593
63.945610 87.166 98.4987
64.408989 87.153 97.8038
64.875725 87.131 97.1575
65.345840 87.104 96.5239
65.819366 87.079 95.8711
66.296318 87.057 95.1930
66.776726 87.039 94.5070
67.260620 87.026 93.8217
67.748016 87.020 93.1014
68.238945 87.026 92.2627
68.733429 87.058 91.2143
69.231499 87.132 89.9070
69.733177 87.265 88.3595
70.238495 87.451 86.6576
70.747475 87.654 84.9487
71.260139 87.817 83.4334
71.776520 87.889 82.3267
72.296638 87.847 81.7780
72.820526 87.704 81.7776
73.348213 87.501 82.1191
73.879723 87.282 82.4825
74.415085 87.084 82.6057
74.954330 86.928 82.4049
75.497482 86.818 81.9543
76.044571 86.745 81.3822
76.595619 86.694 80.7877
77.150665 86.651 80.2107
77.709732 86.612 79.6335
78.272850 86.581 79.0031
78.840050 86.561 78.2733
79.411354 86.550 77.4430
79.986801 86.542 76.5556
80.566422 86.532 75.6679
81.150238 86.518 74.8208
81.738289 86.497 74.0316
82.330597 86.470 73.2985
82.927200 86.437 72.6064
83.528122 86.400 71.9312
84.133400 86.362 71.2475
84.743065 86.328 70.5381
85.357147 86.300 69.8001
85.975677 86.279 69.0445
86.598694 86.261 68.2865
87.226227 86.243 67.5324
87.858307 86.221 66.7730
88.494965 86.195 65.9886
89.136238 86.162 65.1640
89.782158 86.127 64.3013
90.432755 86.091 63.4206
91.088066 86.059 62.5495
91.748131 86.033 61.7094
92.412979 86.011 60.9061
93.082642 85.989 60.1315
93.757156 85.962 59.3690
94.436562 85.929 58.6005
95.120888 85.893 57.8110
95.810173 85.856 56.9944
96.504456 85.822 56.1574
97.203766 85.789 55.3182
97.908142 85.758 54.4988
98.617622 85.727 53.7149
99.332245 85.697 52.9694
100.052048 85.665 52.2531
100.777069 85.629 51.5500
101.507339 85.587 50.8454
102.242905 85.539 50.1327
102.983795 85.490 49.4117
103.730057 85.443 48.6823
104.481728 85.401 47.9395
105.238846 85.363 47.1695
106.001450 85.332 46.3477
106.769577 85.311 45.4526
107.543274 85.302 44.4836
108.322578 85.305 43.4646
109.107529 85.317 42.4312
109.898170 85.336 41.4210
110.694534 85.357 40.4824
111.496674 85.372 39.6905
112.304626 85.373 39.1236
113.118431 85.351 38.7884
113.938133 85.298 38.5773
114.763779 85.207 38.3419
115.595406 85.074 38.0131
116.433060 84.900 37.6211
117.276779 84.690 37.2022
118.126617 84.457 36.7201
118.982613 84.236 36.0670
119.844810 84.085 35.0997
120.713257 84.041 33.7401
121.587997 84.084 32.1131
122.469070 84.161 30.4913
123.356529 84.229 29.0664
124.250420 84.278 27.8483
125.150787 84.321 26.7443
126.057678 84.371 25.6766
126.971146 84.423 24.6832
127.891228 84.454 23.9315
128.817978 84.442 23.5656
129.751450 84.382 23.5251
130.691681 84.284 23.5444
131.638733 84.163 23.3625
132.592636 84.033 22.9301
133.553452 83.916 22.3813
134.521240 83.835 21.9095
135.496033 83.796 21.7122
136.477890 83.785 21.9279
137.466858 83.781 22.5432
138.462997 83.778 23.3660
139.466354 83.792 24.1045
140.476990 83.845 24.4724
141.494949 83.939 24.2520
142.520279 84.050 23.3809
143.553040 84.148 22.0056
144.593277 84.219 20.3678
145.641052 84.262 18.6437
146.696426 84.276 16.9263
147.759445 84.265 15.2498
148.830170 84.235 13.5919
149.908661 84.195 11.9360
150.994965 84.160 10.3195
152.089142 84.139 8.7924
153.191238 84.132 7.3710
154.301331 84.130 6.0536
155.419464 84.125 4.8367
156.545700 84.114 3.6924
157.680099 84.098 2.5841
158.822708 84.079 1.5112
159.973602 84.062 0.4894
161.132843 84.048 -0.5077
162.300476 84.038 -1.5527
163.476578 84.025 -2.6940
164.661194 83.999 -3.9050
165.854401 83.953 -5.1047
167.056244 83.884 -6.1932
168.266800 83.798 -7.1064
169.486130 83.709 -7.8722
170.714294 83.636 -8.5778
171.951355 83.586 -9.3015
173.197388 83.560 -10.0988
174.452454 83.547 -10.9960
175.716614 83.539 -11.9749
176.989929 83.527 -12.9925
178.272476 83.507 -14.0089
179.564316 83.478 -14.9917
180.865509 83.442 -15.9257
182.176132 83.403 -16.8254
183.496262 83.367 -17.7229
184.825958 83.340 -18.6473
186.165283 83.323 -19.6140
187.514313 83.316 -20.6252
188.873123 83.315 -21.6747
190.241776 83.314 -22.7515
191.620346 83.310 -23.8376
193.008911 83.302 -24.9144
194.407532 83.289 -25.9761
195.816284 83.275 -27.0323
197.235245 83.262 -28.0920
198.664490 83.250 -29.1508
200.104095 83.238 -30.1977
201.554138 83.225 -31.2265
203.014679 83.209 -32.2347
204.485809 83.188 -33.2217
205.967590 83.163 -34.1892
207.460114 83.137 -35.1473
208.963455 83.112 -36.1143
210.477692 83.091 -37.1062
212.002899 83.075 -38.1296
213.539154 83.061 -39.1855
215.086548 83.049 -40.2701
216.645157 83.039 -41.3801
218.215057 83.030 -42.5182
219.796341 83.027 -43.6820
221.389069 83.030 -44.8509
222.993347 83.037 -45.9956
224.609253 83.047 -47.0992
226.236862 83.056 -48.1642
227.876266 83.063 -49.2096
229.527557 83.067 -50.2627
231.190811 83.068 -51.3470
232.866119 83.064 -52.4766
234.553558 83.057 -53.6495
236.253235 83.047 -54.8521
237.965225 83.036 -56.0720
239.689621 83.028 -57.3009
241.426514 83.025 -58.5219
243.175995 83.028 -59.7097
244.938141 83.033 -60.8459
246.713058 83.037 -61.9391
248.500839 83.039 -63.0262
250.301575 83.038 -64.1426
252.115356 83.034 -65.2990
253.942291 83.026 -66.4948
255.782455 83.013 -67.7217
257.635956 82.997 -68.9518
259.502899 82.981 -70.1500
261.383362 82.971 -71.2968
263.277466 82.970 -72.4014
265.185272 82.979 -73.4990
267.106903 83.000 -74.6307
269.042480 83.035 -75.8148
270.992065 83.085 -77.0365
272.955780 83.148 -78.2684
274.933716 83.220 -79.5043
276.925995 83.295 -80.7690
278.932709 83.372 -82.0872
280.953979 83.450 -83.4618
282.989899 83.526 -84.8845
285.040558 83.591 -86.3453
287.106079 83.632 -87.8521
289.186554 83.639 -89.4366
291.282104 83.616 -91.1187
293.392853 83.579 -92.8811
295.518890 83.543 -94.6774
297.660339 83.517 -96.4574
299.817322 83.504 -98.1929
301.989929 83.502 -99.8813
304.178284 83.509 -101.5338
306.382477 83.520 -103.1628
308.602661 83.533 -104.7780
310.838928 83.547 -106.3938
313.091400 83.560 -108.0287
315.360199 83.574 -109.6896
317.645416 83.586 -111.3646
319.947205 83.598 -113.0361
322.265686 83.610 -114.6973
324.600952 83.619 -116.3521
326.953156 83.626 -118.0074
329.322388 83.631 -119.6699
331.708801 83.634 -121.3464
334.112488 83.635 -123.0431
336.533600 83.636 -124.7622
338.972260 83.638 -126.4977
341.428589 83.641 -128.2428
343.902710 83.647 -129.9957
346.394775 83.655 -131.7558
348.904907 83.663 -133.5208
351.433228 83.672 -135.2891
353.979858 83.681 -137.0620
356.544952 83.691 -138.8454
359.128632 83.701 -140.6473
361.731018 83.711 -142.4717
364.352264 83.722 -144.3127
366.992523 83.734 -146.1615
369.651917 83.745 -148.0145
372.330566 83.757 -149.8712
375.028625 83.768 -151.7355
377.746246 83.777 -153.6125
380.483551 83.784 -155.5052
383.240692 83.789 -157.4183
386.017822 83.792 -159.3519
388.815063 83.794 -161.2975
391.632568 83.795 -163.2493
394.470490 83.797 -165.2075
397.328979 83.799 -167.1718
400.208191 83.802 -169.1399
403.108276 83.806 -171.1133
406.029358 83.809 -173.0957
408.971619 83.812 -175.0900
411.935181 83.813 -177.0971
414.920227 83.815 -179.1175
417.926910 83.817 178.8467
420.955383 83.820 176.7932
424.005798 83.823 174.7242
427.078308 83.825 172.6445
430.173096 83.829 170.5564
433.290314 83.834 168.4581
436.430115 83.842 166.3443
439.592682 83.850 164.2098
442.778137 83.856 162.0585
445.986694 83.858 159.9072
449.218506 83.857 157.7731
452.473724 83.854 155.6596
455.752533 83.854 153.5559
459.055115 83.857 151.4421
462.381622 83.864 149.2963
465.732239 83.875 147.0996
469.107117 83.888 144.8434
472.506470 83.900 142.5341
475.930450 83.908 140.1928
479.379242 83.911 137.8405
482.853027 83.908 135.4896
486.351990 83.897 133.1522
489.876282 83.884 130.8445
493.426117 83.872 128.5743
497.001678 83.866 126.3334
500.603149 83.869 124.1011
504.230713 83.877 121.8568
507.884583 83.888 119.5924
511.564911 83.896 117.3136
515.271912 83.899 115.0281
519.005798 83.897 112.7347
522.766724 83.889 110.4219
526.554932 83.875 108.0745
530.370544 83.858 105.6852
534.213806 83.838 103.2584
538.084961 83.819 100.8068
541.984131 83.802 98.3460
545.911560 83.791 95.8894
549.867432 83.784 93.4442
553.851990 83.782 91.0114
557.865417 83.781 88.5880
561.907959 83.780 86.1702
565.979797 83.775 83.7548
570.081116 83.765 81.3345
574.212158 83.751 78.8950
578.373108 83.733 76.4197
582.564209 83.713 73.8987
586.785706 83.696 71.3350
591.037781 83.681 68.7415
595.320679 83.670 66.1322
599.634644 83.663 63.5153
603.979858 83.660 60.8969
608.356567 83.658 58.2867
612.764954 83.655 55.6923
617.205322 83.649 53.1086
621.677856 83.640 50.5211
626.182800 83.629 47.9183
630.720398 83.615 45.2964
635.290833 83.601 42.6583
639.894409 83.587 40.0097
644.531372 83.575 37.3558
649.201904 83.563 34.6986
653.906311 83.553 32.0385
658.644775 83.544 29.3741
663.417603 83.537 26.7042
668.224976 83.530 24.0281
673.067200 83.523 21.3439
677.944519 83.515 18.6480
682.857178 83.505 15.9368
687.805420 83.494 13.2075
692.789551 83.482 10.4587
697.809814 83.470 7.6907
702.866455 83.459 4.9062
707.959717 83.449 2.1089
713.089905 83.441 -0.6976
718.257263 83.433 -3.5101
723.462036 83.426 -6.3260
728.704529 83.419 -9.1438
733.985046 83.413 -11.9647
739.303833 83.406 -14.7936
744.661133 83.401 -17.6340
750.057251 83.396 -20.4850
755.492493 83.391 -23.3468
760.967102 83.386 -26.2228
766.481384 83.381 -29.1155
772.035645 83.375 -32.0250
777.630127 83.369 -34.9474
783.265137 83.363 -37.8750
788.940979 83.358 -40.7980
794.657959 83.355 -43.7108
800.416382 83.356 -46.6168
806.216553 83.358 -49.5302
812.058716 83.362 -52.4702
817.943237 83.367 -55.4504
823.870361 83.374 -58.4725
829.840454 83.380 -61.5270
835.853821 83.386 -64.5972
841.910767 83.390 -67.6695
848.011597 83.392 -70.7391
854.156616 83.394 -73.8085
860.346191 83.396 -76.8828
866.580627 83.400 -79.9663
872.860229 83.405 -83.0624
879.185364 83.412 -86.1708
885.556274 83.419 -89.2880
891.973389 83.426 -92.4117
898.437012 83.433 -95.5443
904.947449 83.442 -98.6890
911.505066 83.451 -101.8471
918.110229 83.461 -105.0168
924.763245 83.472 -108.1932
931.464478 83.483 -111.3707
938.214233 83.494 -114.5472
945.012939 83.506 -117.7251
951.860901 83.518 -120.9088
958.758484 83.533 -124.1018
965.706055 83.549 -127.3053
972.703979 83.569 -130.5176
979.752563 83.593 -133.7344
986.852234 83.624 -136.9524
994.003357 83.661 -140.1718
1001.206299 83.705 -143.3962
1008.461426 83.756 -146.6311
1015.769165 83.815 -149.8840
1023.129822 83.880 -153.1670
1030.543823 83.951 -156.4954
1038.011597 84.026 -159.8833
1045.533447 84.104 -163.3398
1053.109863 84.185 -166.8674
1060.741089 84.266 -170.4624
1068.427612 84.348 -174.1185
1076.169922 84.428 -177.8281
1083.968262 84.505 178.4146
1091.823120 84.580 174.6128
1099.734863 84.651 170.7690
1107.703979 84.718 166.8889
1115.730835 84.782 162.9775
1123.815918 84.842 159.0383
1131.959595 84.900 155.0720
1140.162231 84.957 151.0796
1148.424316 85.013 147.0626
1156.746216 85.067 143.0238
1165.128418 85.120 138.9641
1173.571411 85.173 134.8838
1182.075562 85.224 130.7842
1190.641357 85.273 126.6667
1199.269287 85.322 122.5336
1207.959717 85.368 118.3857
1216.713135 85.414 114.2227
1225.529907 85.459 110.0432
1234.410645 85.503 105.8466
1243.355713 85.546 101.6321
1252.365601 85.588 97.3984
1261.440796 85.630 93.1434
1270.581665 85.670 88.8646
1279.788818 85.709 84.5615
1289.062744 85.747 80.2366
1298.403809 85.785 75.8936
1307.812622 85.823 71.5342
1317.289551 85.860 67.1584
1326.835205 85.896 62.7642
1336.449951 85.931 58.3488
1346.134399 85.965 53.9099
1355.889038 85.998 49.4476
1365.714355 86.031 44.9639
1375.610840 86.064 40.4615
1385.579102 86.096 35.9419
1395.619629 86.129 31.4048
1405.732910 86.161 26.8503
1415.919434 86.192 22.2794
1426.179810 86.223 17.6936
1436.514526 86.253 13.0931
1446.924072 86.283 8.4760
1457.409058 86.311 3.8403
1467.970093 86.339 -0.8130
1478.607666 86.366 -5.4824
1489.322266 86.393 -10.1669
1500.114502 86.419 -14.8673
1510.984985 86.446 -19.5854
1521.934204 86.473 -24.3214
1532.962769 86.500 -29.0760
1544.071289 86.527 -33.8507
1555.260254 86.555 -38.6465
1566.530273 86.584 -43.4623
1577.881958 86.611 -48.2955
1589.315918 86.638 -53.1442
1600.832764 86.664 -58.0081
1612.433105 86.688 -62.8885
1624.117432 86.711 -67.7904
1635.886475 86.733 -72.7177
1647.740723 86.756 -77.6705
1659.680908 86.779 -82.6459
1671.707642 86.803 -87.6388
1683.821533 86.829 -92.6470
1696.023193 86.855 -97.6689
1708.313232 86.883 -102.7031
1720.692383 86.910 -107.7495
1733.161255 86.937 -112.8104
1745.720459 86.964 -117.8895
1758.370728 86.990 -122.9878
1771.112549 87.015 -128.1031
1783.946777 87.039 -133.2335
1796.874023 87.063 -138.3790
1809.894897 87.087 -143.5413
1823.010132 87.110 -148.7218
1836.220459 87.134 -153.9232
1849.526489 87.158 -159.1475
1862.928955 87.183 -164.3953
1876.428467 87.208 -169.6654
1890.025879 87.234 -174.9562
1903.721802 87.260 179.7344
1917.516968 87.287 174.4054
1931.412109 87.314 169.0552
1945.407959 87.341 163.6830
1959.505127 87.369 158.2898
1973.704468 87.397 152.8777
1988.006714 87.427 147.4471
2002.412598 87.457 141.9972
2016.922852 87.486 136.5266
2031.538330 87.516 131.0350
2046.259644 87.545 125.5220
2061.087646 87.573 119.9861
2076.023193 87.602 114.4248
2091.066895 87.631 108.8362
2106.219727 87.661 103.2198
2121.482178 87.689 97.5781
2136.855225 87.718 91.9135
2152.339844 87.746 86.2275
2167.936523 87.774 80.5211
2183.646240 87.803 74.7935
2199.469727 87.834 69.0436
2215.407959 87.866 63.2705
2231.461670 87.898 57.4723
2247.631836 87.930 51.6453
2263.919189 87.961 45.7861
2280.324463 87.991 39.8949
2296.848633 88.020 33.9733
2313.492432 88.050 28.0255
2330.256836 88.079 22.0558
2347.142822 88.107 16.0675
2364.151123 88.135 10.0610
2381.282715 88.162 4.0328
2398.538574 88.188 -2.0214
2415.919434 88.213 -8.1047
2433.426270 88.236 -14.2183
2451.059814 88.259 -20.3610
2468.821289 88.280 -26.5315
2486.711426 88.299 -32.7291
2504.731201 88.318 -38.9539
2522.881592 88.334 -45.2051
2541.163330 88.350 -51.4822
2559.577637 88.364 -57.7838
2578.125488 88.376 -64.1094
2596.807617 88.386 -70.4578
2615.625244 88.394 -76.8291
2634.579102 88.399 -83.2233
2653.670410 88.401 -89.6396
2672.899902 88.401 -96.0771
2692.268799 88.398 -102.5341
2711.778076 88.393 -109.0083
2731.428711 88.385 -115.4987
2751.221680 88.375 -122.0077
2771.158203 88.362 -128.5399
2791.239258 88.347 -135.0988
2811.465820 88.329 -141.6826
2831.838867 88.309 -148.2861
2852.359619 88.285 -154.9026
2873.029053 88.258 -161.5264
2893.848145 88.228 -168.1554
2914.818115 88.196 -174.7888
2935.940186 88.161 178.5730
2957.215332 88.122 171.9281
2978.644531 88.080 165.2745
3000.229004 88.035 158.6119
3021.969971 87.986 151.9426
3043.868408 87.933 145.2712
3065.925537 87.878 138.6012
3088.142578 87.819 131.9349
3110.520508 87.757 125.2732
3133.060547 87.692 118.6149
3155.763916 87.625 111.9583
3178.631836 87.555 105.3042
3201.665527 87.483 98.6547
3224.866211 87.409 92.0151
3248.234863 87.332 85.3903
3271.772949 87.253 78.7830
3295.481445 87.172 72.1934
3319.361816 87.089 65.6189
3343.415283 87.006 59.0570
3367.643066 86.921 52.5067
3392.046387 86.837 45.9679
3416.626465 86.752 39.4410
3441.384766 86.668 32.9260
3466.322510 86.584 26.4222
3491.440918 86.501 19.9282
3516.741455 86.419 13.4430
3542.225098 86.338 6.9666
3567.893555 86.259 0.5009
3593.748047 86.181 -5.9521
3619.789795 86.104 -12.3912
3646.020264 86.029 -18.8179
3672.440918 85.954 -25.2344
3699.052979 85.881 -31.6423
3725.857910 85.810 -38.0417
3752.856934 85.741 -44.4347
3780.051758 85.674 -50.8256
3807.443604 85.610 -57.2183
3835.033936 85.548 -63.6158
3862.824219 85.489 -70.0200
3890.815918 85.432 -76.4314
3919.010254 85.376 -82.8464
3947.408936 85.321 -89.2603
3976.013428 85.267 -95.6689
4004.825195 85.212 -102.0701
4033.845703 85.158 -108.4624
4063.076660 85.103 -114.8440
4092.519287 85.049 -121.2136
4122.175293 84.995 -127.5713
4152.046387 84.943 -133.9189
4182.133789 84.892 -140.2576
4212.439453 84.843 -146.5879
4242.964355 84.796 -152.9097
4273.710449 84.750 -159.2217
4304.679688 84.708 -165.5227
4335.873047 84.668 -171.8110
4367.292480 84.631 -178.0872
4398.939453 84.596 175.6465
4430.815918 84.563 169.3877
4462.923340 84.532 163.1367
4495.263672 84.503 156.8958
4527.838379 84.475 150.6675
4560.648926 84.451 144.4536
4593.697266 84.429 138.2544
4626.984863 84.410 132.0693
4660.513672 84.395 125.8975
4694.285645 84.384 119.7368
4728.302246 84.377 113.5859
4762.565430 84.375 107.4421
4797.077148 84.377 101.3032
4831.838867 84.384 95.1692
4866.852539 84.395 89.0405
4902.119629 84.410 82.9194
4937.642578 84.428 76.8062
4973.422852 84.450 70.7014
5009.462402 84.474 64.6072
5045.763184 84.502 58.5269
5082.326660 84.534 52.4648
5119.155273 84.572 46.4258
5156.250977 84.615 40.4126
5193.615234 84.666 34.4265
5231.250488 84.726 28.4663
5269.158203 84.796 22.5283
5307.340820 84.878 16.6055
5345.799805 84.974 10.6875
5384.537598 85.083 4.7622
5423.556152 85.207 -1.1877
5462.857422 85.346 -7.1814
5502.443359 85.498 -13.2388
5542.316406 85.663 -19.3774
5582.478516 85.839 -25.6125
5622.931641 86.022 -31.9553
5663.677734 86.209 -38.4146
5704.719238 86.398 -44.9968
5746.058105 86.583 -51.7029
5787.696289 86.762 -58.5298
5829.636230 86.930 -65.4670
5871.880371 87.085 -72.4998
5914.430664 87.224 -79.6072
5957.289062 87.344 -86.7639
6000.458008 87.444 -93.9412
6043.939941 87.526 -101.1089
6087.736816 87.590 -108.2380
6131.851074 87.637 -115.3042
6176.285156 87.671 -122.2869
6221.041016 87.693 -129.1692
6266.121094 87.709 -135.9373
6311.527832 87.720 -142.5801
6357.263672 87.730 -149.0894
6403.331055 87.743 -155.4614
6449.732422 87.764 -161.6960
6496.469727 87.795 -167.7964
6543.545898 87.840 -173.7693
6590.962891 87.903 -179.6257
6638.723633 87.987 174.6184
6686.830566 88.094 168.9443
6735.286133 88.228 163.3291
6784.092773 88.392 157.7483
6833.252930 88.585 152.1738
6882.769531 88.811 146.5728
6932.645020 89.070 140.9065
6982.881836 89.362 135.1299
7033.482910 89.685 129.1926
7084.450195 90.038 123.0430
7135.787109 90.414 116.6321
7187.496094 90.808 109.9119
7239.579590 91.210 102.8403
7292.040527 91.611 95.3867
7344.881836 92.000 87.5344
7398.105957 92.365 79.2849
7451.715820 92.695 70.6606
7505.713867 92.979 61.7051
7560.103516 93.208 52.4778
7614.887207 93.375 43.0544
7670.067871 93.476 33.5200
7725.648438 93.510 23.9631
7781.631836 93.477 14.4707
7838.020508 93.384 5.1208
7894.817871 93.238 -4.0215
7952.026855 93.046 -12.9094
8009.650391 92.819 -21.5149
8067.691406 92.564 -29.8281
8126.153320 92.291 -37.8538
8185.038574 92.005 -45.6084
8244.350586 91.710 -53.1169
8304.092773 91.410 -60.4094
8364.267578 91.106 -67.5146
8424.878906 90.799 -74.4565
8485.928711 90.488 -81.2480
8547.420898 90.170 -87.8921
8609.359375 89.847 -94.3801
8671.746094 89.517 -100.7019
8734.584961 89.183 -106.8521
8797.878906 88.848 -112.8403
8861.631836 88.514 -118.7007
8925.846680 88.183 -124.4963
8990.527344 87.856 -130.3325
9055.676758 87.534 -136.3713
9121.297852 87.216 -142.8513
9187.394531 86.899 -150.1008
9253.969727 86.578 -158.5237
9321.027344 86.246 -168.5334
9388.571289 85.895 179.5635
9456.604492 85.523 165.6799
9525.130859 85.133 149.9741
9594.154297 84.733 132.7786
9663.677734 84.328 114.4856
9733.705078 83.921 95.4541
9804.239258 83.513 75.9617
9875.285156 83.108 56.1941
9946.845703 82.706 36.2615
10018.924805 82.308 16.2249
10091.526367 81.916 -3.8867
10164.653320 81.532 -24.0645
10238.310547 81.154 -44.3093
10312.501953 80.786 -64.6260
10387.230469 80.425 -85.0205
10462.500977 80.073 -105.5002
10538.316406 79.728 -126.0715
10614.681641 79.389 -146.7373
10691.599609 79.057 -167.4976
10769.075195 78.730 171.6506
10847.112305 78.409 150.7100
10925.714844 78.095 129.6826
11004.886719 77.787 108.5669
11084.632812 77.488 87.3601
11164.957031 77.199 66.0591
11245.863281 76.921 44.6604
11327.355469 76.656 23.1604
11409.438477 76.406 1.5559
11492.116211 76.173 -20.1570
11575.392578 75.958 -41.9846
11659.272461 75.763 -63.9382
11743.760742 75.590 -86.0315
11828.861328 75.442 -108.2759
11914.578125 75.321 -130.6794
12000.916016 75.228 -153.2495
12087.879883 75.165 -175.9995
12175.473633 75.132 161.0562
12263.702148 75.130 137.8975
12352.570312 75.160 114.5005
12442.082031 75.224 90.8367
12532.242188 75.321 66.8730
12623.055664 75.450 42.5757
12714.527344 75.608 17.9111
12806.662109 75.784 -7.1541
12899.464844 75.966 -32.6436
12992.939453 76.133 -58.5632
13087.091797 76.263 -84.8857
13181.925781 76.332 -111.5344
13277.447266 76.324 -138.3816
13373.661133 76.239 -165.2607
13470.572266 76.104 167.9885
13568.185547 75.968 141.4565
13666.505859 75.898 115.1189
13765.539062 75.954 88.8396
13865.290039 76.170 62.4192
13965.763672 76.550 35.6543
14066.965820 77.074 8.3760
14168.900391 77.714 -19.5400
14271.574219 78.442 -48.1841
14374.992188 79.233 -77.6260
14479.159180 80.064 -107.9248
14584.081055 80.906 -139.1299
14689.763672 81.732 -171.2788
14796.211914 82.506 155.6094
14903.431641 83.192 121.5454
15011.427734 83.753 86.5815
15120.207031 84.153 50.8184
15229.774414 84.365 14.4229
15340.135742 84.373 -22.3843
15451.296875 84.176 -59.3584
15563.263672 83.788 -96.2700
15676.041016 83.235 -132.9404
15789.635742 82.550 -169.2583
15904.053711 81.771 154.8257
16019.300781 80.935 119.3135
16135.382812 80.077 84.1709
16252.306641 79.226 49.3438
16370.077148 78.406 14.7646
16488.701172 77.633 -19.6387
16608.185547 76.918 -53.9360
16728.535156 76.266 -88.1904
16849.757812 75.679 -122.4556
16971.857422 75.158 -156.7783
17094.841797 74.701 168.7969
17218.718750 74.306 134.2290
17343.492188 73.972 99.4756
17469.169922 73.695 64.4976
17595.757812 73.475 29.2617
17723.263672 73.310 -6.2666
17851.693359 73.197 -42.1182
17981.054688 73.135 -78.3252
18111.353516 73.123 -114.9199
18242.595703 73.159 -151.9321
18374.789062 73.240 170.6196
18507.939453 73.359 132.7178
18642.054688 73.509 94.3257
18777.142578 73.680 55.3921
18913.208984 73.861 15.8638
19050.261719 74.040 -24.2837
19188.308594 74.204 -64.9883
19327.355469 74.342 -105.9985
19467.410156 74.446 -146.7354
19608.478516 74.514 173.7832
19750.570312 74.549 136.8071
19893.691406 74.562 103.5669
20037.849609 0.000 75.0532
