* Measurement data measured by REW V5.31.3
* Source: Headset (2- CX31993 HIFI AUDIO), MICROPHONE (Master Volume), R, volume: 0.400
* Format: 256k Log Swept Sine, 1 sweep at -11.9 dBFS with no timing reference
* Dated: 07 19, 25 10:39:53 AM
* REW Settings:
*  C-weighting compensation: Off
*  Target level: 75.0 dB
* Note: ; 
* Measurement: Juzear x Z Defiant L
* Smoothing: 1/12 octave
* Frequency Step: 96 ppo
* Start Frequency: 0.36621094 Hz
*
* Freq(Hz) SPL(dB) Phase(degrees)
0.366211 62.149 -48.6929
0.368865 62.147 -48.7574
0.371538 62.144 -48.8542
0.374230 62.140 -48.9758
0.376942 62.136 -49.1161
0.379673 62.131 -49.2704
0.382424 62.126 -49.4357
0.385196 62.122 -49.6102
0.387987 62.117 -49.7928
0.390798 62.112 -49.9828
0.393630 62.107 -50.1802
0.396483 62.101 -50.3847
0.399356 62.096 -50.5963
0.402250 62.091 -50.8152
0.405165 62.086 -51.0412
0.408101 62.081 -51.2745
0.411058 62.075 -51.5151
0.414037 62.070 -51.7632
0.417037 62.065 -52.0187
0.420059 62.059 -52.2817
0.423103 62.054 -52.5524
0.426169 62.048 -52.8307
0.429257 62.043 -53.1167
0.432368 62.037 -53.4105
0.435501 62.031 -53.7122
0.438656 62.026 -54.0217
0.441835 62.020 -54.3392
0.445037 62.014 -54.6646
0.448262 62.009 -54.9981
0.451510 62.003 -55.3397
0.454782 61.997 -55.6894
0.458077 61.991 -56.0473
0.461397 61.985 -56.4133
0.464740 61.979 -56.7876
0.468108 61.973 -57.1701
0.471500 61.967 -57.5609
0.474917 61.961 -57.9600
0.478358 61.955 -58.3673
0.481825 61.948 -58.7830
0.485316 61.942 -59.2070
0.488833 61.936 -59.6394
0.492375 61.930 -60.0800
0.495943 61.923 -60.5290
0.499537 61.917 -60.9863
0.503157 61.910 -61.4518
0.506803 61.904 -61.9256
0.510475 61.897 -62.4077
0.514175 61.890 -62.8980
0.517900 61.884 -63.3964
0.521653 61.877 -63.9030
0.525434 61.870 -64.4176
0.529241 61.863 -64.9403
0.533076 61.857 -65.4710
0.536939 61.850 -66.0097
0.540830 61.843 -66.5561
0.544749 61.836 -67.1104
0.548696 61.829 -67.6724
0.552673 61.821 -68.2421
0.556677 61.814 -68.8193
0.560711 61.807 -69.4041
0.564774 61.800 -69.9962
0.568867 61.792 -70.5957
0.572989 61.785 -71.2024
0.577141 61.778 -71.8162
0.581324 61.770 -72.4371
0.585536 61.763 -73.0649
0.589779 61.755 -73.6997
0.594053 61.747 -74.3412
0.598358 61.740 -74.9894
0.602694 61.732 -75.6442
0.607061 61.724 -76.3056
0.611460 61.716 -76.9733
0.615891 61.708 -77.6475
0.620354 61.700 -78.3279
0.624849 61.692 -79.0146
0.629377 61.684 -79.7074
0.633938 61.676 -80.4064
0.638532 61.668 -81.1115
0.643159 61.659 -81.8226
0.647819 61.651 -82.5398
0.652514 61.643 -83.2630
0.657242 61.634 -83.9923
0.662005 61.625 -84.7277
0.666802 61.617 -85.4692
0.671634 61.608 -86.2170
0.676501 61.600 -86.9710
0.681403 61.591 -87.7315
0.686341 61.582 -88.4985
0.691314 61.573 -89.2723
0.696324 61.564 -90.0532
0.701370 61.556 -90.8414
0.706452 61.547 -91.6374
0.711571 61.539 -92.4419
0.716728 61.531 -93.2559
0.721921 61.525 -94.0804
0.727153 61.521 -94.9174
0.732422 61.518 -95.7689
0.737729 61.519 -96.6374
0.743075 61.521 -97.5252
0.748460 61.526 -98.4342
0.753883 61.531 -99.3656
0.759346 61.538 -100.3202
0.764849 61.546 -101.2981
0.770391 61.553 -102.2997
0.775974 61.562 -103.3245
0.781597 61.570 -104.3723
0.787261 61.580 -105.4428
0.792966 61.589 -106.5353
0.798712 61.599 -107.6494
0.804500 61.609 -108.7845
0.810329 61.620 -109.9398
0.816201 61.631 -111.1146
0.822116 61.643 -112.3083
0.828073 61.655 -113.5199
0.834074 61.668 -114.7487
0.840118 61.681 -115.9937
0.846206 61.695 -117.2541
0.852338 61.710 -118.5289
0.858514 61.726 -119.8172
0.864735 61.742 -121.1180
0.871001 61.759 -122.4305
0.877313 61.777 -123.7536
0.883670 61.796 -125.0864
0.890074 61.816 -126.4281
0.896524 61.837 -127.7777
0.903020 61.859 -129.1344
0.909564 61.883 -130.4974
0.916155 61.907 -131.8660
0.922794 61.933 -133.2395
0.929481 61.960 -134.6173
0.936216 61.989 -135.9988
0.943000 62.019 -137.3835
0.949834 62.050 -138.7710
0.956717 62.083 -140.1609
0.963649 62.118 -141.5532
0.970632 62.154 -142.9475
0.977666 62.193 -144.3438
0.984750 62.233 -145.7421
0.991886 62.275 -147.1426
0.999074 62.319 -148.5454
1.006314 62.366 -149.9509
1.013606 62.414 -151.3594
1.020951 62.465 -152.7714
1.028349 62.519 -154.1875
1.035801 62.575 -155.6084
1.043307 62.634 -157.0347
1.050867 62.695 -158.4675
1.058482 62.759 -159.9077
1.066152 62.827 -161.3563
1.073878 62.897 -162.8146
1.081660 62.971 -164.2838
1.089498 63.048 -165.7652
1.097393 63.129 -167.2600
1.105345 63.214 -168.7687
1.113355 63.303 -170.2916
1.121423 63.397 -171.8279
1.129549 63.494 -173.3764
1.137734 63.596 -174.9354
1.145979 63.703 -176.5026
1.154283 63.813 -178.0759
1.162647 63.928 -179.6531
1.171072 64.047 178.7682
1.179558 64.170 177.1900
1.188106 64.298 175.6145
1.196715 64.429 174.0437
1.205387 64.564 172.4795
1.214122 64.702 170.9235
1.222920 64.844 169.3773
1.231782 64.990 167.8423
1.240708 65.139 166.3197
1.249699 65.291 164.8107
1.258754 65.446 163.3160
1.267876 65.603 161.8365
1.277063 65.764 160.3727
1.286318 65.927 158.9252
1.295639 66.092 157.4940
1.305027 66.260 156.0795
1.314484 66.429 154.6816
1.324009 66.600 153.3001
1.333604 66.773 151.9350
1.343268 66.947 150.5858
1.353002 67.122 149.2520
1.362806 67.298 147.9333
1.372681 67.474 146.6290
1.382628 67.650 145.3385
1.392647 67.827 144.0610
1.402739 68.003 142.7957
1.412904 68.179 141.5421
1.423142 68.354 140.2991
1.433455 68.529 139.0664
1.443843 68.703 137.8434
1.454305 68.876 136.6301
1.464844 69.049 135.4265
1.475459 69.222 134.2334
1.486150 69.396 133.0516
1.496920 69.570 131.8820
1.507767 69.747 130.7252
1.518693 69.924 129.5816
1.529698 70.103 128.4515
1.540783 70.284 127.3347
1.551948 70.466 126.2311
1.563194 70.649 125.1404
1.574521 70.834 124.0619
1.585931 71.020 122.9952
1.597423 71.207 121.9396
1.608999 71.395 120.8943
1.620658 71.585 119.8586
1.632402 71.775 118.8315
1.644232 71.966 117.8123
1.656146 72.158 116.8000
1.668147 72.350 115.7936
1.680235 72.542 114.7921
1.692411 72.736 113.7946
1.704675 72.929 112.8000
1.717028 73.122 111.8074
1.729470 73.315 110.8156
1.742003 73.508 109.8237
1.754626 73.701 108.8307
1.767341 73.893 107.8358
1.780147 74.085 106.8380
1.793047 74.276 105.8369
1.806040 74.466 104.8322
1.819128 74.656 103.8241
1.832310 74.845 102.8132
1.845587 75.033 101.8010
1.858961 75.220 100.7887
1.872432 75.407 99.7780
1.886001 75.594 98.7700
1.899667 75.780 97.7658
1.913433 75.965 96.7662
1.927299 76.151 95.7717
1.941265 76.336 94.7826
1.955332 76.520 93.7991
1.969501 76.704 92.8211
1.983773 76.888 91.8486
1.998148 77.072 90.8813
2.012627 77.255 89.9190
2.027212 77.438 88.9612
2.041902 77.620 88.0073
2.056698 77.803 87.0569
2.071602 77.985 86.1092
2.086614 78.166 85.1636
2.101734 78.348 84.2192
2.116964 78.529 83.2755
2.132304 78.710 82.3314
2.147756 78.891 81.3863
2.163320 79.071 80.4396
2.178996 79.251 79.4908
2.194786 79.431 78.5399
2.210690 79.610 77.5869
2.226710 79.789 76.6326
2.242845 79.967 75.6777
2.259098 80.144 74.7229
2.275468 80.320 73.7690
2.291957 80.496 72.8166
2.308566 80.671 71.8662
2.325295 80.845 70.9182
2.342145 81.019 69.9727
2.359117 81.192 69.0298
2.376212 81.365 68.0896
2.393431 81.536 67.1519
2.410775 81.708 66.2164
2.428244 81.878 65.2828
2.445840 82.049 64.3506
2.463564 82.218 63.4194
2.481416 82.388 62.4884
2.499397 82.557 61.5571
2.517509 82.725 60.6247
2.535752 82.893 59.6904
2.554127 83.061 58.7537
2.572635 83.228 57.8141
2.591277 83.394 56.8715
2.610055 83.559 55.9261
2.628968 83.724 54.9783
2.648019 83.888 54.0288
2.667208 84.051 53.0782
2.686535 84.213 52.1273
2.706003 84.374 51.1766
2.725612 84.534 50.2266
2.745363 84.694 49.2778
2.765257 84.852 48.3303
2.785295 85.010 47.3843
2.805478 85.168 46.4398
2.825808 85.324 45.4966
2.846285 85.481 44.5545
2.866910 85.636 43.6129
2.887685 85.791 42.6711
2.908611 85.945 41.7285
2.929688 86.098 40.7840
2.950917 86.251 39.8369
2.972301 86.403 38.8866
2.993839 86.553 37.9332
3.015534 86.703 36.9771
3.037386 86.852 36.0188
3.059396 86.999 35.0591
3.081565 87.146 34.0989
3.103896 87.292 33.1389
3.126388 87.437 32.1799
3.149043 87.581 31.2223
3.171862 87.724 30.2665
3.194847 87.866 29.3128
3.217998 88.008 28.3610
3.241317 88.149 27.4109
3.264805 88.288 26.4617
3.288463 88.428 25.5123
3.312293 88.566 24.5618
3.336295 88.703 23.6091
3.360471 88.839 22.6539
3.384822 88.974 21.6960
3.409350 89.108 20.7360
3.434056 89.240 19.7747
3.458940 89.372 18.8129
3.484005 89.503 17.8517
3.509252 89.632 16.8920
3.534681 89.761 15.9346
3.560295 89.889 14.9798
3.586094 90.016 14.0281
3.612081 90.142 13.0792
3.638255 90.267 12.1326
3.664620 90.391 11.1874
3.691175 90.514 10.2422
3.717923 90.636 9.2962
3.744864 90.757 8.3490
3.772001 90.877 7.4007
3.799335 90.996 6.4518
3.826866 91.113 5.5031
3.854597 91.230 4.5557
3.882529 91.345 3.6104
3.910664 91.460 2.6680
3.939002 91.574 1.7293
3.967546 91.687 0.7944
3.996296 91.799 -0.1370
4.025255 91.910 -1.0653
4.054423 92.020 -1.9916
4.083804 92.129 -2.9170
4.113396 92.237 -3.8419
4.143204 92.344 -4.7664
4.173227 92.449 -5.6902
4.203468 92.554 -6.6125
4.233928 92.658 -7.5327
4.264609 92.761 -8.4498
4.295512 92.864 -9.3631
4.326639 92.965 -10.2723
4.357992 93.066 -11.1772
4.389572 93.166 -12.0782
4.421380 93.265 -12.9762
4.453419 93.363 -13.8717
4.485691 93.460 -14.7653
4.518196 93.557 -15.6571
4.550936 93.652 -16.5471
4.583914 93.747 -17.4346
4.617131 93.841 -18.3192
4.650589 93.934 -19.2004
4.684289 94.027 -20.0777
4.718233 94.119 -20.9510
4.752424 94.210 -21.8204
4.786862 94.301 -22.6864
4.821549 94.391 -23.5496
4.856488 94.480 -24.4103
4.891680 94.569 -25.2688
4.927127 94.657 -26.1249
4.962831 94.744 -26.9785
4.998794 94.831 -27.8293
5.035017 94.917 -28.6771
5.071503 95.003 -29.5215
5.108253 95.088 -30.3629
5.145270 95.172 -31.2014
5.182555 95.257 -32.0374
5.220110 95.340 -32.8712
5.257937 95.423 -33.7031
5.296038 95.506 -34.5330
5.334415 95.588 -35.3608
5.373071 95.669 -36.1865
5.412006 95.750 -37.0098
5.451224 95.830 -37.8309
5.490725 95.910 -38.6499
5.530514 95.990 -39.4671
5.570590 96.068 -40.2827
5.610957 96.147 -41.0970
5.651616 96.225 -41.9100
5.692570 96.302 -42.7214
5.733821 96.379 -43.5313
5.775370 96.455 -44.3395
5.817221 96.530 -45.1460
5.859375 96.605 -45.9510
5.901834 96.680 -46.7548
5.944602 96.753 -47.5574
5.987679 96.826 -48.3591
6.031068 96.899 -49.1596
6.074771 96.971 -49.9588
6.118792 97.042 -50.7563
6.163131 97.113 -51.5522
6.207792 97.182 -52.3463
6.252776 97.252 -53.1388
6.298086 97.320 -53.9298
6.343725 97.388 -54.7195
6.389694 97.455 -55.5078
6.435996 97.521 -56.2943
6.482634 97.587 -57.0786
6.529610 97.651 -57.8607
6.576926 97.716 -58.6403
6.624585 97.779 -59.4175
6.672590 97.842 -60.1925
6.720942 97.904 -60.9653
6.769645 97.965 -61.7357
6.818700 98.025 -62.5035
6.868111 98.085 -63.2684
6.917881 98.144 -64.0302
6.968010 98.203 -64.7887
7.018504 98.261 -65.5442
7.069362 98.318 -66.2966
7.120590 98.374 -67.0460
7.172189 98.430 -67.7922
7.224161 98.486 -68.5352
7.276511 98.541 -69.2748
7.329239 98.595 -70.0110
7.382350 98.649 -70.7438
7.435845 98.703 -71.4734
7.489729 98.756 -72.1999
7.544002 98.808 -72.9233
7.598669 98.860 -73.6436
7.653732 98.912 -74.3610
7.709194 98.963 -75.0753
7.765058 99.014 -75.7870
7.821327 99.065 -76.4960
7.878004 99.116 -77.2024
7.935091 99.166 -77.9066
7.992592 99.215 -78.6085
8.050510 99.265 -79.3083
8.108847 99.314 -80.0063
8.167607 99.362 -80.7024
8.226793 99.411 -81.3969
8.286408 99.459 -82.0898
8.346454 99.506 -82.7814
8.406936 99.554 -83.4716
8.467856 99.601 -84.1605
8.529218 99.647 -84.8484
8.591024 99.693 -85.5352
8.653278 99.739 -86.2208
8.715983 99.784 -86.9055
8.779143 99.828 -87.5890
8.842760 99.872 -88.2714
8.906839 99.916 -88.9528
8.971381 99.959 -89.6329
9.036392 100.001 -90.3118
9.101873 100.043 -90.9893
9.167829 100.084 -91.6652
9.234263 100.125 -92.3395
9.301178 100.165 -93.0120
9.368578 100.204 -93.6827
9.436467 100.242 -94.3513
9.504847 100.280 -95.0177
9.573723 100.318 -95.6816
9.643099 100.355 -96.3431
9.712976 100.391 -97.0020
9.783361 100.426 -97.6581
9.854255 100.461 -98.3114
9.925663 100.495 -98.9615
9.997588 100.529 -99.6087
10.070035 100.563 -100.2527
10.143007 100.596 -100.8936
10.216507 100.628 -101.5311
10.290540 100.660 -102.1655
10.365109 100.691 -102.7966
10.440219 100.722 -103.4246
10.515873 100.753 -104.0493
10.592076 100.784 -104.6710
10.668830 100.814 -105.2896
10.746141 100.843 -105.9053
10.824012 100.873 -106.5181
10.902447 100.902 -107.1282
10.981451 100.931 -107.7357
11.061027 100.959 -108.3406
11.141180 100.988 -108.9432
11.221913 101.016 -109.5436
11.303232 101.044 -110.1417
11.385140 101.071 -110.7379
11.467641 101.098 -111.3320
11.550741 101.125 -111.9244
11.634442 101.152 -112.5150
11.718750 101.178 -113.1040
11.803669 101.204 -113.6913
11.889203 101.230 -114.2770
11.975357 101.255 -114.8612
12.062136 101.280 -115.4438
12.149543 101.305 -116.0248
12.237583 101.329 -116.6042
12.326262 101.353 -117.1821
12.415583 101.377 -117.7582
12.505552 101.400 -118.3326
12.596172 101.423 -118.9053
12.687449 101.445 -119.4761
12.779387 101.467 -120.0449
12.871992 101.488 -120.6118
12.965268 101.509 -121.1766
13.059220 101.530 -121.7395
13.153852 101.551 -122.3002
13.249170 101.571 -122.8589
13.345179 101.590 -123.4155
13.441884 101.610 -123.9702
13.539289 101.629 -124.5228
13.637401 101.648 -125.0736
13.736223 101.666 -125.6226
13.835761 101.684 -126.1699
13.936021 101.702 -126.7157
14.037007 101.720 -127.2599
14.138725 101.737 -127.8026
14.241180 101.754 -128.3440
14.344377 101.770 -128.8840
14.448323 101.787 -129.4227
14.553021 101.802 -129.9598
14.658478 101.818 -130.4955
14.764700 101.832 -131.0296
14.871691 101.847 -131.5619
14.979457 101.861 -132.0922
15.088005 101.874 -132.6202
15.197339 101.887 -133.1459
15.307465 101.900 -133.6690
15.418389 101.912 -134.1894
15.530117 101.924 -134.7069
15.642655 101.935 -135.2215
15.756008 101.946 -135.7331
15.870182 101.957 -136.2418
15.985184 101.968 -136.7477
16.101019 101.979 -137.2509
16.217694 101.989 -137.7517
16.335214 102.000 -138.2504
16.453586 102.010 -138.7471
16.572815 102.020 -139.2422
16.692909 102.030 -139.7359
16.813872 102.040 -140.2284
16.935713 102.049 -140.7198
17.058436 102.059 -141.2103
17.182048 102.068 -141.6998
17.306556 102.077 -142.1884
17.431967 102.085 -142.6757
17.558286 102.094 -143.1617
17.685521 102.102 -143.6463
17.813677 102.109 -144.1293
17.942762 102.117 -144.6105
18.072783 102.124 -145.0898
18.203746 102.131 -145.5672
18.335658 102.137 -146.0428
18.468526 102.144 -146.5167
18.602356 102.150 -146.9890
18.737156 102.156 -147.4600
18.872934 102.162 -147.9298
19.009695 102.168 -148.3987
19.147447 102.173 -148.8669
19.286197 102.179 -149.3344
19.425953 102.184 -149.8011
19.566721 102.188 -150.2672
19.708510 102.193 -150.7322
19.851326 102.197 -151.1960
19.995177 102.200 -151.6583
20.140070 102.203 -152.1188
20.286013 102.206 -152.5771
20.433014 102.209 -153.0330
20.581080 102.211 -153.4865
20.730219 102.213 -153.9374
20.880439 102.214 -154.3857
21.031747 102.216 -154.8317
21.184152 102.217 -155.2756
21.337661 102.219 -155.7177
21.492282 102.220 -156.1581
21.648024 102.221 -156.5974
21.804895 102.223 -157.0356
21.962902 102.223 -157.4730
22.122054 102.224 -157.9097
22.282360 102.225 -158.3456
22.443827 102.225 -158.7809
22.606464 102.225 -159.2155
22.770280 102.225 -159.6493
22.935283 102.224 -160.0823
23.101481 102.224 -160.5145
23.268884 102.222 -160.9458
23.437500 102.221 -161.3761
23.607338 102.219 -161.8054
23.778406 102.217 -162.2334
23.950714 102.214 -162.6600
24.124271 102.210 -163.0847
24.299086 102.207 -163.5072
24.475167 102.203 -163.9271
24.652524 102.198 -164.3439
24.831166 102.193 -164.7575
25.011103 102.188 -165.1677
25.192344 102.183 -165.5748
25.374898 102.178 -165.9790
25.558775 102.173 -166.3812
25.743984 102.168 -166.7820
25.930536 102.164 -167.1826
26.118439 102.159 -167.5838
26.307704 102.155 -167.9863
26.498341 102.150 -168.3906
26.690359 102.145 -168.7967
26.883768 102.139 -169.2041
27.078579 102.133 -169.6119
27.274801 102.126 -170.0190
27.472446 102.118 -170.4243
27.671522 102.109 -170.8264
27.872042 102.100 -171.2245
28.074014 102.091 -171.6183
28.277450 102.082 -172.0081
28.482360 102.073 -172.3945
28.688755 102.065 -172.7789
28.896645 102.056 -173.1626
29.106042 102.048 -173.5470
29.316957 102.040 -173.9331
29.529400 102.032 -174.3212
29.743382 102.023 -174.7112
29.958915 102.014 -175.1022
30.176009 102.004 -175.4929
30.394677 101.993 -175.8821
30.614929 101.982 -176.2684
30.836778 101.971 -176.6513
31.060234 101.959 -177.0305
31.285309 101.947 -177.4063
31.512015 101.935 -177.7796
31.740364 101.924 -178.1512
31.970368 101.912 -178.5219
32.202039 101.900 -178.8921
32.435388 101.888 -179.2618
32.670428 101.876 -179.6306
32.907171 101.864 -179.9980
33.145630 101.851 179.6362
33.385817 101.838 179.2723
33.627745 101.825 178.9099
33.871425 101.813 178.5482
34.116871 101.800 178.1868
34.364096 101.787 177.8247
34.613113 101.774 177.4619
34.863934 101.760 177.0984
35.116572 101.746 176.7349
35.371041 101.731 176.3722
35.627354 101.716 176.0109
35.885525 101.701 175.6512
36.145566 101.686 175.2931
36.407492 101.670 174.9359
36.671316 101.654 174.5791
36.937051 101.638 174.2220
37.204712 101.622 173.8646
37.474313 101.605 173.5073
37.745867 101.587 173.1512
38.019389 101.569 172.7979
38.294893 101.550 172.4485
38.572394 101.531 172.1040
38.851905 101.512 171.7646
39.133442 101.493 171.4297
39.417019 101.474 171.0981
39.702651 101.455 170.7686
39.990353 101.437 170.4398
40.280140 101.418 170.1112
40.572026 101.400 169.7828
40.866028 101.381 169.4552
41.162160 101.362 169.1290
41.460438 101.343 168.8052
41.760877 101.323 168.4839
42.063494 101.304 168.1653
42.368303 101.284 167.8487
42.675322 101.265 167.5336
42.984565 101.245 167.2193
43.296048 101.226 166.9056
43.609789 101.206 166.5925
43.925804 101.187 166.2799
44.244108 101.167 165.9680
44.564719 101.148 165.6564
44.887654 101.128 165.3447
45.212928 101.109 165.0321
45.540560 101.090 164.7177
45.870565 101.071 164.4008
46.202962 101.052 164.0811
46.537768 101.033 163.7588
46.875000 101.013 163.4343
47.214676 100.993 163.1082
47.556813 100.973 162.7809
47.901429 100.953 162.4526
48.248542 100.932 162.1236
48.598171 100.912 161.7936
48.950334 100.890 161.4631
49.305048 100.868 161.1325
49.662333 100.846 160.8032
50.022206 100.823 160.4765
50.384688 100.799 160.1536
50.749796 100.775 159.8349
51.117550 100.751 159.5206
51.487969 100.727 159.2100
51.861072 100.702 158.9023
52.236879 100.678 158.5969
52.615409 100.653 158.2932
52.996681 100.629 157.9905
53.380717 100.604 157.6888
53.767536 100.579 157.3875
54.157158 100.553 157.0864
54.549603 100.527 156.7856
54.944892 100.501 156.4850
55.343045 100.475 156.1848
55.744084 100.448 155.8854
56.148028 100.420 155.5872
56.554900 100.393 155.2907
56.964720 100.365 154.9964
57.377510 100.337 154.7047
57.793291 100.309 154.4155
58.212085 100.282 154.1285
58.633914 100.254 153.8427
59.058799 100.227 153.5573
59.486764 100.200 153.2716
59.917829 100.173 152.9856
60.352019 100.146 152.6993
60.789354 100.118 152.4134
61.229859 100.091 152.1281
61.673556 100.062 151.8439
62.120468 100.034 151.5611
62.570618 100.005 151.2795
63.024031 99.977 150.9986
63.480729 99.948 150.7172
63.940736 99.919 150.4345
64.404077 99.890 150.1506
64.870776 99.861 149.8661
65.340856 99.831 149.5817
65.814343 99.801 149.2975
66.291261 99.771 149.0139
66.771635 99.741 148.7305
67.255489 99.710 148.4482
67.742850 99.679 148.1677
68.233743 99.648 147.8903
68.728193 99.617 147.6171
69.226226 99.586 147.3484
69.727867 99.555 147.0840
70.233144 99.523 146.8232
70.742083 99.493 146.5644
71.254709 99.462 146.3060
71.771050 99.431 146.0468
72.291132 99.400 145.7859
72.814984 99.368 145.5235
73.342631 99.336 145.2601
73.874102 99.303 144.9965
74.409424 99.270 144.7333
74.948626 99.236 144.4701
75.491734 99.203 144.2067
76.038779 99.169 143.9432
76.589787 99.135 143.6811
77.144788 99.101 143.4215
77.703811 99.067 143.1649
78.266885 99.033 142.9102
78.834039 98.999 142.6562
79.405303 98.966 142.4030
79.980706 98.932 142.1517
80.560280 98.898 141.9035
81.144053 98.864 141.6587
81.732056 98.830 141.4161
82.324320 98.796 141.1742
82.920876 98.762 140.9319
83.521755 98.727 140.6893
84.126988 98.692 140.4474
84.736607 98.657 140.2069
85.350643 98.621 139.9675
85.969129 98.586 139.7284
86.592097 98.551 139.4885
87.219579 98.515 139.2477
87.851608 98.479 139.0064
88.488217 98.444 138.7654
89.129439 98.408 138.5258
89.775308 98.372 138.2886
90.425856 98.336 138.0547
91.081119 98.300 137.8239
91.741131 98.264 137.5951
92.405925 98.229 137.3674
93.075536 98.194 137.1405
93.750000 98.158 136.9146
94.429351 98.123 136.6896
95.113625 98.087 136.4656
95.802858 98.051 136.2419
96.497085 98.015 136.0181
97.196342 97.979 135.7939
97.900667 97.942 135.5700
98.610096 97.905 135.3472
99.324665 97.868 135.1260
100.044413 97.831 134.9059
100.769376 97.793 134.6866
101.499592 97.756 134.4675
102.235100 97.719 134.2484
102.975938 97.682 134.0303
103.722144 97.644 133.8140
104.473757 97.607 133.6000
105.230817 97.570 133.3879
105.993363 97.533 133.1772
106.761435 97.496 132.9675
107.535072 97.459 132.7590
108.314315 97.422 132.5519
109.099206 97.385 132.3455
109.889783 97.347 132.1392
110.686090 97.310 131.9323
111.488167 97.272 131.7252
112.296056 97.234 131.5184
113.109800 97.197 131.3121
113.929440 97.159 131.1066
114.755020 97.122 130.9025
115.586582 97.085 130.7001
116.424170 97.049 130.4994
117.267827 97.013 130.2996
118.117598 96.977 130.0996
118.973527 96.941 129.8992
119.835658 96.904 129.6995
120.704037 96.867 129.5026
121.578708 96.828 129.3103
122.459718 96.789 129.1221
123.347111 96.750 128.9359
124.240935 96.712 128.7491
125.141236 96.673 128.5601
126.048061 96.635 128.3683
126.961458 96.597 128.1746
127.881473 96.560 127.9802
128.808154 96.522 127.7860
129.741551 96.485 127.5925
130.681712 96.448 127.4003
131.628686 96.410 127.2101
132.582521 96.372 127.0222
133.543269 96.334 126.8365
134.510979 96.296 126.6528
135.485701 96.257 126.4705
136.467486 96.218 126.2890
137.456386 96.180 126.1075
138.452451 96.141 125.9261
139.455735 96.103 125.7448
140.466288 96.066 125.5632
141.484165 96.028 125.3813
142.509418 95.991 125.1995
143.542100 95.954 125.0184
144.582265 95.917 124.8389
145.629968 95.880 124.6613
146.685262 95.843 124.4857
147.748204 95.805 124.3127
148.818849 95.767 124.1425
149.897251 95.729 123.9741
150.983469 95.691 123.8057
152.077557 95.653 123.6357
153.179574 95.616 123.4638
154.289576 95.578 123.2908
155.407622 95.541 123.1186
156.533770 95.503 122.9482
157.668078 95.466 122.7796
158.810606 95.429 122.6118
159.961413 95.392 122.4442
161.120559 95.355 122.2764
162.288105 95.317 122.1082
163.464112 95.280 121.9396
164.648640 95.242 121.7709
165.841752 95.204 121.6031
167.043510 95.166 121.4369
168.253976 95.128 121.2725
169.473213 95.090 121.1099
170.701286 95.052 120.9490
171.938258 95.014 120.7900
173.184194 94.976 120.6337
174.439158 94.938 120.4805
175.703216 94.901 120.3309
176.976434 94.863 120.1854
178.258878 94.825 120.0439
179.550615 94.786 119.9055
180.851713 94.748 119.7692
182.162239 94.710 119.6339
183.482262 94.672 119.4999
184.811850 94.633 119.3688
186.151073 94.594 119.2437
187.500000 94.555 119.1274
188.858702 94.515 119.0224
190.227250 94.476 118.9299
191.605715 94.438 118.8508
192.994169 94.400 118.7866
194.392685 94.364 118.7385
195.801334 94.329 118.7065
197.220191 94.296 118.6888
198.649330 94.266 118.6825
200.088825 94.239 118.6842
201.538751 94.216 118.6889
202.999184 94.198 118.6890
204.470200 94.186 118.6748
205.951875 94.179 118.6363
207.444287 94.177 118.5649
208.947514 94.178 118.4547
210.461634 94.181 118.3027
211.986726 94.183 118.1099
213.522869 94.184 117.8798
215.070144 94.181 117.6190
216.628631 94.174 117.3356
218.198411 94.162 117.0387
219.779567 94.146 116.7376
221.372180 94.125 116.4407
222.976334 94.102 116.1537
224.592112 94.076 115.8799
226.219600 94.047 115.6205
227.858880 94.017 115.3767
229.510039 93.986 115.1495
231.173164 93.953 114.9388
232.848340 93.920 114.7426
234.535655 93.887 114.5572
236.235197 93.853 114.3786
237.947054 93.820 114.2035
239.671317 93.788 114.0305
241.408074 93.758 113.8589
243.157416 93.728 113.6859
244.919435 93.701 113.5070
246.694223 93.677 113.3174
248.481871 93.654 113.1165
250.282473 93.633 112.9084
252.096123 93.612 112.6996
253.922915 93.589 112.4935
255.762945 93.565 112.2908
257.616309 93.540 112.0904
259.483103 93.514 111.8923
261.363424 93.488 111.6974
263.257372 93.462 111.5067
265.165043 93.435 111.3190
267.086538 93.409 111.1331
269.021957 93.383 110.9478
270.971401 93.357 110.7627
272.934972 93.333 110.5784
274.912771 93.308 110.3954
276.904902 93.284 110.2143
278.911469 93.260 110.0355
280.932577 93.236 109.8594
282.968330 93.212 109.6852
285.018835 93.188 109.5120
287.084199 93.164 109.3387
289.164530 93.141 109.1653
291.259935 93.119 108.9919
293.370525 93.096 108.8185
295.496408 93.073 108.6447
297.637697 93.051 108.4700
299.794503 93.029 108.2946
301.966937 93.007 108.1191
304.155114 92.986 107.9444
306.359147 92.965 107.7700
308.579152 92.945 107.5948
310.815244 92.925 107.4180
313.067539 92.905 107.2394
315.336156 92.885 107.0591
317.621211 92.865 106.8780
319.922826 92.845 106.6969
322.241118 92.826 106.5166
324.576210 92.806 106.3376
326.928223 92.786 106.1606
329.297280 92.766 105.9857
331.683504 92.747 105.8123
334.087019 92.728 105.6394
336.507952 92.710 105.4661
338.946427 92.692 105.2924
341.402572 92.675 105.1187
343.876516 92.657 104.9454
346.368387 92.641 104.7720
348.878315 92.624 104.5978
351.406431 92.607 104.4221
353.952867 92.590 104.2445
356.517756 92.574 104.0656
359.101230 92.558 103.8859
361.703426 92.542 103.7067
364.324478 92.526 103.5293
366.964523 92.511 103.3545
369.623699 92.495 103.1823
372.302145 92.480 103.0120
375.000000 92.465 102.8432
377.717405 92.450 102.6750
380.454501 92.434 102.5068
383.211431 92.419 102.3378
385.988339 92.404 102.1678
388.785369 92.390 101.9968
391.602668 92.375 101.8252
394.440383 92.361 101.6539
397.298660 92.346 101.4839
400.177650 92.332 101.3160
403.077502 92.318 101.1514
405.998368 92.304 100.9905
408.940400 92.291 100.8338
411.903750 92.277 100.6818
414.888575 92.264 100.5345
417.895028 92.251 100.3919
420.923268 92.239 100.2543
423.973452 92.227 100.1218
427.045738 92.217 99.9943
430.140287 92.208 99.8710
433.257261 92.200 99.7507
436.396822 92.195 99.6315
439.559133 92.191 99.5104
442.744360 92.189 99.3844
445.952668 92.188 99.2506
449.184225 92.189 99.1069
452.439199 92.190 98.9523
455.717760 92.191 98.7871
459.020079 92.192 98.6120
462.346327 92.193 98.4282
465.696680 92.192 98.2377
469.071310 92.191 98.0433
472.470394 92.189 97.8478
475.894109 92.187 97.6536
479.342634 92.183 97.4619
482.816148 92.179 97.2735
486.314833 92.174 97.0884
489.838871 92.169 96.9065
493.388445 92.164 96.7271
496.963741 92.159 96.5496
500.564945 92.154 96.3737
504.192245 92.149 96.1994
507.845830 92.144 96.0269
511.525890 92.140 95.8563
515.232618 92.135 95.6878
518.966206 92.131 95.5214
522.726849 92.127 95.3571
526.514743 92.123 95.1948
530.330086 92.119 95.0348
534.173076 92.115 94.8771
538.043915 92.112 94.7216
541.942803 92.109 94.5681
545.869944 92.106 94.4164
549.825542 92.103 94.2665
553.809805 92.101 94.1179
557.822939 92.098 93.9705
561.865154 92.096 93.8243
565.936660 92.095 93.6798
570.037671 92.093 93.5372
574.168399 92.091 93.3970
578.329060 92.089 93.2592
582.519870 92.088 93.1236
586.741049 92.086 92.9901
590.992817 92.085 92.8590
595.275394 92.084 92.7305
599.589005 92.083 92.6049
603.933874 92.082 92.4827
608.310228 92.082 92.3646
612.718295 92.082 92.2507
617.158304 92.083 92.1408
621.630488 92.083 92.0344
626.135079 92.085 91.9310
630.672311 92.086 91.8302
635.242423 92.088 91.7324
639.845651 92.090 91.6381
644.482237 92.093 91.5477
649.152421 92.095 91.4613
653.856447 92.098 91.3790
658.594560 92.101 91.3010
663.367008 92.105 91.2271
668.174039 92.109 91.1569
673.015903 92.114 91.0898
677.892854 92.119 91.0258
682.805145 92.125 90.9647
687.753032 92.132 90.9067
692.736774 92.138 90.8522
697.756631 92.146 90.8015
702.812863 92.153 90.7548
707.905735 92.162 90.7123
713.035511 92.171 90.6739
718.202461 92.180 90.6395
723.406852 92.190 90.6091
728.648956 92.201 90.5824
733.929047 92.212 90.5588
739.247399 92.223 90.5386
744.604290 92.236 90.5219
750.000000 92.248 90.5090
755.434809 92.262 90.4998
760.909001 92.277 90.4941
766.422861 92.293 90.4922
771.976677 92.309 90.4941
777.570739 92.326 90.4999
783.205337 92.344 90.5095
788.880766 92.363 90.5227
794.597321 92.383 90.5392
800.355301 92.403 90.5587
806.155005 92.424 90.5808
811.996736 92.446 90.6054
817.880799 92.469 90.6323
823.807501 92.494 90.6612
829.777150 92.519 90.6924
835.790057 92.546 90.7263
841.846536 92.573 90.7633
847.946903 92.603 90.8032
854.091476 92.633 90.8455
860.280575 92.665 90.8896
866.514523 92.698 90.9352
872.793644 92.732 90.9821
879.118267 92.767 91.0302
885.488720 92.804 91.0791
891.905336 92.841 91.1291
898.368450 92.880 91.1798
904.878398 92.920 91.2309
911.435520 92.961 91.2815
918.040157 93.003 91.3307
924.692655 93.047 91.3781
931.393359 93.092 91.4232
938.142619 93.139 91.4658
944.940787 93.187 91.5060
951.788218 93.236 91.5439
958.685268 93.287 91.5790
965.632296 93.339 91.6110
972.629666 93.393 91.6393
979.677741 93.447 91.6639
986.776890 93.503 91.6844
993.927482 93.559 91.7004
1001.129891 93.617 91.7117
1008.384491 93.676 91.7183
1015.691660 93.736 91.7200
1023.051781 93.797 91.7164
1030.465236 93.860 91.7067
1037.932411 93.923 91.6907
1045.453698 93.988 91.6681
1053.029486 94.054 91.6392
1060.660172 94.120 91.6041
1068.346153 94.188 91.5625
1076.087829 94.257 91.5139
1083.885605 94.327 91.4575
1091.739887 94.398 91.3920
1099.651084 94.470 91.3164
1107.619609 94.543 91.2300
1115.645878 94.616 91.1325
1123.730308 94.690 91.0236
1131.873321 94.765 90.9028
1140.075341 94.840 90.7697
1148.336797 94.915 90.6237
1156.658119 94.991 90.4641
1165.039741 95.066 90.2906
1173.482099 95.141 90.1031
1181.985634 95.216 89.9019
1190.550789 95.290 89.6872
1199.178011 95.363 89.4597
1207.867749 95.436 89.2202
1216.620457 95.507 88.9696
1225.436590 95.577 88.7087
1234.316609 95.646 88.4384
1243.260976 95.713 88.1598
1252.270157 95.779 87.8738
1261.344623 95.844 87.5816
1270.484846 95.907 87.2841
1279.691303 95.968 86.9824
1288.964474 96.028 86.6772
1298.304842 96.086 86.3695
1307.712894 96.143 86.0601
1317.189120 96.199 85.7497
1326.734016 96.253 85.4393
1336.348077 96.305 85.1297
1346.031806 96.357 84.8215
1355.785708 96.407 84.5154
1365.610290 96.456 84.2114
1375.506065 96.504 83.9096
1385.473549 96.551 83.6102
1395.513261 96.597 83.3135
1405.625726 96.642 83.0198
1415.811469 96.687 82.7297
1426.071023 96.731 82.4435
1436.404921 96.774 82.1615
1446.813703 96.817 81.8834
1457.297912 96.859 81.6091
1467.858093 96.901 81.3386
1478.494798 96.943 81.0718
1489.208581 96.984 80.8090
1500.000000 97.025 80.5500
1510.869618 97.066 80.2949
1521.818002 97.107 80.0435
1532.845723 97.147 79.7958
1543.953355 97.188 79.5517
1555.141477 97.229 79.3114
1566.410674 97.270 79.0747
1577.761531 97.311 78.8412
1589.194642 97.352 78.6104
1600.710601 97.394 78.3814
1612.310010 97.435 78.1540
1623.993473 97.477 77.9280
1635.761599 97.520 77.7036
1647.615002 97.562 77.4808
1659.554299 97.605 77.2599
1671.580114 97.649 77.0404
1683.693072 97.693 76.8218
1695.893807 97.737 76.6035
1708.182952 97.782 76.3854
1720.561150 97.827 76.1671
1733.029045 97.873 75.9483
1745.587288 97.919 75.7290
1758.236533 97.966 75.5087
1770.977440 98.013 75.2872
1783.810673 98.061 75.0641
1796.736900 98.109 74.8395
1809.756796 98.158 74.6128
1822.871040 98.207 74.3838
1836.080315 98.257 74.1520
1849.385310 98.307 73.9167
1862.786718 98.358 73.6774
1876.285239 98.410 73.4332
1889.881575 98.462 73.1837
1903.576436 98.514 72.9284
1917.370535 98.567 72.6674
1931.264593 98.620 72.4006
1945.259332 98.674 72.1279
1959.355483 98.728 71.8489
1973.553781 98.783 71.5629
1987.854965 98.837 71.2693
2002.259781 98.893 70.9675
2016.768981 98.948 70.6569
2031.383320 99.003 70.3372
2046.103561 99.059 70.0079
2060.930471 99.114 69.6687
2075.864823 99.169 69.3195
2090.907395 99.225 68.9600
2106.058972 99.280 68.5902
2121.320344 99.334 68.2097
2136.692305 99.389 67.8182
2152.175658 99.442 67.4152
2167.771210 99.496 67.0002
2183.479774 99.548 66.5731
2199.302169 99.600 66.1337
2215.239219 99.651 65.6816
2231.291755 99.701 65.2165
2247.460615 99.750 64.7381
2263.746641 99.797 64.2464
2280.150683 99.844 63.7417
2296.673595 99.888 63.2245
2313.316238 99.932 62.6953
2330.079481 99.973 62.1540
2346.964198 100.013 61.6006
2363.971268 100.050 61.0350
2381.101578 100.085 60.4572
2398.356022 100.118 59.8678
2415.735498 100.148 59.2673
2433.240913 100.175 58.6564
2450.873180 100.200 58.0359
2468.633217 100.222 57.4066
2486.521951 100.241 56.7695
2504.540314 100.256 56.1256
2522.689246 100.269 55.4759
2540.969692 100.278 54.8215
2559.382606 100.284 54.1637
2577.928947 100.286 53.5034
2596.609683 100.284 52.8420
2615.425787 100.279 52.1807
2634.378241 100.271 51.5204
2653.468031 100.259 50.8627
2672.696154 100.243 50.2086
2692.063613 100.225 49.5593
2711.571415 100.202 48.9160
2731.220579 100.177 48.2797
2751.012130 100.148 47.6513
2770.947098 100.116 47.0318
2791.026522 100.081 46.4219
2811.251451 100.043 45.8224
2831.622938 100.002 45.2343
2852.142045 99.958 44.6584
2872.809842 99.911 44.0961
2893.627406 99.861 43.5489
2914.595823 99.809 43.0179
2935.716186 99.754 42.5046
2956.989596 99.697 42.0101
2978.417161 99.638 41.5353
3000.000000 99.577 41.0814
3021.739237 99.515 40.6495
3043.636005 99.451 40.2408
3065.691446 99.386 39.8563
3087.906710 99.321 39.4968
3110.282955 99.256 39.1627
3132.821347 99.191 38.8534
3155.523062 99.127 38.5684
3178.389283 99.065 38.3062
3201.421202 99.004 38.0645
3224.620020 98.946 37.8403
3247.986946 98.890 37.6298
3271.523198 98.838 37.4283
3295.230004 98.788 37.2310
3319.108599 98.742 37.0331
3343.160228 98.697 36.8309
3367.386145 98.654 36.6214
3391.787613 98.613 36.4036
3416.365904 98.571 36.1777
3441.122300 98.530 35.9453
3466.058091 98.488 35.7083
3491.174576 98.445 35.4693
3516.473066 98.402 35.2305
3541.954880 98.358 34.9937
3567.621345 98.313 34.7605
3593.473800 98.268 34.5317
3619.513592 98.223 34.3082
3645.742080 98.177 34.0906
3672.160630 98.132 33.8793
3698.770620 98.087 33.6754
3725.573436 98.042 33.4798
3752.570477 97.997 33.2940
3779.763150 97.952 33.1197
3807.152872 97.909 32.9589
3834.741071 97.867 32.8135
3862.529185 97.826 32.6855
3890.518664 97.789 32.5763
3918.710966 97.756 32.4857
3947.107561 97.729 32.4117
3975.709929 97.708 32.3494
4004.519563 97.696 32.2903
4033.537962 97.694 32.2222
4062.766641 97.703 32.1292
4092.207123 97.723 31.9916
4121.860942 97.755 31.7882
4151.729646 97.797 31.4968
4181.814790 97.846 31.0967
4212.117944 97.901 30.5708
4242.640687 97.957 29.9061
4273.384610 98.010 29.0956
4304.351317 98.056 28.1382
4335.542421 98.089 27.0400
4366.959549 98.106 25.8135
4398.604338 98.102 24.4781
4430.478438 98.073 23.0594
4462.583511 98.018 21.5885
4494.921231 97.933 20.1008
4527.493283 97.820 18.6346
4560.301365 97.677 17.2288
4593.347189 97.509 15.9203
4626.632476 97.317 14.7416
4660.158962 97.108 13.7175
4693.928395 96.888 12.8632
4727.942535 96.661 12.1830
4762.203156 96.435 11.6702
4796.712043 96.214 11.3083
4831.470996 96.003 11.0731
4866.481826 95.805 10.9363
4901.746360 95.620 10.8684
4937.266434 95.450 10.8423
4973.043902 95.292 10.8351
5009.080628 95.146 10.8296
5045.378492 95.010 10.8144
5081.939384 94.882 10.7832
5118.765212 94.760 10.7339
5155.857894 94.642 10.6670
5193.219366 94.529 10.5849
5230.851574 94.417 10.4913
5268.756481 94.309 10.3904
5306.936062 94.202 10.2864
5345.392309 94.097 10.1830
5384.127225 93.995 10.0829
5423.142830 93.895 9.9887
5462.441159 93.797 9.9020
5502.024259 93.704 9.8239
5541.894195 93.613 9.7546
5582.053045 93.527 9.6942
5622.502902 93.446 9.6417
5663.245876 93.370 9.5958
5704.284090 93.299 9.5551
5745.619684 93.234 9.5177
5787.254813 93.174 9.4821
5829.191647 93.121 9.4465
5871.432373 93.074 9.4094
5913.979192 93.033 9.3694
5956.834323 92.999 9.3258
6000.000000 92.971 9.2780
6043.478473 92.950 9.2263
6087.272010 92.936 9.1713
6131.382892 92.929 9.1138
6175.813420 92.929 9.0552
6220.565910 92.938 8.9966
6265.642695 92.955 8.9390
6311.046124 92.982 8.8829
6356.778566 93.020 8.8279
6402.842404 93.070 8.7722
6449.240040 93.133 8.7120
6495.973891 93.211 8.6414
6543.046396 93.306 8.5515
6590.460007 93.419 8.4305
6638.217197 93.551 8.2637
6686.320456 93.703 8.0338
6734.772290 93.875 7.7213
6783.575226 94.066 7.3055
6832.731809 94.275 6.7653
6882.244600 94.500 6.0801
6932.116181 94.739 5.2313
6982.349153 94.986 4.2025
7032.946133 95.240 2.9811
7083.909760 95.493 1.5588
7135.242690 95.743 -0.0671
7186.947600 95.982 -1.8935
7239.027185 96.206 -3.9100
7291.484160 96.409 -6.0996
7344.321260 96.588 -8.4385
7397.541239 96.737 -10.8963
7451.146872 96.855 -13.4380
7505.140954 96.940 -16.0248
7559.526299 96.990 -18.6172
7614.305743 97.009 -21.1767
7669.482141 96.998 -23.6683
7725.058371 96.960 -26.0624
7781.037328 96.900 -28.3354
7837.421932 96.823 -30.4717
7894.215122 96.734 -32.4629
7951.419859 96.639 -34.3090
8009.039125 96.541 -36.0174
8067.075924 96.445 -37.6021
8125.533282 96.355 -39.0826
8184.414245 96.272 -40.4827
8243.721885 96.199 -41.8288
8303.459292 96.136 -43.1490
8363.629581 96.081 -44.4714
8424.235888 96.032 -45.8231
8485.281374 95.987 -47.2277
8546.769221 95.942 -48.7041
8608.702634 95.891 -50.2648
8671.084842 95.828 -51.9138
8733.919097 95.749 -53.6459
8797.208675 95.646 -55.4460
8860.956876 95.513 -57.2885
8925.167022 95.347 -59.1383
8989.842461 95.143 -60.9523
9054.986566 94.899 -62.6808
9120.602731 94.613 -64.2708
9186.694378 94.288 -65.6678
9253.264952 93.927 -66.8195
9320.317925 93.533 -67.6775
9387.856790 93.113 -68.1999
9455.885071 92.675 -68.3536
9524.406312 92.228 -68.1160
9593.424086 91.779 -67.4755
9662.941992 91.340 -66.4335
9732.963653 90.919 -65.0049
9803.492719 90.525 -63.2180
9874.532869 90.168 -61.1133
9946.087805 89.852 -58.7418
10018.161257 89.583 -56.1608
10090.756983 89.365 -53.4316
10163.878768 89.197 -50.6160
10237.530423 89.079 -47.7751
10311.715789 89.008 -44.9663
10386.438732 88.981 -42.2403
10461.703149 88.990 -39.6382
10537.512962 89.030 -37.1891
10613.872125 89.093 -34.9092
10690.784618 89.171 -32.8020
10768.254450 89.260 -30.8599
10846.285661 89.352 -29.0660
10924.882318 89.445 -27.3973
11004.048518 89.534 -25.8268
11083.788390 89.617 -24.3265
11164.106090 89.694 -22.8683
11245.005805 89.764 -21.4246
11326.491752 89.828 -19.9675
11408.568180 89.888 -18.4686
11491.239368 89.947 -16.9017
11574.509626 90.012 -15.2493
11658.383294 90.089 -13.5129
11742.864745 90.185 -11.7186
11827.958384 90.303 -9.9122
11913.668646 90.445 -8.1454
12000.000000 90.610 -6.4645
12086.956947 90.796 -4.9062
12174.544019 90.999 -3.4990
12262.765784 91.215 -2.2661
12351.626840 91.441 -1.2280
12441.131819 91.672 -0.4023
12531.285389 91.902 0.1971
12622.092249 92.124 0.5626
12713.557132 92.333 0.6940
12805.684808 92.521 0.6004
12898.480079 92.681 0.3011
12991.947783 92.808 -0.1746
13086.092792 92.896 -0.7871
13180.920015 92.940 -1.4879
13276.434395 92.939 -2.2208
13372.640911 92.891 -2.9235
13469.544580 92.798 -3.5306
13567.150452 92.663 -3.9744
13665.463617 92.493 -4.1884
13764.489200 92.297 -4.1114
13864.232362 92.090 -3.6979
13964.698305 91.888 -2.9327
14065.892266 91.710 -1.8489
14167.819519 91.575 -0.5391
14270.485380 91.495 0.8530
14373.895200 91.471 2.1637
14478.054370 91.498 3.2455
14582.968320 91.564 3.9896
14688.642520 91.655 4.3245
14795.082478 91.755 4.2040
14902.293745 91.850 3.5969
15010.281908 91.923 2.4853
15119.052599 91.955 0.8727
15228.611486 91.924 -1.2054
15338.964283 91.809 -3.6714
15450.116741 91.591 -6.3998
15562.074656 91.252 -9.2195
15674.843864 90.784 -11.9229
15788.430244 90.186 -14.2803
15902.839718 89.463 -16.0572
16018.078250 88.633 -17.0286
16134.151848 87.718 -16.9949
16251.066563 86.753 -15.8030
16368.828491 85.777 -13.3859
16487.443769 84.840 -9.8217
16606.918584 83.988 -5.3863
16727.259161 83.255 -0.5367
16848.471777 82.649 4.2227
16970.562748 82.146 8.5320
17093.538442 81.702 12.2936
17217.405268 81.268 15.6609
17342.169684 80.813 18.9495
17467.838194 80.323 22.5497
17594.417350 79.811 26.8647
17721.913751 79.317 32.2517
17850.334044 78.900 38.8999
17979.684923 78.635 46.6085
18109.973131 78.575 54.6081
18241.205462 78.718 61.7890
18373.388756 78.994 67.3427
18506.529905 79.308 71.1782
18640.635849 79.586 73.7590
18775.713581 79.797 75.6910
18911.770141 79.951 77.4341
19048.812624 80.077 79.2097
19186.848172 80.203 81.0282
19325.883983 80.348 82.7646
19465.927305 80.515 84.2465
19606.985439 80.694 85.3343
19749.065738 80.862 85.9804
19892.175609 80.993 86.2545
20036.322514 81.064 86.3161
