* Measurement data measured by REW V5.31.3
* Source: Headset (2- CX31993 HIFI AUDIO), no input selected, R, volume: no control
* Format: 256k Log Swept Sine, 1 sweep at -12.0 dBFS with no timing reference
* Dated: 10 9, 24 12:29:36 PM
* REW Settings:
*  C-weighting compensation: Off
*  Target level: 75.0 dB
* Note: ; 
* Measurement: Kadenz ECHO B No PEQ L
* Smoothing: 1/12 octave
* Frequency Step: 96 ppo
* Start Frequency: 0.36621094 Hz
*
* Freq(Hz) SPL(dB) Phase(degrees)
0.366211 62.357 -41.4590
0.368865 62.349 -41.4980
0.371538 62.338 -41.5564
0.374230 62.324 -41.6299
0.376942 62.308 -41.7148
0.379673 62.291 -41.8084
0.382424 62.273 -41.9087
0.385196 62.255 -42.0148
0.387987 62.236 -42.1260
0.390798 62.218 -42.2421
0.393630 62.199 -42.3628
0.396483 62.180 -42.4882
0.399356 62.161 -42.6183
0.402250 62.141 -42.7531
0.405165 62.122 -42.8927
0.408101 62.102 -43.0372
0.411058 62.082 -43.1866
0.414037 62.062 -43.3410
0.417037 62.042 -43.5006
0.420059 62.022 -43.6654
0.423103 62.001 -43.8355
0.426169 61.981 -44.0109
0.429257 61.960 -44.1918
0.432368 61.939 -44.3783
0.435501 61.918 -44.5704
0.438656 61.897 -44.7683
0.441835 61.876 -44.9720
0.445037 61.854 -45.1817
0.448262 61.833 -45.3974
0.451510 61.811 -45.6193
0.454782 61.789 -45.8474
0.458077 61.767 -46.0818
0.461397 61.745 -46.3227
0.464740 61.722 -46.5701
0.468108 61.700 -46.8242
0.471500 61.677 -47.0850
0.474917 61.654 -47.3526
0.478358 61.631 -47.6272
0.481825 61.608 -47.9089
0.485316 61.585 -48.1977
0.488833 61.561 -48.4938
0.492375 61.537 -48.7972
0.495943 61.513 -49.1081
0.499537 61.489 -49.4266
0.503157 61.465 -49.7527
0.506803 61.441 -50.0866
0.510475 61.416 -50.4283
0.514175 61.391 -50.7780
0.517900 61.366 -51.1357
0.521653 61.341 -51.5015
0.525434 61.316 -51.8755
0.529241 61.290 -52.2579
0.533076 61.265 -52.6486
0.536939 61.239 -53.0477
0.540830 61.213 -53.4553
0.544749 61.186 -53.8715
0.548696 61.160 -54.2963
0.552673 61.133 -54.7298
0.556677 61.106 -55.1720
0.560711 61.079 -55.6229
0.564774 61.052 -56.0826
0.568867 61.025 -56.5511
0.572989 60.997 -57.0284
0.577141 60.969 -57.5145
0.581324 60.941 -58.0094
0.585536 60.913 -58.5130
0.589779 60.885 -59.0254
0.594053 60.856 -59.5464
0.598358 60.827 -60.0760
0.602694 60.798 -60.6142
0.607061 60.769 -61.1608
0.611460 60.739 -61.7157
0.615891 60.710 -62.2788
0.620354 60.680 -62.8500
0.624849 60.650 -63.4291
0.629377 60.619 -64.0158
0.633938 60.589 -64.6101
0.638532 60.558 -65.2117
0.643159 60.527 -65.8204
0.647819 60.496 -66.4358
0.652514 60.464 -67.0578
0.657242 60.433 -67.6860
0.662005 60.401 -68.3200
0.666802 60.369 -68.9596
0.671634 60.336 -69.6043
0.676501 60.304 -70.2538
0.681403 60.271 -70.9076
0.686341 60.238 -71.5652
0.691314 60.204 -72.2261
0.696324 60.171 -72.8897
0.701370 60.136 -73.5553
0.706452 60.102 -74.2220
0.711571 60.066 -74.8891
0.716728 60.030 -75.5553
0.721921 59.992 -76.2199
0.727153 59.952 -76.8824
0.732422 59.908 -77.5438
0.737729 59.861 -78.2070
0.743075 59.810 -78.8773
0.748460 59.755 -79.5605
0.753883 59.696 -80.2617
0.759346 59.633 -80.9848
0.764849 59.566 -81.7326
0.770391 59.496 -82.5071
0.775974 59.423 -83.3098
0.781597 59.347 -84.1418
0.787261 59.267 -85.0043
0.792966 59.185 -85.8981
0.798712 59.100 -86.8240
0.804500 59.012 -87.7831
0.810329 58.921 -88.7760
0.816201 58.828 -89.8038
0.822116 58.733 -90.8672
0.828073 58.635 -91.9672
0.834074 58.536 -93.1045
0.840118 58.434 -94.2801
0.846206 58.331 -95.4947
0.852338 58.226 -96.7492
0.858514 58.121 -98.0444
0.864735 58.014 -99.3811
0.871001 57.906 -100.7599
0.877313 57.797 -102.1815
0.883670 57.688 -103.6467
0.890074 57.578 -105.1559
0.896524 57.469 -106.7097
0.903020 57.360 -108.3084
0.909564 57.251 -109.9526
0.916155 57.144 -111.6425
0.922794 57.037 -113.3783
0.929481 56.932 -115.1600
0.936216 56.828 -116.9879
0.943000 56.727 -118.8617
0.949834 56.628 -120.7814
0.956717 56.532 -122.7468
0.963649 56.439 -124.7576
0.970632 56.349 -126.8133
0.977666 56.264 -128.9136
0.984750 56.183 -131.0580
0.991886 56.106 -133.2460
0.999074 56.035 -135.4771
1.006314 55.970 -137.7508
1.013606 55.911 -140.0666
1.020951 55.859 -142.4240
1.028349 55.814 -144.8227
1.035801 55.777 -147.2625
1.043307 55.749 -149.7431
1.050867 55.729 -152.2648
1.058482 55.719 -154.8279
1.066152 55.720 -157.4332
1.073878 55.731 -160.0819
1.081660 55.754 -162.7759
1.089498 55.789 -165.5171
1.097393 55.837 -168.3076
1.105345 55.897 -171.1485
1.113355 55.970 -174.0383
1.121423 56.057 -176.9724
1.129549 56.157 -179.9430
1.137734 56.269 177.0606
1.145979 56.394 174.0508
1.154283 56.532 171.0411
1.162647 56.682 168.0451
1.171072 56.844 165.0762
1.179558 57.018 162.1467
1.188106 57.202 159.2679
1.196715 57.398 156.4496
1.205387 57.603 153.6998
1.214122 57.819 151.0250
1.222920 58.044 148.4301
1.231782 58.278 145.9181
1.240708 58.521 143.4909
1.249699 58.772 141.1491
1.258754 59.029 138.8920
1.267876 59.294 136.7182
1.277063 59.565 134.6254
1.286318 59.841 132.6110
1.295639 60.122 130.6717
1.305027 60.408 128.8039
1.314484 60.696 127.0040
1.324009 60.988 125.2681
1.333604 61.281 123.5924
1.343268 61.575 121.9729
1.353002 61.869 120.4059
1.362806 62.162 118.8876
1.372681 62.454 117.4143
1.382628 62.743 115.9825
1.392647 63.029 114.5890
1.402739 63.310 113.2304
1.412904 63.587 111.9038
1.423142 63.857 110.6063
1.433455 64.121 109.3356
1.443843 64.379 108.0897
1.454305 64.631 106.8670
1.464844 64.878 105.6667
1.475459 65.120 104.4886
1.486150 65.361 103.3328
1.496920 65.599 102.1993
1.507767 65.837 101.0881
1.518693 66.074 99.9988
1.529698 66.311 98.9308
1.540783 66.548 97.8832
1.551948 66.785 96.8552
1.563194 67.022 95.8456
1.574521 67.259 94.8533
1.585931 67.496 93.8773
1.597423 67.733 92.9162
1.608999 67.969 91.9689
1.620658 68.205 91.0342
1.632402 68.441 90.1110
1.644232 68.677 89.1979
1.656146 68.912 88.2939
1.668147 69.146 87.3978
1.680235 69.380 86.5085
1.692411 69.613 85.6247
1.704675 69.845 84.7454
1.717028 70.077 83.8695
1.729470 70.307 82.9960
1.742003 70.536 82.1238
1.754626 70.764 81.2520
1.767341 70.991 80.3796
1.780147 71.216 79.5059
1.793047 71.439 78.6303
1.806040 71.661 77.7525
1.819128 71.881 76.8727
1.832310 72.099 75.9913
1.845587 72.315 75.1095
1.858961 72.529 74.2283
1.872432 72.740 73.3490
1.886001 72.949 72.4727
1.899667 73.156 71.6000
1.913433 73.360 70.7316
1.927299 73.563 69.8678
1.941265 73.763 69.0090
1.955332 73.961 68.1551
1.969501 74.158 67.3062
1.983773 74.353 66.4622
1.998148 74.546 65.6229
2.012627 74.738 64.7879
2.027212 74.929 63.9569
2.041902 75.118 63.1296
2.056698 75.306 62.3055
2.071602 75.494 61.4839
2.086614 75.680 60.6645
2.101734 75.866 59.8465
2.116964 76.052 59.0293
2.132304 76.238 58.2123
2.147756 76.423 57.3948
2.163320 76.608 56.5764
2.178996 76.793 55.7565
2.194786 76.977 54.9350
2.210690 77.160 54.1119
2.226710 77.343 53.2874
2.242845 77.524 52.4622
2.259098 77.705 51.6365
2.275468 77.883 50.8112
2.291957 78.061 49.9865
2.308566 78.237 49.1630
2.325295 78.411 48.3409
2.342145 78.585 47.5205
2.359117 78.757 46.7020
2.376212 78.928 45.8853
2.393431 79.098 45.0704
2.410775 79.267 44.2574
2.428244 79.435 43.4459
2.445840 79.603 42.6357
2.463564 79.770 41.8265
2.481416 79.936 41.0180
2.499397 80.102 40.2096
2.517509 80.267 39.4008
2.535752 80.432 38.5911
2.554127 80.597 37.7798
2.572635 80.760 36.9666
2.591277 80.923 36.1511
2.610055 81.085 35.3333
2.628968 81.245 34.5135
2.648019 81.405 33.6921
2.667208 81.563 32.8695
2.686535 81.720 32.0462
2.706003 81.876 31.2229
2.725612 82.031 30.3998
2.745363 82.185 29.5774
2.765257 82.339 28.7560
2.785295 82.491 27.9358
2.805478 82.642 27.1168
2.825808 82.793 26.2992
2.846285 82.943 25.4827
2.866910 83.093 24.6671
2.887685 83.242 23.8520
2.908611 83.390 23.0368
2.929688 83.537 22.2208
2.950917 83.684 21.4033
2.972301 83.830 20.5837
2.993839 83.974 19.7621
3.015534 84.118 18.9385
3.037386 84.260 18.1133
3.059396 84.402 17.2871
3.081565 84.542 16.4604
3.103896 84.682 15.6339
3.126388 84.820 14.8080
3.149043 84.958 13.9832
3.171862 85.095 13.1597
3.194847 85.231 12.3379
3.217998 85.366 11.5178
3.241317 85.501 10.6991
3.264805 85.635 9.8815
3.288463 85.768 9.0641
3.312293 85.900 8.2463
3.336295 86.031 7.4274
3.360471 86.162 6.6067
3.384822 86.291 5.7843
3.409350 86.419 4.9604
3.434056 86.546 4.1358
3.458940 86.673 3.3109
3.484005 86.798 2.4863
3.509252 86.922 1.6628
3.534681 87.046 0.8411
3.560295 87.169 0.0212
3.586094 87.291 -0.7964
3.612081 87.412 -1.6117
3.638255 87.533 -2.4253
3.664620 87.653 -3.2375
3.691175 87.771 -4.0496
3.717923 87.889 -4.8618
3.744864 88.006 -5.6747
3.772001 88.122 -6.4882
3.799335 88.237 -7.3019
3.826866 88.351 -8.1154
3.854597 88.465 -8.9281
3.882529 88.577 -9.7393
3.910664 88.688 -10.5486
3.939002 88.799 -11.3555
3.967546 88.909 -12.1598
3.996296 89.019 -12.9617
4.025255 89.127 -13.7617
4.054423 89.235 -14.5603
4.083804 89.342 -15.3584
4.113396 89.448 -16.1561
4.143204 89.553 -16.9537
4.173227 89.657 -17.7509
4.203468 89.761 -18.5471
4.233928 89.863 -19.3420
4.264609 89.965 -20.1349
4.295512 90.067 -20.9257
4.326639 90.167 -21.7137
4.357992 90.267 -22.4991
4.389572 90.366 -23.2823
4.421380 90.464 -24.0636
4.453419 90.562 -24.8436
4.485691 90.659 -25.6227
4.518196 90.755 -26.4009
4.550936 90.851 -27.1781
4.583914 90.945 -27.9539
4.617131 91.039 -28.7280
4.650589 91.132 -29.5000
4.684289 91.225 -30.2698
4.718233 91.317 -31.0371
4.752424 91.408 -31.8022
4.786862 91.499 -32.5656
4.821549 91.589 -33.3275
4.856488 91.679 -34.0883
4.891680 91.767 -34.8479
4.927127 91.855 -35.6063
4.962831 91.943 -36.3634
4.998794 92.029 -37.1187
5.035017 92.116 -37.8721
5.071503 92.201 -38.6235
5.108253 92.286 -39.3730
5.145270 92.370 -40.1207
5.182555 92.454 -40.8672
5.220110 92.537 -41.6125
5.257937 92.620 -42.3567
5.296038 92.701 -43.0998
5.334415 92.782 -43.8416
5.373071 92.863 -44.5817
5.412006 92.943 -45.3201
5.451224 93.022 -46.0567
5.490725 93.101 -46.7916
5.530514 93.179 -47.5251
5.570590 93.256 -48.2574
5.610957 93.333 -48.9887
5.651616 93.408 -49.7188
5.692570 93.484 -50.4475
5.733821 93.558 -51.1747
5.775370 93.632 -51.9000
5.817221 93.706 -52.6235
5.859375 93.778 -53.3452
5.901834 93.850 -54.0652
5.944602 93.922 -54.7838
5.987679 93.992 -55.5011
6.031068 94.062 -56.2168
6.074771 94.131 -56.9307
6.118792 94.200 -57.6426
6.163131 94.268 -58.3522
6.207792 94.335 -59.0594
6.252776 94.401 -59.7645
6.298086 94.467 -60.4675
6.343725 94.532 -61.1685
6.389694 94.597 -61.8673
6.435996 94.660 -62.5640
6.482634 94.723 -63.2581
6.529610 94.786 -63.9493
6.576926 94.848 -64.6379
6.624585 94.909 -65.3236
6.672590 94.969 -66.0067
6.720942 95.029 -66.6871
6.769645 95.089 -67.3649
6.818700 95.147 -68.0399
6.868111 95.206 -68.7120
6.917881 95.263 -69.3811
6.968010 95.321 -70.0471
7.018504 95.377 -70.7102
7.069362 95.433 -71.3704
7.120590 95.489 -72.0278
7.172189 95.544 -72.6824
7.224161 95.599 -73.3343
7.276511 95.654 -73.9834
7.329239 95.708 -74.6297
7.382350 95.761 -75.2734
7.435845 95.814 -75.9146
7.489729 95.867 -76.5533
7.544002 95.920 -77.1898
7.598669 95.972 -77.8241
7.653732 96.023 -78.4563
7.709194 96.075 -79.0864
7.765058 96.126 -79.7147
7.821327 96.176 -80.3412
7.878004 96.227 -80.9661
7.935091 96.277 -81.5894
7.992592 96.326 -82.2111
8.050510 96.375 -82.8315
8.108847 96.424 -83.4506
8.167607 96.472 -84.0684
8.226793 96.520 -84.6851
8.286408 96.567 -85.3005
8.346454 96.614 -85.9147
8.406936 96.660 -86.5276
8.467856 96.706 -87.1392
8.529218 96.751 -87.7496
8.591024 96.796 -88.3586
8.653278 96.840 -88.9662
8.715983 96.883 -89.5721
8.779143 96.926 -90.1761
8.842760 96.968 -90.7782
8.906839 97.010 -91.3783
8.971381 97.050 -91.9761
9.036392 97.091 -92.5715
9.101873 97.130 -93.1642
9.167829 97.169 -93.7539
9.234263 97.207 -94.3407
9.301178 97.245 -94.9243
9.368578 97.282 -95.5045
9.436467 97.319 -96.0812
9.504847 97.355 -96.6544
9.573723 97.391 -97.2237
9.643099 97.426 -97.7892
9.712976 97.461 -98.3511
9.783361 97.495 -98.9091
9.854255 97.529 -99.4635
9.925663 97.563 -100.0142
9.997588 97.597 -100.5614
10.070035 97.630 -101.1052
10.143007 97.663 -101.6460
10.216507 97.696 -102.1840
10.290540 97.729 -102.7192
10.365109 97.762 -103.2522
10.440219 97.795 -103.7831
10.515873 97.828 -104.3122
10.592076 97.860 -104.8398
10.668830 97.892 -105.3663
10.746141 97.924 -105.8917
10.824012 97.956 -106.4163
10.902447 97.988 -106.9402
10.981451 98.019 -107.4636
11.061027 98.050 -107.9865
11.141180 98.080 -108.5089
11.221913 98.110 -109.0306
11.303232 98.140 -109.5515
11.385140 98.169 -110.0714
11.467641 98.197 -110.5901
11.550741 98.225 -111.1072
11.634442 98.252 -111.6224
11.718750 98.278 -112.1352
11.803669 98.304 -112.6453
11.889203 98.329 -113.1523
11.975357 98.354 -113.6559
12.062136 98.378 -114.1558
12.149543 98.402 -114.6516
12.237583 98.425 -115.1432
12.326262 98.448 -115.6306
12.415583 98.470 -116.1138
12.505552 98.493 -116.5928
12.596172 98.515 -117.0680
12.687449 98.538 -117.5397
12.779387 98.560 -118.0083
12.871992 98.583 -118.4743
12.965268 98.606 -118.9384
13.059220 98.628 -119.4010
13.153852 98.651 -119.8629
13.249170 98.674 -120.3246
13.345179 98.697 -120.7867
13.441884 98.720 -121.2495
13.539289 98.743 -121.7133
13.637401 98.765 -122.1782
13.736223 98.787 -122.6444
13.835761 98.808 -123.1115
13.936021 98.828 -123.5790
14.037007 98.848 -124.0466
14.138725 98.867 -124.5135
14.241180 98.885 -124.9789
14.344377 98.902 -125.4418
14.448323 98.918 -125.9014
14.553021 98.934 -126.3567
14.658478 98.948 -126.8069
14.764700 98.962 -127.2515
14.871691 98.976 -127.6897
14.979457 98.989 -128.1215
15.088005 99.002 -128.5466
15.197339 99.015 -128.9655
15.307465 99.028 -129.3786
15.418389 99.042 -129.7867
15.530117 99.056 -130.1907
15.642655 99.070 -130.5916
15.756008 99.085 -130.9908
15.870182 99.101 -131.3893
15.985184 99.117 -131.7884
16.101019 99.133 -132.1888
16.217694 99.150 -132.5913
16.335214 99.166 -132.9963
16.453586 99.182 -133.4040
16.572815 99.198 -133.8141
16.692909 99.213 -134.2261
16.813872 99.228 -134.6392
16.935713 99.241 -135.0526
17.058436 99.254 -135.4650
17.182048 99.266 -135.8756
17.306556 99.277 -136.2831
17.431967 99.288 -136.6869
17.558286 99.298 -137.0862
17.685521 99.307 -137.4808
17.813677 99.317 -137.8707
17.942762 99.326 -138.2562
18.072783 99.335 -138.6377
18.203746 99.345 -139.0161
18.335658 99.355 -139.3923
18.468526 99.365 -139.7672
18.602356 99.375 -140.1415
18.737156 99.385 -140.5159
18.872934 99.395 -140.8908
19.009695 99.405 -141.2662
19.147447 99.414 -141.6420
19.286197 99.423 -142.0176
19.425953 99.431 -142.3924
19.566721 99.439 -142.7654
19.708510 99.446 -143.1359
19.851326 99.452 -143.5031
19.995177 99.459 -143.8661
20.140070 99.465 -144.2248
20.286013 99.470 -144.5790
20.433014 99.476 -144.9289
20.581080 99.482 -145.2750
20.730219 99.488 -145.6179
20.880439 99.495 -145.9587
21.031747 99.502 -146.2981
21.184152 99.509 -146.6371
21.337661 99.516 -146.9762
21.492282 99.523 -147.3161
21.648024 99.530 -147.6570
21.804895 99.537 -147.9990
21.962902 99.544 -148.3418
22.122054 99.550 -148.6851
22.282360 99.556 -149.0283
22.443827 99.562 -149.3711
22.606464 99.567 -149.7127
22.770280 99.571 -150.0527
22.935283 99.575 -150.3906
23.101481 99.578 -150.7261
23.268884 99.581 -151.0587
23.437500 99.584 -151.3882
23.607338 99.587 -151.7146
23.778406 99.589 -152.0376
23.950714 99.591 -152.3572
24.124271 99.593 -152.6735
24.299086 99.594 -152.9866
24.475167 99.596 -153.2968
24.652524 99.598 -153.6045
24.831166 99.600 -153.9103
25.011103 99.603 -154.2148
25.192344 99.605 -154.5186
25.374898 99.607 -154.8224
25.558775 99.610 -155.1268
25.743984 99.612 -155.4320
25.930536 99.614 -155.7382
26.118439 99.616 -156.0452
26.307704 99.618 -156.3528
26.498341 99.619 -156.6604
26.690359 99.619 -156.9675
26.883768 99.619 -157.2733
27.078579 99.619 -157.5775
27.274801 99.618 -157.8798
27.472446 99.617 -158.1799
27.671522 99.615 -158.4783
27.872042 99.614 -158.7752
28.074014 99.612 -159.0712
28.277450 99.610 -159.3666
28.482360 99.608 -159.6619
28.688755 99.606 -159.9570
28.896645 99.603 -160.2516
29.106042 99.599 -160.5451
29.316957 99.595 -160.8362
29.529400 99.590 -161.1237
29.743382 99.584 -161.4060
29.958915 99.578 -161.6821
30.176009 99.572 -161.9512
30.394677 99.566 -162.2128
30.614929 99.560 -162.4672
30.836778 99.554 -162.7153
31.060234 99.550 -162.9584
31.285309 99.546 -163.1980
31.512015 99.543 -163.4357
31.740364 99.540 -163.6727
31.970368 99.538 -163.9099
32.202039 99.537 -164.1476
32.435388 99.536 -164.3860
32.670428 99.535 -164.6249
32.907171 99.535 -164.8641
33.145630 99.534 -165.1039
33.385817 99.534 -165.3448
33.627745 99.534 -165.5878
33.871425 99.535 -165.8339
34.116871 99.535 -166.0840
34.364096 99.536 -166.3386
34.613113 99.535 -166.5974
34.863934 99.534 -166.8595
35.116572 99.532 -167.1234
35.371041 99.530 -167.3871
35.627354 99.526 -167.6490
35.885525 99.521 -167.9078
36.145566 99.516 -168.1632
36.407492 99.511 -168.4155
36.671316 99.506 -168.6655
36.937051 99.500 -168.9144
37.204712 99.495 -169.1628
37.474313 99.489 -169.4113
37.745867 99.483 -169.6594
38.019389 99.477 -169.9065
38.294893 99.471 -170.1520
38.572394 99.464 -170.3958
38.851905 99.457 -170.6378
39.133442 99.451 -170.8785
39.417019 99.445 -171.1188
39.702651 99.438 -171.3593
39.990353 99.432 -171.6001
40.280140 99.426 -171.8414
40.572026 99.419 -172.0831
40.866028 99.412 -172.3246
41.162160 99.405 -172.5659
41.460438 99.398 -172.8065
41.760877 99.390 -173.0461
42.063494 99.382 -173.2843
42.368303 99.373 -173.5202
42.675322 99.365 -173.7532
42.984565 99.356 -173.9826
43.296048 99.346 -174.2084
43.609789 99.337 -174.4308
43.925804 99.328 -174.6502
44.244108 99.319 -174.8670
44.564719 99.309 -175.0812
44.887654 99.300 -175.2926
45.212928 99.291 -175.5009
45.540560 99.282 -175.7058
45.870565 99.273 -175.9080
46.202962 99.265 -176.1088
46.537768 99.257 -176.3096
46.875000 99.249 -176.5123
47.214676 99.242 -176.7183
47.556813 99.234 -176.9274
47.901429 99.226 -177.1392
48.248542 99.218 -177.3521
48.598171 99.208 -177.5643
48.950334 99.198 -177.7745
49.305048 99.187 -177.9821
49.662333 99.176 -178.1869
50.022206 99.164 -178.3893
50.384688 99.152 -178.5897
50.749796 99.139 -178.7883
51.117550 99.126 -178.9859
51.487969 99.113 -179.1830
51.861072 99.100 -179.3807
52.236879 99.086 -179.5798
52.615409 99.072 -179.7811
52.996681 99.057 -179.9845
53.380717 99.041 179.8105
53.767536 99.026 179.6050
54.157158 99.009 179.4000
54.549603 98.993 179.1963
54.944892 98.977 178.9933
55.343045 98.961 178.7895
55.744084 98.946 178.5829
56.148028 98.931 178.3723
56.554900 98.915 178.1588
56.964720 98.899 177.9460
57.377510 98.882 177.7391
57.793291 98.865 177.5424
58.212085 98.849 177.3571
58.633914 98.833 177.1814
59.058799 98.819 177.0117
59.486764 98.805 176.8453
59.917829 98.792 176.6808
60.352019 98.779 176.5184
60.789354 98.765 176.3579
61.229859 98.752 176.1976
61.673556 98.739 176.0348
62.120468 98.724 175.8672
62.570618 98.709 175.6948
63.024031 98.692 175.5197
63.480729 98.673 175.3451
63.940736 98.653 175.1736
64.404077 98.633 175.0057
64.870776 98.613 174.8403
65.340856 98.593 174.6753
65.814343 98.574 174.5091
66.291261 98.555 174.3411
66.771635 98.537 174.1712
67.255489 98.519 174.0007
67.742850 98.501 173.8323
68.233743 98.484 173.6699
68.728193 98.467 173.5165
69.226226 98.451 173.3708
69.727867 98.438 173.2258
70.233144 98.426 173.0726
70.742083 98.413 172.9062
71.254709 98.399 172.7295
71.771050 98.382 172.5509
72.291132 98.362 172.3792
72.814984 98.341 172.2181
73.342631 98.318 172.0673
73.874102 98.296 171.9238
74.409424 98.274 171.7861
74.948626 98.252 171.6531
75.491734 98.230 171.5243
76.038779 98.210 171.3992
76.589787 98.190 171.2764
77.144788 98.172 171.1528
77.703811 98.154 171.0242
78.266885 98.136 170.8882
78.834039 98.118 170.7468
79.405303 98.098 170.6060
79.980706 98.076 170.4713
80.560280 98.053 170.3452
81.144053 98.031 170.2266
81.732056 98.008 170.1127
82.324320 97.986 170.0007
82.920876 97.964 169.8884
83.521755 97.943 169.7748
84.126988 97.921 169.6602
84.736607 97.900 169.5455
85.350643 97.877 169.4323
85.969129 97.855 169.3219
86.592097 97.832 169.2145
87.219579 97.809 169.1091
87.851608 97.785 169.0037
88.488217 97.761 168.8965
89.129439 97.735 168.7870
89.775308 97.710 168.6747
90.425856 97.683 168.5591
91.081119 97.657 168.4391
91.741131 97.632 168.3134
92.405925 97.607 168.1801
93.075536 97.584 168.0396
93.750000 97.560 167.8955
94.429351 97.536 167.7554
95.113625 97.512 167.6277
95.802858 97.487 167.5180
96.497085 97.464 167.4277
97.196342 97.441 167.3537
97.900667 97.418 167.2912
98.610096 97.395 167.2355
99.324665 97.371 167.1830
100.044413 97.346 167.1307
100.769376 97.320 167.0769
101.499592 97.293 167.0194
102.235100 97.266 166.9557
102.975938 97.239 166.8834
103.722144 97.212 166.8021
104.473757 97.184 166.7137
105.230817 97.157 166.6221
105.993363 97.130 166.5305
106.761435 97.104 166.4412
107.535072 97.078 166.3557
108.314315 97.052 166.2746
109.099206 97.026 166.1980
109.889783 97.001 166.1254
110.686090 96.974 166.0560
111.488167 96.947 165.9891
112.296056 96.918 165.9236
113.109800 96.889 165.8577
113.929440 96.858 165.7892
114.755020 96.827 165.7169
115.586582 96.795 165.6403
116.424170 96.762 165.5599
117.267827 96.729 165.4783
118.117598 96.696 165.4012
118.973527 96.664 165.3365
119.835658 96.633 165.2896
120.704037 96.604 165.2576
121.578708 96.578 165.2321
122.459718 96.554 165.2079
123.347111 96.529 165.1860
124.240935 96.502 165.1697
125.141236 96.475 165.1606
126.048061 96.447 165.1572
126.961458 96.417 165.1560
127.881473 96.387 165.1544
128.808154 96.355 165.1516
129.741551 96.321 165.1466
130.681712 96.287 165.1379
131.628686 96.253 165.1232
132.582521 96.218 165.1011
133.543269 96.182 165.0721
134.510979 96.147 165.0388
135.485701 96.111 165.0057
136.467486 96.074 164.9823
137.456386 96.036 164.9827
138.452451 95.996 165.0236
139.455735 95.957 165.1150
140.466288 95.919 165.2525
141.484165 95.883 165.4244
142.509418 95.849 165.6214
143.542100 95.819 165.8383
144.582265 95.794 166.0702
145.629968 95.774 166.3112
146.685262 95.761 166.5540
147.748204 95.756 166.7893
148.818849 95.758 167.0054
149.897251 95.766 167.1882
150.983469 95.778 167.3246
152.077557 95.793 167.4047
153.179574 95.807 167.4248
154.289576 95.820 167.3895
155.407622 95.829 167.3097
156.533770 95.833 167.2002
157.668078 95.833 167.0756
158.810606 95.827 166.9479
159.961413 95.816 166.8253
161.120559 95.801 166.7121
162.288105 95.781 166.6093
163.464112 95.758 166.5166
164.648640 95.733 166.4338
165.841752 95.707 166.3605
167.043510 95.680 166.2966
168.253976 95.653 166.2428
169.473213 95.625 166.2004
170.701286 95.598 166.1699
171.938258 95.571 166.1504
173.184194 95.544 166.1393
174.439158 95.517 166.1343
175.703216 95.490 166.1338
176.976434 95.464 166.1368
178.258878 95.437 166.1431
179.550615 95.411 166.1526
180.851713 95.385 166.1656
182.162239 95.358 166.1820
183.482262 95.332 166.2009
184.811850 95.306 166.2212
186.151073 95.280 166.2422
187.500000 95.254 166.2642
188.858702 95.229 166.2888
190.227250 95.203 166.3179
191.605715 95.177 166.3521
192.994169 95.152 166.3907
194.392685 95.127 166.4319
195.801334 95.102 166.4738
197.220191 95.077 166.5154
198.649330 95.052 166.5565
200.088825 95.026 166.5976
201.538751 95.000 166.6392
202.999184 94.973 166.6813
204.470200 94.946 166.7251
205.951875 94.920 166.7723
207.444287 94.894 166.8258
208.947514 94.868 166.8871
210.461634 94.844 166.9548
211.986726 94.820 167.0260
213.522869 94.795 167.0986
215.070144 94.770 167.1718
216.628631 94.744 167.2464
218.198411 94.718 167.3235
219.779567 94.693 167.4048
221.372180 94.667 167.4915
222.976334 94.641 167.5834
224.592112 94.615 167.6790
226.219600 94.590 167.7760
227.858880 94.566 167.8731
229.510039 94.542 167.9713
231.173164 94.518 168.0730
232.848340 94.495 168.1806
234.535655 94.471 168.2947
236.235197 94.447 168.4146
237.947054 94.425 168.5388
239.671317 94.404 168.6642
241.408074 94.385 168.7852
243.157416 94.367 168.8969
244.919435 94.351 168.9996
246.694223 94.335 169.0983
248.481871 94.319 169.1978
250.282473 94.302 169.2998
252.096123 94.286 169.4032
253.922915 94.269 169.5060
255.762945 94.251 169.6069
257.616309 94.233 169.7068
259.483103 94.215 169.8080
261.363424 94.197 169.9124
263.257372 94.179 170.0197
265.165043 94.161 170.1282
267.086538 94.142 170.2357
269.021957 94.123 170.3403
270.971401 94.105 170.4417
272.934972 94.087 170.5416
274.912771 94.069 170.6426
276.904902 94.052 170.7468
278.911469 94.035 170.8561
280.932577 94.019 170.9705
282.968330 94.003 171.0891
285.018835 93.987 171.2092
287.084199 93.971 171.3286
289.164530 93.954 171.4458
291.259935 93.936 171.5608
293.370525 93.918 171.6740
295.496408 93.900 171.7856
297.637697 93.883 171.8967
299.794503 93.865 172.0085
301.966937 93.847 172.1218
304.155114 93.829 172.2372
306.359147 93.811 172.3550
308.579152 93.794 172.4753
310.815244 93.776 172.5979
313.067539 93.758 172.7229
315.336156 93.741 172.8502
317.621211 93.724 172.9797
319.922826 93.707 173.1113
322.241118 93.690 173.2449
324.576210 93.673 173.3803
326.928223 93.657 173.5174
329.297280 93.640 173.6559
331.683504 93.624 173.7955
334.087019 93.608 173.9363
336.507952 93.592 174.0779
338.946427 93.576 174.2202
341.402572 93.560 174.3629
343.876516 93.545 174.5063
346.368387 93.529 174.6511
348.878315 93.514 174.7982
351.406431 93.499 174.9482
353.952867 93.484 175.1011
356.517756 93.469 175.2562
359.101230 93.454 175.4127
361.703426 93.440 175.5701
364.324478 93.426 175.7281
366.964523 93.412 175.8870
369.623699 93.398 176.0466
372.302145 93.384 176.2072
375.000000 93.371 176.3684
377.717405 93.357 176.5300
380.454501 93.344 176.6918
383.211431 93.331 176.8547
385.988339 93.318 177.0195
388.785369 93.305 177.1865
391.602668 93.293 177.3557
394.440383 93.280 177.5266
397.298660 93.268 177.6985
400.177650 93.256 177.8714
403.077502 93.244 178.0449
405.998368 93.232 178.2186
408.940400 93.221 178.3922
411.903750 93.209 178.5655
414.888575 93.198 178.7393
417.895028 93.187 178.9139
420.923268 93.176 179.0899
423.973452 93.165 179.2672
427.045738 93.154 179.4456
430.140287 93.143 179.6251
433.257261 93.132 179.8060
436.396822 93.122 179.9888
439.559133 93.111 -179.8267
442.744360 93.101 -179.6408
445.952668 93.091 -179.4542
449.184225 93.081 -179.2674
452.439199 93.071 -179.0806
455.717760 93.061 -178.8933
459.020079 93.052 -178.7048
462.346327 93.042 -178.5146
465.696680 93.033 -178.3224
469.071310 93.025 -178.1285
472.470394 93.016 -177.9338
475.894109 93.007 -177.7385
479.342634 92.999 -177.5427
482.816148 92.990 -177.3459
486.314833 92.982 -177.1477
489.838871 92.973 -176.9478
493.388445 92.965 -176.7463
496.963741 92.957 -176.5436
500.564945 92.949 -176.3399
504.192245 92.941 -176.1354
507.845830 92.933 -175.9297
511.525890 92.926 -175.7224
515.232618 92.918 -175.5135
518.966206 92.911 -175.3029
522.726849 92.904 -175.0906
526.514743 92.897 -174.8766
530.330086 92.890 -174.6608
534.173076 92.884 -174.4435
538.043915 92.877 -174.2249
541.942803 92.870 -174.0050
545.869944 92.863 -173.7839
549.825542 92.856 -173.5616
553.809805 92.849 -173.3383
557.822939 92.843 -173.1141
561.865154 92.836 -172.8891
565.936660 92.830 -172.6634
570.037671 92.824 -172.4368
574.168399 92.817 -172.2089
578.329060 92.810 -171.9791
582.519870 92.804 -171.7469
586.741049 92.797 -171.5116
590.992817 92.790 -171.2723
595.275394 92.783 -171.0288
599.589005 92.776 -170.7811
603.933874 92.769 -170.5295
608.310228 92.762 -170.2742
612.718295 92.755 -170.0149
617.158304 92.747 -169.7515
621.630488 92.740 -169.4833
626.135079 92.732 -169.2092
630.672311 92.724 -168.9283
635.242423 92.716 -168.6400
639.845651 92.708 -168.3438
644.482237 92.700 -168.0391
649.152421 92.692 -167.7256
653.856447 92.685 -167.4024
658.594560 92.679 -167.0690
663.367008 92.673 -166.7251
668.174039 92.669 -166.3708
673.015903 92.665 -166.0064
677.892854 92.663 -165.6323
682.805145 92.662 -165.2493
687.753032 92.663 -164.8583
692.736774 92.666 -164.4607
697.756631 92.670 -164.0577
702.812863 92.677 -163.6511
707.905735 92.686 -163.2424
713.035511 92.697 -162.8331
718.202461 92.710 -162.4244
723.406852 92.725 -162.0176
728.648956 92.742 -161.6138
733.929047 92.761 -161.2140
739.247399 92.781 -160.8192
744.604290 92.802 -160.4297
750.000000 92.825 -160.0457
755.434809 92.848 -159.6672
760.909001 92.873 -159.2936
766.422861 92.898 -158.9240
771.976677 92.924 -158.5575
777.570739 92.950 -158.1938
783.205337 92.977 -157.8329
788.880766 93.005 -157.4746
794.597321 93.033 -157.1187
800.355301 93.061 -156.7646
806.155005 93.090 -156.4120
811.996736 93.120 -156.0605
817.880799 93.150 -155.7100
823.807501 93.181 -155.3601
829.777150 93.213 -155.0103
835.790057 93.245 -154.6602
841.846536 93.278 -154.3093
847.946903 93.312 -153.9585
854.091476 93.347 -153.6083
860.280575 93.383 -153.2591
866.514523 93.419 -152.9111
872.793644 93.457 -152.5642
879.118267 93.496 -152.2180
885.488720 93.535 -151.8723
891.905336 93.576 -151.5271
898.368450 93.618 -151.1826
904.878398 93.661 -150.8396
911.435520 93.706 -150.4987
918.040157 93.751 -150.1606
924.692655 93.798 -149.8254
931.393359 93.845 -149.4937
938.142619 93.894 -149.1656
944.940787 93.944 -148.8418
951.788218 93.995 -148.5226
958.685268 94.048 -148.2086
965.632296 94.101 -147.8998
972.629666 94.156 -147.5964
979.677741 94.212 -147.2983
986.776890 94.269 -147.0057
993.927482 94.327 -146.7189
1001.129891 94.386 -146.4382
1008.384491 94.447 -146.1643
1015.691660 94.508 -145.8977
1023.051781 94.570 -145.6388
1030.465236 94.632 -145.3879
1037.932411 94.696 -145.1456
1045.453698 94.760 -144.9117
1053.029486 94.825 -144.6869
1060.660172 94.891 -144.4709
1068.346153 94.957 -144.2640
1076.087829 95.024 -144.0659
1083.885605 95.091 -143.8767
1091.739887 95.158 -143.6963
1099.651084 95.226 -143.5245
1107.619609 95.294 -143.3615
1115.645878 95.362 -143.2070
1123.730308 95.431 -143.0611
1131.873321 95.499 -142.9239
1140.075341 95.568 -142.7953
1148.336797 95.636 -142.6752
1156.658119 95.705 -142.5635
1165.039741 95.773 -142.4600
1173.482099 95.841 -142.3641
1181.985634 95.909 -142.2759
1190.550789 95.977 -142.1949
1199.178011 96.044 -142.1208
1207.867749 96.111 -142.0533
1216.620457 96.178 -141.9922
1225.436590 96.244 -141.9371
1234.316609 96.310 -141.8878
1243.260976 96.376 -141.8439
1252.270157 96.441 -141.8054
1261.344623 96.506 -141.7717
1270.484846 96.571 -141.7426
1279.691303 96.635 -141.7173
1288.964474 96.699 -141.6958
1298.304842 96.763 -141.6777
1307.712894 96.826 -141.6630
1317.189120 96.888 -141.6516
1326.734016 96.951 -141.6433
1336.348077 97.013 -141.6381
1346.031806 97.075 -141.6356
1355.785708 97.136 -141.6356
1365.610290 97.197 -141.6378
1375.506065 97.259 -141.6420
1385.473549 97.319 -141.6478
1395.513261 97.380 -141.6553
1405.625726 97.441 -141.6642
1415.811469 97.501 -141.6744
1426.071023 97.561 -141.6860
1436.404921 97.621 -141.6990
1446.813703 97.681 -141.7134
1457.297912 97.742 -141.7292
1467.858093 97.802 -141.7466
1478.494798 97.862 -141.7656
1489.208581 97.923 -141.7861
1500.000000 97.983 -141.8082
1510.869618 98.044 -141.8317
1521.818002 98.105 -141.8566
1532.845723 98.167 -141.8831
1543.953355 98.228 -141.9111
1555.141477 98.290 -141.9408
1566.410674 98.353 -141.9724
1577.761531 98.416 -142.0059
1589.194642 98.479 -142.0416
1600.710601 98.542 -142.0796
1612.310010 98.606 -142.1201
1623.993473 98.671 -142.1635
1635.761599 98.736 -142.2099
1647.615002 98.801 -142.2595
1659.554299 98.867 -142.3127
1671.580114 98.934 -142.3696
1683.693072 99.001 -142.4304
1695.893807 99.069 -142.4952
1708.182952 99.138 -142.5642
1720.561150 99.207 -142.6377
1733.029045 99.277 -142.7160
1745.587288 99.347 -142.7996
1758.236533 99.418 -142.8890
1770.977440 99.490 -142.9846
1783.810673 99.563 -143.0867
1796.736900 99.636 -143.1957
1809.756796 99.710 -143.3118
1822.871040 99.784 -143.4354
1836.080315 99.860 -143.5667
1849.385310 99.935 -143.7057
1862.786718 100.012 -143.8530
1876.285239 100.089 -144.0090
1889.881575 100.166 -144.1742
1903.576436 100.245 -144.3489
1917.370535 100.323 -144.5336
1931.264593 100.403 -144.7288
1945.259332 100.482 -144.9348
1959.355483 100.563 -145.1521
1973.553781 100.643 -145.3811
1987.854965 100.725 -145.6222
2002.259781 100.806 -145.8759
2016.768981 100.888 -146.1424
2031.383320 100.970 -146.4222
2046.103561 101.052 -146.7158
2060.930471 101.134 -147.0234
2075.864823 101.216 -147.3457
2090.907395 101.299 -147.6829
2106.058972 101.381 -148.0355
2121.320344 101.463 -148.4038
2136.692305 101.544 -148.7881
2152.175658 101.625 -149.1888
2167.771210 101.706 -149.6061
2183.479774 101.786 -150.0405
2199.302169 101.866 -150.4922
2215.239219 101.944 -150.9617
2231.291755 102.022 -151.4489
2247.460615 102.098 -151.9542
2263.746641 102.173 -152.4777
2280.150683 102.247 -153.0194
2296.673595 102.319 -153.5794
2313.316238 102.390 -154.1575
2330.079481 102.459 -154.7534
2346.964198 102.525 -155.3668
2363.971268 102.590 -155.9973
2381.101578 102.652 -156.6444
2398.356022 102.711 -157.3077
2415.735498 102.768 -157.9867
2433.240913 102.822 -158.6808
2450.873180 102.873 -159.3893
2468.633217 102.921 -160.1118
2486.521951 102.966 -160.8474
2504.540314 103.008 -161.5954
2522.689246 103.046 -162.3548
2540.969692 103.081 -163.1247
2559.382606 103.112 -163.9039
2577.928947 103.139 -164.6912
2596.609683 103.162 -165.4851
2615.425787 103.181 -166.2845
2634.378241 103.195 -167.0881
2653.468031 103.206 -167.8951
2672.696154 103.212 -168.7042
2692.063613 103.214 -169.5142
2711.571415 103.212 -170.3237
2731.220579 103.206 -171.1311
2751.012130 103.196 -171.9349
2770.947098 103.182 -172.7336
2791.026522 103.164 -173.5257
2811.251451 103.142 -174.3096
2831.622938 103.115 -175.0837
2852.142045 103.085 -175.8466
2872.809842 103.050 -176.5967
2893.627406 103.011 -177.3325
2914.595823 102.968 -178.0523
2935.716186 102.921 -178.7546
2956.989596 102.871 -179.4376
2978.417161 102.817 179.9001
3000.000000 102.760 179.2605
3021.739237 102.700 178.6452
3043.636005 102.637 178.0563
3065.691446 102.572 177.4956
3087.906710 102.504 176.9650
3110.282955 102.436 176.4659
3132.821347 102.367 175.9992
3155.523062 102.299 175.5648
3178.389283 102.231 175.1612
3201.421202 102.165 174.7851
3224.620020 102.101 174.4314
3247.986946 102.040 174.0936
3271.523198 101.983 173.7646
3295.230004 101.927 173.4374
3319.108599 101.874 173.1068
3343.160228 101.821 172.7697
3367.386145 101.769 172.4261
3391.787613 101.715 172.0784
3416.365904 101.660 171.7304
3441.122300 101.604 171.3867
3466.058091 101.547 171.0511
3491.174576 101.488 170.7266
3516.473066 101.429 170.4142
3541.954880 101.369 170.1135
3567.621345 101.310 169.8228
3593.473800 101.251 169.5395
3619.513592 101.193 169.2605
3645.742080 101.135 168.9832
3672.160630 101.077 168.7052
3698.770620 101.019 168.4256
3725.573436 100.959 168.1446
3752.570477 100.898 167.8639
3779.763150 100.834 167.5866
3807.152872 100.768 167.3173
3834.741071 100.699 167.0612
3862.529185 100.629 166.8237
3890.518664 100.556 166.6099
3918.710966 100.483 166.4233
3947.107561 100.409 166.2654
3975.709929 100.337 166.1350
4004.519563 100.267 166.0285
4033.537962 100.200 165.9405
4062.766641 100.135 165.8645
4092.207123 100.074 165.7939
4121.860942 100.016 165.7230
4151.729646 99.961 165.6471
4181.814790 99.908 165.5634
4212.117944 99.855 165.4701
4242.640687 99.804 165.3669
4273.384610 99.753 165.2541
4304.351317 99.701 165.1324
4335.542421 99.649 165.0029
4366.959549 99.596 164.8672
4398.604338 99.542 164.7268
4430.478438 99.487 164.5830
4462.583511 99.431 164.4371
4494.921231 99.374 164.2902
4527.493283 99.315 164.1431
4560.301365 99.255 163.9968
4593.347189 99.193 163.8517
4626.632476 99.131 163.7088
4660.158962 99.067 163.5688
4693.928395 99.001 163.4326
4727.942535 98.934 163.3009
4762.203156 98.866 163.1747
4796.712043 98.796 163.0545
4831.470996 98.725 162.9410
4866.481826 98.653 162.8343
4901.746360 98.580 162.7347
4937.266434 98.506 162.6423
4973.043902 98.430 162.5574
5009.080628 98.354 162.4804
5045.378492 98.276 162.4119
5081.939384 98.197 162.3525
5118.765212 98.117 162.3030
5155.857894 98.035 162.2643
5193.219366 97.952 162.2373
5230.851574 97.868 162.2232
5268.756481 97.782 162.2233
5306.936062 97.695 162.2391
5345.392309 97.607 162.2723
5384.127225 97.518 162.3246
5423.142830 97.428 162.3977
5462.441159 97.337 162.4935
5502.024259 97.245 162.6132
5541.894195 97.154 162.7578
5582.053045 97.062 162.9278
5622.502902 96.971 163.1233
5663.245876 96.880 163.3441
5704.284090 96.791 163.5898
5745.619684 96.703 163.8599
5787.254813 96.616 164.1537
5829.191647 96.531 164.4711
5871.432373 96.448 164.8114
5913.979192 96.366 165.1744
5956.834323 96.287 165.5593
6000.000000 96.211 165.9651
6043.478473 96.137 166.3909
6087.272010 96.066 166.8351
6131.382892 95.998 167.2966
6175.813420 95.934 167.7744
6220.565910 95.872 168.2673
6265.642695 95.814 168.7747
6311.046124 95.759 169.2957
6356.778566 95.708 169.8297
6402.842404 95.660 170.3760
6449.240040 95.616 170.9341
6495.973891 95.576 171.5035
6543.046396 95.541 172.0844
6590.460007 95.509 172.6765
6638.217197 95.482 173.2804
6686.320456 95.459 173.8962
6734.772290 95.442 174.5243
6783.575226 95.431 175.1646
6832.731809 95.426 175.8167
6882.244600 95.428 176.4799
6932.116181 95.438 177.1525
6982.349153 95.457 177.8315
7032.946133 95.486 178.5125
7083.909760 95.526 179.1891
7135.242690 95.577 179.8532
7186.947600 95.641 -179.5048
7239.027185 95.718 -178.8958
7291.484160 95.807 -178.3315
7344.321260 95.910 -177.8240
7397.541239 96.025 -177.3860
7451.146872 96.153 -177.0298
7505.140954 96.292 -176.7686
7559.526299 96.443 -176.6151
7614.305743 96.603 -176.5829
7669.482141 96.771 -176.6858
7725.058371 96.947 -176.9381
7781.037328 97.127 -177.3538
7837.421932 97.309 -177.9464
7894.215122 97.489 -178.7277
7951.419859 97.665 -179.7073
8009.039125 97.832 179.1090
8067.075924 97.986 177.7194
8125.533282 98.121 176.1276
8184.414245 98.232 174.3430
8243.721885 98.314 172.3821
8303.459292 98.364 170.2680
8363.629581 98.376 168.0299
8424.235888 98.348 165.7026
8485.281374 98.277 163.3245
8546.769221 98.162 160.9363
8608.702634 98.003 158.5788
8671.084842 97.802 156.2911
8733.919097 97.560 154.1089
8797.208675 97.280 152.0634
8860.956876 96.967 150.1808
8925.167022 96.623 148.4819
8989.842461 96.252 146.9832
9054.986566 95.859 145.6965
9120.602731 95.446 144.6307
9186.694378 95.018 143.7924
9253.264952 94.578 143.1863
9320.317925 94.129 142.8157
9387.856790 93.675 142.6821
9455.885071 93.219 142.7845
9524.406312 92.765 143.1191
9593.424086 92.316 143.6786
9662.941992 91.875 144.4523
9732.963653 91.445 145.4273
9803.492719 91.029 146.5881
9874.532869 90.630 147.9182
9946.087805 90.247 149.4002
10018.161257 89.884 151.0171
10090.756983 89.539 152.7531
10163.878768 89.215 154.5936
10237.530423 88.910 156.5260
10311.715789 88.626 158.5393
10386.438732 88.361 160.6240
10461.703149 88.116 162.7722
10537.512962 87.890 164.9769
10613.872125 87.683 167.2322
10690.784618 87.496 169.5327
10768.254450 87.327 171.8732
10846.285661 87.178 174.2491
10924.882318 87.048 176.6566
11004.048518 86.937 179.0916
11083.788390 86.845 -178.4497
11164.106090 86.772 -175.9709
11245.005805 86.720 -173.4755
11326.491752 86.688 -170.9671
11408.568180 86.676 -168.4500
11491.239368 86.687 -165.9286
11574.509626 86.720 -163.4082
11658.383294 86.777 -160.8942
11742.864745 86.858 -158.3926
11827.958384 86.966 -155.9100
11913.668646 87.101 -153.4542
12000.000000 87.265 -151.0347
12086.956947 87.460 -148.6636
12174.544019 87.689 -146.3553
12262.765784 87.952 -144.1278
12351.626840 88.253 -142.0023
12441.131819 88.594 -140.0049
12531.285389 88.977 -138.1678
12622.092249 89.405 -136.5311
12713.557132 89.878 -135.1436
12805.684808 90.399 -134.0645
12898.480079 90.965 -133.3646
12991.947783 91.574 -133.1248
13086.092792 92.217 -133.4335
13180.920015 92.883 -134.3810
13276.434395 93.554 -136.0504
13372.640911 94.209 -138.5063
13469.544580 94.819 -141.7830
13567.150452 95.355 -145.8705
13665.463617 95.784 -150.7039
13764.489200 96.078 -156.1538
13864.232362 96.209 -162.0269
13964.698305 96.163 -168.0761
14065.892266 95.935 -174.0268
14167.819519 95.534 -179.6092
14270.485380 94.978 175.4088
14373.895200 94.297 171.2007
14478.054370 93.521 167.8739
14582.968320 92.686 165.4705
14688.642520 91.825 163.9755
14795.082478 90.966 163.3275
14902.293745 90.136 163.4318
15010.281908 89.354 164.1736
15119.052599 88.632 165.4323
15228.611486 87.978 167.0915
15338.964283 87.394 169.0475
15450.116741 86.880 171.2122
15562.074656 86.432 173.5142
15674.843864 86.047 175.8969
15788.430244 85.719 178.3153
15902.839718 85.444 -179.2660
16018.078250 85.218 -176.8762
16134.151848 85.037 -174.5393
16251.066563 84.898 -172.2769
16368.828491 84.798 -170.1096
16487.443769 84.737 -168.0594
16606.918584 84.712 -166.1518
16727.259161 84.722 -164.4164
16848.471777 84.767 -162.8871
16970.562748 84.844 -161.6016
17093.538442 84.948 -160.5994
17217.405268 85.075 -159.9191
17342.169684 85.217 -159.5951
17467.838194 85.364 -159.6539
17594.417350 85.508 -160.1104
17721.913751 85.636 -160.9646
17850.334044 85.737 -162.1992
17979.684923 85.801 -163.7789
18109.973131 85.816 -165.6518
18241.205462 85.775 -167.7523
18373.388756 85.672 -170.0057
18506.529905 85.506 -172.3339
18640.635849 85.276 -174.6617
18775.713581 84.984 -176.9227
18911.770141 84.636 -179.0645
19048.812624 84.238 178.9486
19186.848172 83.797 177.1348
19325.883983 83.324 175.4985
19465.927305 82.835 174.0376
19606.985439 82.353 172.7563
19749.065738 81.917 171.6821
19892.175609 81.578 170.8788
20036.322514 81.392 170.4391
