* Measurement data measured by REW V5.31.3
* Source: Headset (2- CX31993 HIFI AUDIO), no input selected, R, volume: no control
* Format: 256k Log Swept Sine, 1 sweep at -12.0 dBFS with no timing reference
* Dated: 10 9, 24 12:28:35 PM
* REW Settings:
*  C-weighting compensation: Off
*  Target level: 75.0 dB
* Note: ; 
* Measurement: Kadenz ECHO B Treble+ L
* Smoothing: 1/12 octave
* Frequency Step: 96 ppo
* Start Frequency: 0.36621094 Hz
*
* Freq(Hz) SPL(dB) Phase(degrees)
0.366211 58.706 -49.6175
0.368865 58.699 -49.6692
0.371538 58.689 -49.7466
0.374230 58.677 -49.8437
0.376942 58.663 -49.9553
0.379673 58.649 -50.0777
0.382424 58.633 -50.2084
0.385196 58.617 -50.3459
0.387987 58.601 -50.4894
0.390798 58.585 -50.6385
0.393630 58.569 -50.7929
0.396483 58.552 -50.9527
0.399356 58.535 -51.1178
0.402250 58.518 -51.2883
0.405165 58.501 -51.4643
0.408101 58.484 -51.6459
0.411058 58.467 -51.8333
0.414037 58.450 -52.0264
0.417037 58.432 -52.2256
0.420059 58.415 -52.4308
0.423103 58.397 -52.6421
0.426169 58.379 -52.8598
0.429257 58.361 -53.0840
0.432368 58.343 -53.3147
0.435501 58.325 -53.5522
0.438656 58.306 -53.7965
0.441835 58.288 -54.0478
0.445037 58.269 -54.3063
0.448262 58.250 -54.5720
0.451510 58.231 -54.8452
0.454782 58.212 -55.1260
0.458077 58.193 -55.4145
0.461397 58.174 -55.7108
0.464740 58.154 -56.0152
0.468108 58.135 -56.3278
0.471500 58.115 -56.6488
0.474917 58.095 -56.9783
0.478358 58.075 -57.3164
0.481825 58.055 -57.6634
0.485316 58.035 -58.0193
0.488833 58.014 -58.3844
0.492375 57.993 -58.7589
0.495943 57.973 -59.1428
0.499537 57.952 -59.5363
0.503157 57.931 -59.9396
0.506803 57.909 -60.3528
0.510475 57.888 -60.7761
0.514175 57.867 -61.2097
0.517900 57.845 -61.6536
0.521653 57.823 -62.1080
0.525434 57.801 -62.5730
0.529241 57.779 -63.0489
0.533076 57.756 -63.5355
0.536939 57.734 -64.0332
0.540830 57.711 -64.5420
0.544749 57.688 -65.0619
0.548696 57.665 -65.5930
0.552673 57.642 -66.1354
0.556677 57.619 -66.6892
0.560711 57.595 -67.2543
0.564774 57.572 -67.8308
0.568867 57.548 -68.4187
0.572989 57.524 -69.0179
0.577141 57.500 -69.6284
0.581324 57.475 -70.2501
0.585536 57.451 -70.8829
0.589779 57.426 -71.5267
0.594053 57.401 -72.1813
0.598358 57.376 -72.8465
0.602694 57.351 -73.5222
0.607061 57.326 -74.2081
0.611460 57.300 -74.9038
0.615891 57.274 -75.6092
0.620354 57.248 -76.3238
0.624849 57.222 -77.0471
0.629377 57.196 -77.7789
0.633938 57.169 -78.5187
0.638532 57.142 -79.2658
0.643159 57.115 -80.0198
0.647819 57.088 -80.7802
0.652514 57.061 -81.5461
0.657242 57.033 -82.3171
0.662005 57.006 -83.0923
0.666802 56.978 -83.8711
0.671634 56.950 -84.6526
0.676501 56.921 -85.4361
0.681403 56.893 -86.2206
0.686341 56.864 -87.0054
0.691314 56.835 -87.7895
0.696324 56.806 -88.5722
0.701370 56.777 -89.3528
0.706452 56.747 -90.1307
0.711571 56.718 -90.9062
0.716728 56.688 -91.6802
0.721921 56.659 -92.4551
0.727153 56.630 -93.2351
0.732422 56.601 -94.0266
0.737729 56.573 -94.8369
0.743075 56.544 -95.6728
0.748460 56.515 -96.5395
0.753883 56.485 -97.4404
0.759346 56.454 -98.3778
0.764849 56.422 -99.3532
0.770391 56.388 -100.3678
0.775974 56.353 -101.4225
0.781597 56.317 -102.5182
0.787261 56.279 -103.6556
0.792966 56.241 -104.8355
0.798712 56.201 -106.0588
0.804500 56.160 -107.3260
0.810329 56.118 -108.6379
0.816201 56.075 -109.9950
0.822116 56.032 -111.3978
0.828073 55.988 -112.8466
0.834074 55.943 -114.3418
0.840118 55.898 -115.8834
0.846206 55.853 -117.4715
0.852338 55.807 -119.1058
0.858514 55.761 -120.7861
0.864735 55.716 -122.5118
0.871001 55.670 -124.2822
0.877313 55.625 -126.0964
0.883670 55.581 -127.9534
0.890074 55.537 -129.8519
0.896524 55.494 -131.7903
0.903020 55.452 -133.7670
0.909564 55.412 -135.7804
0.916155 55.373 -137.8282
0.922794 55.335 -139.9085
0.929481 55.299 -142.0191
0.936216 55.265 -144.1577
0.943000 55.234 -146.3219
0.949834 55.205 -148.5093
0.956717 55.179 -150.7178
0.963649 55.156 -152.9450
0.970632 55.136 -155.1888
0.977666 55.119 -157.4469
0.984750 55.107 -159.7177
0.991886 55.098 -161.9992
0.999074 55.094 -164.2901
1.006314 55.095 -166.5888
1.013606 55.100 -168.8945
1.020951 55.111 -171.2061
1.028349 55.128 -173.5231
1.035801 55.151 -175.8451
1.043307 55.180 -178.1720
1.050867 55.217 179.4960
1.058482 55.260 177.1585
1.066152 55.312 174.8150
1.073878 55.371 172.4646
1.081660 55.440 170.1065
1.089498 55.517 167.7402
1.097393 55.604 165.3658
1.105345 55.701 162.9846
1.113355 55.809 160.5997
1.121423 55.927 158.2157
1.129549 56.056 155.8388
1.137734 56.196 153.4757
1.145979 56.346 151.1336
1.154283 56.507 148.8190
1.162647 56.677 146.5381
1.171072 56.858 144.2965
1.179558 57.048 142.0987
1.188106 57.247 139.9484
1.196715 57.455 137.8488
1.205387 57.672 135.8018
1.214122 57.897 133.8090
1.222920 58.130 131.8711
1.231782 58.370 129.9882
1.240708 58.617 128.1599
1.249699 58.870 126.3853
1.258754 59.129 124.6633
1.267876 59.394 122.9922
1.277063 59.664 121.3704
1.286318 59.938 119.7958
1.295639 60.216 118.2662
1.305027 60.497 116.7795
1.314484 60.781 115.3333
1.324009 61.066 113.9253
1.333604 61.353 112.5531
1.343268 61.640 111.2144
1.353002 61.927 109.9068
1.362806 62.213 108.6281
1.372681 62.498 107.3759
1.382628 62.779 106.1482
1.392647 63.058 104.9428
1.402739 63.332 103.7576
1.412904 63.601 102.5908
1.423142 63.865 101.4407
1.433455 64.124 100.3059
1.443843 64.376 99.1853
1.454305 64.622 98.0784
1.464844 64.864 96.9854
1.475459 65.101 95.9068
1.486150 65.335 94.8435
1.496920 65.567 93.7963
1.507767 65.797 92.7657
1.518693 66.026 91.7516
1.529698 66.253 90.7539
1.540783 66.480 89.7720
1.551948 66.706 88.8054
1.563194 66.931 87.8532
1.574521 67.155 86.9146
1.585931 67.378 85.9886
1.597423 67.601 85.0744
1.608999 67.823 84.1709
1.620658 68.044 83.2771
1.632402 68.264 82.3920
1.644232 68.483 81.5145
1.656146 68.702 80.6438
1.668147 68.920 79.7786
1.680235 69.137 78.9181
1.692411 69.354 78.0612
1.704675 69.570 77.2069
1.717028 69.785 76.3542
1.729470 69.999 75.5021
1.742003 70.213 74.6497
1.754626 70.426 73.7961
1.767341 70.639 72.9404
1.780147 70.851 72.0820
1.793047 71.062 71.2204
1.806040 71.272 70.3554
1.819128 71.481 69.4871
1.832310 71.689 68.6164
1.845587 71.896 67.7442
1.858961 72.101 66.8719
1.872432 72.305 66.0008
1.886001 72.507 65.1320
1.899667 72.707 64.2664
1.913433 72.905 63.4044
1.927299 73.102 62.5466
1.941265 73.297 61.6931
1.955332 73.491 60.8441
1.969501 73.683 59.9996
1.983773 73.874 59.1593
1.998148 74.063 58.3231
2.012627 74.251 57.4908
2.027212 74.439 56.6618
2.041902 74.625 55.8359
2.056698 74.810 55.0125
2.071602 74.995 54.1910
2.086614 75.179 53.3710
2.101734 75.362 52.5517
2.116964 75.545 51.7325
2.132304 75.728 50.9127
2.147756 75.910 50.0917
2.163320 76.092 49.2689
2.178996 76.274 48.4440
2.194786 76.455 47.6167
2.210690 76.636 46.7871
2.226710 76.816 45.9556
2.242845 76.994 45.1227
2.259098 77.172 44.2891
2.275468 77.348 43.4553
2.291957 77.523 42.6218
2.308566 77.696 41.7892
2.325295 77.869 40.9577
2.342145 78.040 40.1277
2.359117 78.210 39.2991
2.376212 78.379 38.4722
2.393431 78.548 37.6468
2.410775 78.715 36.8229
2.428244 78.882 36.0002
2.445840 79.047 35.1785
2.463564 79.212 34.3575
2.481416 79.377 33.5366
2.499397 79.541 32.7154
2.517509 79.705 31.8933
2.535752 79.868 31.0697
2.554127 80.030 30.2439
2.572635 80.191 29.4155
2.591277 80.352 28.5841
2.610055 80.512 27.7498
2.628968 80.671 26.9128
2.648019 80.828 26.0736
2.667208 80.984 25.2327
2.686535 81.140 24.3907
2.706003 81.294 23.5482
2.725612 81.447 22.7057
2.745363 81.599 21.8636
2.765257 81.750 21.0223
2.785295 81.900 20.1819
2.805478 82.050 19.3425
2.825808 82.198 18.5043
2.846285 82.346 17.6671
2.866910 82.494 16.8304
2.887685 82.640 15.9938
2.908611 82.786 15.1567
2.929688 82.931 14.3182
2.950917 83.075 13.4776
2.972301 83.218 12.6342
2.993839 83.360 11.7879
3.015534 83.501 10.9388
3.037386 83.641 10.0875
3.059396 83.779 9.2346
3.081565 83.917 8.3807
3.103896 84.053 7.5267
3.126388 84.189 6.6729
3.149043 84.323 5.8201
3.171862 84.457 4.9685
3.194847 84.590 4.1185
3.217998 84.722 3.2702
3.241317 84.853 2.4232
3.264805 84.983 1.5770
3.288463 85.113 0.7310
3.312293 85.241 -0.1162
3.336295 85.368 -0.9652
3.360471 85.495 -1.8165
3.384822 85.620 -2.6703
3.409350 85.744 -3.5262
3.434056 85.867 -4.3837
3.458940 85.988 -5.2417
3.484005 86.109 -6.0996
3.509252 86.229 -6.9566
3.534681 86.348 -7.8120
3.560295 86.465 -8.6652
3.586094 86.582 -9.5159
3.612081 86.698 -10.3644
3.638255 86.814 -11.2108
3.664620 86.928 -12.0562
3.691175 87.041 -12.9015
3.717923 87.153 -13.7474
3.744864 87.264 -14.5946
3.772001 87.374 -15.4429
3.799335 87.482 -16.2918
3.826866 87.590 -17.1409
3.854597 87.697 -17.9891
3.882529 87.802 -18.8358
3.910664 87.907 -19.6803
3.939002 88.011 -20.5220
3.967546 88.113 -21.3607
3.996296 88.215 -22.1965
4.025255 88.317 -23.0300
4.054423 88.417 -23.8619
4.083804 88.516 -24.6932
4.113396 88.614 -25.5243
4.143204 88.711 -26.3553
4.173227 88.807 -27.1859
4.203468 88.902 -28.0156
4.233928 88.996 -28.8436
4.264609 89.089 -29.6693
4.295512 89.181 -30.4920
4.326639 89.272 -31.3114
4.357992 89.363 -32.1274
4.389572 89.453 -32.9404
4.421380 89.542 -33.7509
4.453419 89.630 -34.5594
4.485691 89.717 -35.3667
4.518196 89.803 -36.1727
4.550936 89.888 -36.9773
4.583914 89.973 -37.7800
4.617131 90.056 -38.5804
4.650589 90.139 -39.3781
4.684289 90.221 -40.1724
4.718233 90.303 -40.9635
4.752424 90.384 -41.7513
4.786862 90.464 -42.5364
4.821549 90.543 -43.3192
4.856488 90.621 -44.1000
4.891680 90.699 -44.8790
4.927127 90.776 -45.6560
4.962831 90.852 -46.4310
4.998794 90.928 -47.2034
5.035017 91.002 -47.9730
5.071503 91.077 -48.7398
5.108253 91.150 -49.5037
5.145270 91.223 -50.2649
5.182555 91.296 -51.0238
5.220110 91.367 -51.7807
5.257937 91.439 -52.5358
5.296038 91.509 -53.2889
5.334415 91.579 -54.0400
5.373071 91.648 -54.7888
5.412006 91.716 -55.5353
5.451224 91.784 -56.2794
5.490725 91.852 -57.0211
5.530514 91.919 -57.7606
5.570590 91.985 -58.4984
5.610957 92.050 -59.2345
5.651616 92.115 -59.9689
5.692570 92.180 -60.7015
5.733821 92.244 -61.4323
5.775370 92.307 -62.1609
5.817221 92.369 -62.8874
5.859375 92.431 -63.6119
5.901834 92.492 -64.3346
5.944602 92.553 -65.0556
5.987679 92.613 -65.7751
6.031068 92.673 -66.4930
6.074771 92.731 -67.2090
6.118792 92.790 -67.9231
6.163131 92.847 -68.6351
6.207792 92.904 -69.3448
6.252776 92.960 -70.0527
6.298086 93.016 -70.7585
6.343725 93.071 -71.4626
6.389694 93.125 -72.1648
6.435996 93.178 -72.8650
6.482634 93.231 -73.5629
6.529610 93.283 -74.2584
6.576926 93.335 -74.9514
6.624585 93.386 -75.6419
6.672590 93.436 -76.3301
6.720942 93.486 -77.0160
6.769645 93.535 -77.6995
6.818700 93.583 -78.3804
6.868111 93.631 -79.0586
6.917881 93.678 -79.7338
6.968010 93.724 -80.4061
7.018504 93.770 -81.0756
7.069362 93.816 -81.7421
7.120590 93.860 -82.4058
7.172189 93.904 -83.0667
7.224161 93.948 -83.7244
7.276511 93.991 -84.3789
7.329239 94.033 -85.0302
7.382350 94.075 -85.6783
7.435845 94.116 -86.3234
7.489729 94.157 -86.9653
7.544002 94.198 -87.6041
7.598669 94.237 -88.2397
7.653732 94.277 -88.8721
7.709194 94.316 -89.5013
7.765058 94.354 -90.1273
7.821327 94.392 -90.7501
7.878004 94.430 -91.3700
7.935091 94.467 -91.9867
7.992592 94.504 -92.6004
8.050510 94.541 -93.2111
8.108847 94.577 -93.8187
8.167607 94.612 -94.4234
8.226793 94.648 -95.0252
8.286408 94.683 -95.6241
8.346454 94.717 -96.2203
8.406936 94.752 -96.8137
8.467856 94.785 -97.4043
8.529218 94.819 -97.9922
8.591024 94.852 -98.5775
8.653278 94.885 -99.1602
8.715983 94.918 -99.7402
8.779143 94.950 -100.3179
8.842760 94.982 -100.8929
8.906839 95.013 -101.4657
8.971381 95.044 -102.0360
9.036392 95.075 -102.6041
9.101873 95.106 -103.1699
9.167829 95.136 -103.7334
9.234263 95.166 -104.2948
9.301178 95.196 -104.8540
9.368578 95.225 -105.4112
9.436467 95.254 -105.9663
9.504847 95.282 -106.5194
9.573723 95.310 -107.0706
9.643099 95.338 -107.6199
9.712976 95.365 -108.1672
9.783361 95.392 -108.7126
9.854255 95.419 -109.2561
9.925663 95.445 -109.7976
9.997588 95.471 -110.3372
10.070035 95.496 -110.8749
10.143007 95.520 -111.4103
10.216507 95.545 -111.9437
10.290540 95.568 -112.4747
10.365109 95.592 -113.0035
10.440219 95.614 -113.5297
10.515873 95.637 -114.0532
10.592076 95.658 -114.5739
10.668830 95.679 -115.0916
10.746141 95.700 -115.6062
10.824012 95.720 -116.1174
10.902447 95.740 -116.6251
10.981451 95.759 -117.1290
11.061027 95.778 -117.6292
11.141180 95.796 -118.1254
11.221913 95.814 -118.6174
11.303232 95.832 -119.1053
11.385140 95.849 -119.5891
11.467641 95.866 -120.0686
11.550741 95.883 -120.5439
11.634442 95.900 -121.0153
11.718750 95.916 -121.4825
11.803669 95.933 -121.9460
11.889203 95.949 -122.4060
11.975357 95.965 -122.8627
12.062136 95.982 -123.3163
12.149543 95.998 -123.7671
12.237583 96.015 -124.2156
12.326262 96.031 -124.6620
12.415583 96.048 -125.1066
12.505552 96.064 -125.5499
12.596172 96.081 -125.9920
12.687449 96.097 -126.4333
12.779387 96.114 -126.8739
12.871992 96.130 -127.3141
12.965268 96.146 -127.7539
13.059220 96.162 -128.1935
13.153852 96.177 -128.6327
13.249170 96.193 -129.0716
13.345179 96.207 -129.5100
13.441884 96.222 -129.9478
13.539289 96.236 -130.3848
13.637401 96.249 -130.8206
13.736223 96.262 -131.2549
13.835761 96.275 -131.6876
13.936021 96.287 -132.1182
14.037007 96.299 -132.5466
14.138725 96.310 -132.9724
14.241180 96.321 -133.3954
14.344377 96.331 -133.8156
14.448323 96.341 -134.2325
14.553021 96.351 -134.6464
14.658478 96.360 -135.0571
14.764700 96.370 -135.4647
14.871691 96.379 -135.8693
14.979457 96.388 -136.2712
15.088005 96.397 -136.6704
15.197339 96.406 -137.0672
15.307465 96.415 -137.4619
15.418389 96.424 -137.8547
15.530117 96.433 -138.2458
15.642655 96.442 -138.6355
15.756008 96.450 -139.0237
15.870182 96.459 -139.4107
15.985184 96.467 -139.7964
16.101019 96.475 -140.1807
16.217694 96.483 -140.5637
16.335214 96.491 -140.9450
16.453586 96.499 -141.3246
16.572815 96.506 -141.7021
16.692909 96.513 -142.0775
16.813872 96.520 -142.4507
16.935713 96.527 -142.8214
17.058436 96.534 -143.1899
17.182048 96.541 -143.5562
17.306556 96.548 -143.9205
17.431967 96.555 -144.2833
17.558286 96.562 -144.6451
17.685521 96.569 -145.0063
17.813677 96.576 -145.3676
17.942762 96.584 -145.7296
18.072783 96.591 -146.0926
18.203746 96.598 -146.4570
18.335658 96.605 -146.8229
18.468526 96.611 -147.1902
18.602356 96.617 -147.5583
18.737156 96.621 -147.9265
18.872934 96.625 -148.2938
19.009695 96.628 -148.6588
19.147447 96.630 -149.0200
19.286197 96.631 -149.3759
19.425953 96.631 -149.7251
19.566721 96.631 -150.0664
19.708510 96.630 -150.3989
19.851326 96.629 -150.7222
19.995177 96.629 -151.0365
20.140070 96.629 -151.3428
20.286013 96.630 -151.6423
20.433014 96.633 -151.9371
20.581080 96.636 -152.2297
20.730219 96.641 -152.5227
20.880439 96.648 -152.8185
21.031747 96.655 -153.1197
21.184152 96.662 -153.4279
21.337661 96.670 -153.7443
21.492282 96.678 -154.0690
21.648024 96.685 -154.4016
21.804895 96.691 -154.7407
21.962902 96.695 -155.0840
22.122054 96.698 -155.4291
22.282360 96.699 -155.7729
22.443827 96.698 -156.1129
22.606464 96.697 -156.4467
22.770280 96.694 -156.7725
22.935283 96.690 -157.0892
23.101481 96.687 -157.3970
23.268884 96.684 -157.6965
23.437500 96.681 -157.9893
23.607338 96.679 -158.2772
23.778406 96.678 -158.5626
23.950714 96.678 -158.8477
24.124271 96.678 -159.1343
24.299086 96.679 -159.4236
24.475167 96.679 -159.7163
24.652524 96.680 -160.0122
24.831166 96.680 -160.3105
25.011103 96.679 -160.6100
25.192344 96.677 -160.9092
25.374898 96.675 -161.2064
25.558775 96.673 -161.5002
25.743984 96.669 -161.7898
25.930536 96.666 -162.0746
26.118439 96.663 -162.3549
26.307704 96.660 -162.6313
26.498341 96.657 -162.9049
26.690359 96.655 -163.1771
26.883768 96.653 -163.4491
27.078579 96.651 -163.7219
27.274801 96.650 -163.9961
27.472446 96.648 -164.2719
27.671522 96.646 -164.5487
27.872042 96.643 -164.8258
28.074014 96.640 -165.1022
28.277450 96.637 -165.3770
28.482360 96.633 -165.6498
28.688755 96.629 -165.9205
28.896645 96.625 -166.1896
29.106042 96.621 -166.4579
29.316957 96.616 -166.7261
29.529400 96.611 -166.9946
29.743382 96.605 -167.2628
29.958915 96.598 -167.5292
30.176009 96.590 -167.7913
30.394677 96.581 -168.0460
30.614929 96.571 -168.2905
30.836778 96.561 -168.5226
31.060234 96.552 -168.7421
31.285309 96.543 -168.9508
31.512015 96.536 -169.1525
31.740364 96.532 -169.3524
31.970368 96.529 -169.5559
32.202039 96.528 -169.7676
32.435388 96.528 -169.9901
32.670428 96.527 -170.2233
32.907171 96.526 -170.4650
33.145630 96.523 -170.7113
33.385817 96.520 -170.9586
33.627745 96.516 -171.2042
33.871425 96.511 -171.4477
34.116871 96.507 -171.6904
34.364096 96.504 -171.9353
34.613113 96.500 -172.1849
34.863934 96.497 -172.4410
35.116572 96.492 -172.7028
35.371041 96.487 -172.9677
35.627354 96.479 -173.2316
35.885525 96.471 -173.4908
36.145566 96.462 -173.7430
36.407492 96.453 -173.9878
36.671316 96.444 -174.2269
36.937051 96.436 -174.4630
37.204712 96.428 -174.6984
37.474313 96.421 -174.9340
37.745867 96.413 -175.1692
38.019389 96.405 -175.4025
38.294893 96.396 -175.6326
38.572394 96.388 -175.8593
38.851905 96.381 -176.0842
39.133442 96.374 -176.3105
39.417019 96.368 -176.5408
39.702651 96.361 -176.7767
39.990353 96.354 -177.0175
40.280140 96.345 -177.2606
40.572026 96.335 -177.5024
40.866028 96.325 -177.7401
41.162160 96.313 -177.9726
41.460438 96.301 -178.2006
41.760877 96.290 -178.4261
42.063494 96.278 -178.6511
42.368303 96.266 -178.8762
42.675322 96.254 -179.1005
42.984565 96.241 -179.3221
43.296048 96.227 -179.5392
43.609789 96.214 -179.7510
43.925804 96.201 -179.9583
44.244108 96.189 179.8367
44.564719 96.177 179.6313
44.887654 96.166 179.4234
45.212928 96.155 179.2119
45.540560 96.144 178.9976
45.870565 96.133 178.7825
46.202962 96.121 178.5687
46.537768 96.109 178.3580
46.875000 96.097 178.1505
47.214676 96.085 177.9446
47.556813 96.075 177.7374
47.901429 96.064 177.5266
48.248542 96.053 177.3109
48.598171 96.041 177.0922
48.950334 96.027 176.8740
49.305048 96.013 176.6613
49.662333 95.997 176.4579
50.022206 95.982 176.2648
50.384688 95.967 176.0792
50.749796 95.954 175.8958
51.117550 95.942 175.7076
51.487969 95.931 175.5092
51.861072 95.920 175.2979
52.236879 95.907 175.0755
52.615409 95.892 174.8474
52.996681 95.875 174.6210
53.380717 95.856 174.4026
53.767536 95.837 174.1958
54.157158 95.818 174.0001
54.549603 95.800 173.8121
54.944892 95.784 173.6271
55.343045 95.769 173.4406
55.744084 95.755 173.2491
56.148028 95.742 173.0498
56.554900 95.729 172.8406
56.964720 95.714 172.6219
57.377510 95.698 172.3980
57.793291 95.679 172.1772
58.212085 95.657 171.9691
58.633914 95.634 171.7805
59.058799 95.611 171.6118
59.486764 95.589 171.4576
59.917829 95.569 171.3101
60.352019 95.549 171.1637
60.789354 95.531 171.0163
61.229859 95.513 170.8680
61.673556 95.495 170.7176
62.120468 95.479 170.5616
62.570618 95.462 170.3954
63.024031 95.446 170.2162
63.480729 95.428 170.0259
63.940736 95.408 169.8300
64.404077 95.387 169.6350
64.870776 95.364 169.4460
65.340856 95.341 169.2651
65.814343 95.318 169.0922
66.291261 95.296 168.9269
66.771635 95.275 168.7679
67.255489 95.255 168.6116
67.742850 95.236 168.4517
68.233743 95.219 168.2821
68.728193 95.201 168.1007
69.226226 95.181 167.9114
69.727867 95.159 167.7209
70.233144 95.134 167.5354
70.742083 95.108 167.3588
71.254709 95.080 167.1948
71.771050 95.052 167.0475
72.291132 95.024 166.9177
72.814984 94.998 166.7997
73.342631 94.975 166.6828
73.874102 94.953 166.5569
74.409424 94.933 166.4183
74.948626 94.912 166.2690
75.491734 94.891 166.1143
76.038779 94.868 165.9584
76.589787 94.846 165.8037
77.144788 94.823 165.6511
77.703811 94.799 165.5005
78.266885 94.776 165.3528
78.834039 94.751 165.2090
79.405303 94.727 165.0695
79.980706 94.702 164.9329
80.560280 94.678 164.7970
81.144053 94.652 164.6609
81.732056 94.626 164.5261
82.324320 94.598 164.3952
82.920876 94.570 164.2705
83.521755 94.542 164.1516
84.126988 94.514 164.0353
84.736607 94.487 163.9181
85.350643 94.460 163.7977
85.969129 94.432 163.6742
86.592097 94.404 163.5494
87.219579 94.376 163.4254
87.851608 94.347 163.3025
88.488217 94.318 163.1802
89.129439 94.289 163.0577
89.775308 94.259 162.9357
90.425856 94.229 162.8156
91.081119 94.198 162.6986
91.741131 94.167 162.5855
92.405925 94.137 162.4756
93.075536 94.107 162.3672
93.750000 94.078 162.2584
94.429351 94.049 162.1477
95.113625 94.021 162.0350
95.802858 93.992 161.9218
96.497085 93.963 161.8108
97.196342 93.933 161.7050
97.900667 93.903 161.6063
98.610096 93.873 161.5140
99.324665 93.843 161.4266
100.044413 93.814 161.3418
100.769376 93.784 161.2576
101.499592 93.754 161.1722
102.235100 93.724 161.0847
102.975938 93.692 160.9948
103.722144 93.660 160.9038
104.473757 93.628 160.8137
105.230817 93.594 160.7260
105.993363 93.561 160.6417
106.761435 93.527 160.5609
107.535072 93.494 160.4832
108.314315 93.460 160.4076
109.099206 93.426 160.3327
109.889783 93.392 160.2580
110.686090 93.357 160.1838
111.488167 93.322 160.1112
112.296056 93.286 160.0406
113.109800 93.250 159.9725
113.929440 93.215 159.9071
114.755020 93.180 159.8442
115.586582 93.147 159.7827
116.424170 93.115 159.7209
117.267827 93.084 159.6572
118.117598 93.053 159.5914
118.973527 93.021 159.5243
119.835658 92.986 159.4597
120.704037 92.949 159.4031
121.578708 92.909 159.3578
122.459718 92.867 159.3220
123.347111 92.825 159.2908
124.240935 92.782 159.2607
125.141236 92.739 159.2308
126.048061 92.698 159.2015
126.961458 92.658 159.1752
127.881473 92.618 159.1552
128.808154 92.580 159.1444
129.741551 92.542 159.1431
130.681712 92.503 159.1492
131.628686 92.461 159.1604
132.582521 92.416 159.1746
133.543269 92.366 159.1898
134.510979 92.312 159.2053
135.485701 92.255 159.2233
136.467486 92.197 159.2504
137.456386 92.141 159.2952
138.452451 92.089 159.3616
139.455735 92.044 159.4438
140.466288 92.005 159.5382
141.484165 91.970 159.6536
142.509418 91.936 159.8052
143.542100 91.905 160.0029
144.582265 91.877 160.2442
145.629968 91.854 160.5156
146.685262 91.837 160.7982
147.748204 91.826 161.0710
148.818849 91.823 161.3127
149.897251 91.825 161.5057
150.983469 91.830 161.6396
152.077557 91.836 161.7114
153.179574 91.841 161.7239
154.289576 91.841 161.6849
155.407622 91.837 161.6059
156.533770 91.827 161.4990
157.668078 91.812 161.3743
158.810606 91.792 161.2415
159.961413 91.769 161.1107
161.120559 91.741 160.9912
162.288105 91.712 160.8882
163.464112 91.680 160.8023
164.648640 91.647 160.7330
165.841752 91.612 160.6796
167.043510 91.576 160.6403
168.253976 91.540 160.6130
169.473213 91.503 160.5967
170.701286 91.466 160.5909
171.938258 91.429 160.5950
173.184194 91.392 160.6064
174.439158 91.356 160.6232
175.703216 91.319 160.6448
176.976434 91.283 160.6707
178.258878 91.247 160.7009
179.550615 91.210 160.7356
180.851713 91.174 160.7751
182.162239 91.137 160.8191
183.482262 91.100 160.8666
184.811850 91.064 160.9167
186.151073 91.028 160.9696
187.500000 90.991 161.0263
188.858702 90.955 161.0873
190.227250 90.919 161.1525
191.605715 90.883 161.2216
192.994169 90.847 161.2938
194.392685 90.811 161.3680
195.801334 90.775 161.4438
197.220191 90.738 161.5209
198.649330 90.702 161.6000
200.088825 90.665 161.6823
201.538751 90.627 161.7690
202.999184 90.590 161.8618
204.470200 90.553 161.9613
205.951875 90.516 162.0668
207.444287 90.480 162.1762
208.947514 90.444 162.2863
210.461634 90.409 162.3953
211.986726 90.373 162.5049
213.522869 90.337 162.6191
215.070144 90.301 162.7416
216.628631 90.266 162.8722
218.198411 90.231 163.0079
219.779567 90.195 163.1452
221.372180 90.159 163.2827
222.976334 90.121 163.4219
224.592112 90.083 163.5658
226.219600 90.045 163.7174
227.858880 90.008 163.8770
229.510039 89.972 164.0427
231.173164 89.939 164.2111
232.848340 89.907 164.3790
234.535655 89.877 164.5449
236.235197 89.848 164.7092
237.947054 89.820 164.8750
239.671317 89.792 165.0469
241.408074 89.765 165.2269
243.157416 89.738 165.4111
244.919435 89.711 165.5937
246.694223 89.684 165.7731
248.481871 89.655 165.9536
250.282473 89.626 166.1394
252.096123 89.596 166.3311
253.922915 89.566 166.5242
255.762945 89.536 166.7117
257.616309 89.508 166.8898
259.483103 89.479 167.0602
261.363424 89.452 167.2280
263.257372 89.424 167.3967
265.165043 89.397 167.5686
267.086538 89.369 167.7458
269.021957 89.342 167.9294
270.971401 89.315 168.1200
272.934972 89.288 168.3172
274.912771 89.261 168.5200
276.904902 89.233 168.7274
278.911469 89.205 168.9388
280.932577 89.177 169.1541
282.968330 89.148 169.3723
285.018835 89.121 169.5911
287.084199 89.095 169.8046
289.164530 89.071 170.0067
291.259935 89.049 170.1973
293.370525 89.027 170.3821
295.496408 89.005 170.5684
297.637697 88.983 170.7604
299.794503 88.960 170.9594
301.966937 88.936 171.1650
304.155114 88.912 171.3760
306.359147 88.888 171.5906
308.579152 88.864 171.8082
310.815244 88.840 172.0289
313.067539 88.815 172.2534
315.336156 88.791 172.4824
317.621211 88.766 172.7161
319.922826 88.742 172.9539
322.241118 88.718 173.1948
324.576210 88.695 173.4378
326.928223 88.673 173.6821
329.297280 88.650 173.9277
331.683504 88.628 174.1752
334.087019 88.606 174.4250
336.507952 88.584 174.6774
338.946427 88.562 174.9324
341.402572 88.540 175.1896
343.876516 88.519 175.4484
346.368387 88.498 175.7081
348.878315 88.479 175.9684
351.406431 88.460 176.2294
353.952867 88.442 176.4922
356.517756 88.424 176.7574
359.101230 88.406 177.0245
361.703426 88.388 177.2928
364.324478 88.370 177.5623
366.964523 88.352 177.8333
369.623699 88.334 178.1070
372.302145 88.317 178.3843
375.000000 88.300 178.6650
377.717405 88.283 178.9484
380.454501 88.267 179.2336
383.211431 88.251 179.5201
385.988339 88.235 179.8076
388.785369 88.220 -179.9045
391.602668 88.205 -179.6162
394.440383 88.190 -179.3269
397.298660 88.175 -179.0363
400.177650 88.160 -178.7439
403.077502 88.146 -178.4500
405.998368 88.132 -178.1547
408.940400 88.119 -177.8583
411.903750 88.106 -177.5604
414.888575 88.093 -177.2601
417.895028 88.079 -176.9567
420.923268 88.066 -176.6505
423.973452 88.053 -176.3428
427.045738 88.041 -176.0347
430.140287 88.029 -175.7264
433.257261 88.017 -175.4174
436.396822 88.006 -175.1066
439.559133 87.995 -174.7938
442.744360 87.985 -174.4786
445.952668 87.975 -174.1614
449.184225 87.965 -173.8422
452.439199 87.955 -173.5209
455.717760 87.945 -173.1972
459.020079 87.935 -172.8708
462.346327 87.925 -172.5415
465.696680 87.916 -172.2092
469.071310 87.907 -171.8741
472.470394 87.899 -171.5370
475.894109 87.890 -171.1987
479.342634 87.883 -170.8594
482.816148 87.875 -170.5187
486.314833 87.868 -170.1759
489.838871 87.861 -169.8307
493.388445 87.854 -169.4833
496.963741 87.847 -169.1339
500.564945 87.841 -168.7824
504.192245 87.835 -168.4285
507.845830 87.829 -168.0715
511.525890 87.824 -167.7113
515.232618 87.818 -167.3481
518.966206 87.813 -166.9820
522.726849 87.809 -166.6128
526.514743 87.805 -166.2402
530.330086 87.801 -165.8640
534.173076 87.798 -165.4843
538.043915 87.795 -165.1013
541.942803 87.792 -164.7155
545.869944 87.789 -164.3275
549.825542 87.787 -163.9379
553.809805 87.785 -163.5466
557.822939 87.783 -163.1535
561.865154 87.782 -162.7576
565.936660 87.780 -162.3583
570.037671 87.779 -161.9554
574.168399 87.779 -161.5486
578.329060 87.778 -161.1378
582.519870 87.779 -160.7225
586.741049 87.779 -160.3025
590.992817 87.780 -159.8773
595.275394 87.782 -159.4464
599.589005 87.784 -159.0097
603.933874 87.786 -158.5673
608.310228 87.789 -158.1194
612.718295 87.792 -157.6664
617.158304 87.795 -157.2085
621.630488 87.799 -156.7452
626.135079 87.804 -156.2759
630.672311 87.809 -155.7993
635.242423 87.814 -155.3149
639.845651 87.821 -154.8220
644.482237 87.828 -154.3203
649.152421 87.836 -153.8089
653.856447 87.845 -153.2874
658.594560 87.855 -152.7552
663.367008 87.867 -152.2125
668.174039 87.881 -151.6593
673.015903 87.896 -151.0960
677.892854 87.914 -150.5237
682.805145 87.934 -149.9438
687.753032 87.956 -149.3582
692.736774 87.981 -148.7682
697.756631 88.009 -148.1753
702.812863 88.039 -147.5809
707.905735 88.072 -146.9869
713.035511 88.108 -146.3945
718.202461 88.146 -145.8049
723.406852 88.187 -145.2189
728.648956 88.230 -144.6373
733.929047 88.276 -144.0613
739.247399 88.323 -143.4919
744.604290 88.373 -142.9303
750.000000 88.424 -142.3772
755.434809 88.477 -141.8332
760.909001 88.532 -141.2980
766.422861 88.588 -140.7712
771.976677 88.645 -140.2523
777.570739 88.703 -139.7405
783.205337 88.763 -139.2355
788.880766 88.823 -138.7371
794.597321 88.884 -138.2452
800.355301 88.946 -137.7599
806.155005 89.009 -137.2805
811.996736 89.073 -136.8063
817.880799 89.138 -136.3368
823.807501 89.204 -135.8716
829.777150 89.271 -135.4108
835.790057 89.338 -134.9546
841.846536 89.407 -134.5031
847.946903 89.477 -134.0565
854.091476 89.548 -133.6151
860.280575 89.620 -133.1787
866.514523 89.693 -132.7470
872.793644 89.768 -132.3198
879.118267 89.843 -131.8972
885.488720 89.919 -131.4797
891.905336 89.997 -131.0679
898.368450 90.076 -130.6620
904.878398 90.155 -130.2621
911.435520 90.237 -129.8684
918.040157 90.319 -129.4816
924.692655 90.402 -129.1023
931.393359 90.487 -128.7311
938.142619 90.572 -128.3681
944.940787 90.659 -128.0132
951.788218 90.746 -127.6666
958.685268 90.835 -127.3284
965.632296 90.925 -126.9986
972.629666 91.016 -126.6772
979.677741 91.108 -126.3647
986.776890 91.200 -126.0618
993.927482 91.294 -125.7690
1001.129891 91.389 -125.4872
1008.384491 91.484 -125.2167
1015.691660 91.580 -124.9575
1023.051781 91.677 -124.7097
1030.465236 91.775 -124.4730
1037.932411 91.873 -124.2475
1045.453698 91.971 -124.0331
1053.029486 92.070 -123.8298
1060.660172 92.169 -123.6379
1068.346153 92.268 -123.4571
1076.087829 92.368 -123.2877
1083.885605 92.468 -123.1300
1091.739887 92.568 -122.9843
1099.651084 92.667 -122.8501
1107.619609 92.767 -122.7273
1115.645878 92.867 -122.6154
1123.730308 92.967 -122.5143
1131.873321 93.066 -122.4240
1140.075341 93.165 -122.3445
1148.336797 93.264 -122.2756
1156.658119 93.362 -122.2173
1165.039741 93.460 -122.1689
1173.482099 93.558 -122.1301
1181.985634 93.655 -122.1003
1190.550789 93.752 -122.0793
1199.178011 93.848 -122.0668
1207.867749 93.943 -122.0623
1216.620457 94.038 -122.0657
1225.436590 94.132 -122.0767
1234.316609 94.225 -122.0948
1243.260976 94.318 -122.1198
1252.270157 94.410 -122.1510
1261.344623 94.501 -122.1881
1270.484846 94.592 -122.2310
1279.691303 94.682 -122.2792
1288.964474 94.771 -122.3325
1298.304842 94.859 -122.3909
1307.712894 94.947 -122.4540
1317.189120 95.035 -122.5214
1326.734016 95.121 -122.5928
1336.348077 95.207 -122.6680
1346.031806 95.293 -122.7466
1355.785708 95.377 -122.8284
1365.610290 95.462 -122.9133
1375.506065 95.545 -123.0008
1385.473549 95.629 -123.0907
1395.513261 95.712 -123.1830
1405.625726 95.794 -123.2775
1415.811469 95.877 -123.3744
1426.071023 95.958 -123.4734
1436.404921 96.040 -123.5745
1446.813703 96.121 -123.6773
1457.297912 96.202 -123.7819
1467.858093 96.283 -123.8882
1478.494798 96.364 -123.9963
1489.208581 96.444 -124.1063
1500.000000 96.525 -124.2183
1510.869618 96.605 -124.3320
1521.818002 96.686 -124.4474
1532.845723 96.766 -124.5645
1543.953355 96.847 -124.6832
1555.141477 96.927 -124.8040
1566.410674 97.008 -124.9271
1577.761531 97.089 -125.0527
1589.194642 97.170 -125.1810
1600.710601 97.251 -125.3118
1612.310010 97.333 -125.4456
1623.993473 97.414 -125.5822
1635.761599 97.496 -125.7220
1647.615002 97.579 -125.8652
1659.554299 97.662 -126.0121
1671.580114 97.745 -126.1626
1683.693072 97.828 -126.3170
1695.893807 97.912 -126.4756
1708.182952 97.996 -126.6384
1720.561150 98.081 -126.8060
1733.029045 98.166 -126.9784
1745.587288 98.252 -127.1561
1758.236533 98.338 -127.3395
1770.977440 98.424 -127.5289
1783.810673 98.511 -127.7246
1796.736900 98.599 -127.9270
1809.756796 98.687 -128.1363
1822.871040 98.776 -128.3529
1836.080315 98.865 -128.5773
1849.385310 98.955 -128.8098
1862.786718 99.045 -129.0508
1876.285239 99.135 -129.3007
1889.881575 99.226 -129.5597
1903.576436 99.318 -129.8281
1917.370535 99.409 -130.1064
1931.264593 99.501 -130.3949
1945.259332 99.593 -130.6941
1959.355483 99.686 -131.0045
1973.553781 99.779 -131.3264
1987.854965 99.872 -131.6602
2002.259781 99.965 -132.0062
2016.768981 100.058 -132.3649
2031.383320 100.151 -132.7366
2046.103561 100.245 -133.1217
2060.930471 100.338 -133.5206
2075.864823 100.431 -133.9338
2090.907395 100.524 -134.3618
2106.058972 100.617 -134.8048
2121.320344 100.709 -135.2632
2136.692305 100.801 -135.7376
2152.175658 100.893 -136.2282
2167.771210 100.984 -136.7354
2183.479774 101.074 -137.2596
2199.302169 101.164 -137.8011
2215.239219 101.252 -138.3602
2231.291755 101.339 -138.9371
2247.460615 101.425 -139.5317
2263.746641 101.509 -140.1440
2280.150683 101.592 -140.7742
2296.673595 101.674 -141.4221
2313.316238 101.753 -142.0875
2330.079481 101.830 -142.7704
2346.964198 101.906 -143.4706
2363.971268 101.979 -144.1876
2381.101578 102.049 -144.9213
2398.356022 102.117 -145.6711
2415.735498 102.182 -146.4363
2433.240913 102.244 -147.2164
2450.873180 102.304 -148.0106
2468.633217 102.359 -148.8184
2486.521951 102.412 -149.6389
2504.540314 102.461 -150.4714
2522.689246 102.507 -151.3148
2540.969692 102.548 -152.1684
2559.382606 102.586 -153.0309
2577.928947 102.620 -153.9014
2596.609683 102.651 -154.7786
2615.425787 102.677 -155.6614
2634.378241 102.698 -156.5486
2653.468031 102.716 -157.4387
2672.696154 102.729 -158.3304
2692.063613 102.738 -159.2222
2711.571415 102.742 -160.1129
2731.220579 102.742 -161.0009
2751.012130 102.738 -161.8848
2770.947098 102.730 -162.7633
2791.026522 102.717 -163.6348
2811.251451 102.700 -164.4977
2831.622938 102.678 -165.3506
2852.142045 102.653 -166.1918
2872.809842 102.623 -167.0198
2893.627406 102.590 -167.8331
2914.595823 102.552 -168.6300
2935.716186 102.511 -169.4091
2956.989596 102.466 -170.1685
2978.417161 102.417 -170.9067
3000.000000 102.366 -171.6219
3021.739237 102.311 -172.3122
3043.636005 102.254 -172.9757
3065.691446 102.194 -173.6104
3087.906710 102.132 -174.2146
3110.282955 102.069 -174.7868
3132.821347 102.006 -175.3263
3155.523062 101.942 -175.8333
3178.389283 101.880 -176.3096
3201.421202 101.819 -176.7587
3224.620020 101.761 -177.1860
3247.986946 101.706 -177.5981
3271.523198 101.653 -178.0024
3295.230004 101.603 -178.4053
3319.108599 101.554 -178.8120
3343.160228 101.506 -179.2249
3367.386145 101.458 -179.6437
3391.787613 101.408 179.9341
3416.365904 101.358 179.5128
3441.122300 101.305 179.0966
3466.058091 101.252 178.6896
3491.174576 101.197 178.2946
3516.473066 101.141 177.9124
3541.954880 101.086 177.5422
3567.621345 101.030 177.1823
3593.473800 100.975 176.8295
3619.513592 100.921 176.4810
3645.742080 100.866 176.1341
3672.160630 100.812 175.7869
3698.770620 100.756 175.4384
3725.573436 100.700 175.0892
3752.570477 100.642 174.7412
3779.763150 100.581 174.3978
3807.152872 100.518 174.0635
3834.741071 100.452 173.7438
3862.529185 100.385 173.4440
3890.518664 100.315 173.1686
3918.710966 100.245 172.9211
3947.107561 100.175 172.7023
3975.709929 100.106 172.5107
4004.519563 100.039 172.3423
4033.537962 99.975 172.1916
4062.766641 99.914 172.0519
4092.207123 99.857 171.9170
4121.860942 99.802 171.7811
4151.729646 99.749 171.6401
4181.814790 99.699 171.4915
4212.117944 99.649 171.3337
4242.640687 99.600 171.1664
4273.384610 99.552 170.9901
4304.351317 99.503 170.8054
4335.542421 99.453 170.6136
4366.959549 99.403 170.4164
4398.604338 99.351 170.2150
4430.478438 99.299 170.0107
4462.583511 99.245 169.8048
4494.921231 99.190 169.5983
4527.493283 99.133 169.3917
4560.301365 99.076 169.1859
4593.347189 99.017 168.9813
4626.632476 98.956 168.7785
4660.158962 98.894 168.5785
4693.928395 98.831 168.3823
4727.942535 98.766 168.1909
4762.203156 98.700 168.0052
4796.712043 98.632 167.8260
4831.470996 98.563 167.6537
4866.481826 98.493 167.4884
4901.746360 98.422 167.3302
4937.266434 98.350 167.1792
4973.043902 98.277 167.0358
5009.080628 98.202 166.9002
5045.378492 98.126 166.7732
5081.939384 98.049 166.6556
5118.765212 97.970 166.5483
5155.857894 97.890 166.4523
5193.219366 97.809 166.3687
5230.851574 97.726 166.2985
5268.756481 97.642 166.2429
5306.936062 97.557 166.2031
5345.392309 97.470 166.1810
5384.127225 97.383 166.1782
5423.142830 97.294 166.1964
5462.441159 97.205 166.2371
5502.024259 97.115 166.3018
5541.894195 97.024 166.3912
5582.053045 96.934 166.5063
5622.502902 96.845 166.6471
5663.245876 96.756 166.8135
5704.284090 96.668 167.0050
5745.619684 96.581 167.2213
5787.254813 96.496 167.4618
5829.191647 96.413 167.7260
5871.432373 96.331 168.0132
5913.979192 96.251 168.3229
5956.834323 96.174 168.6544
6000.000000 96.099 169.0070
6043.478473 96.026 169.3795
6087.272010 95.957 169.7711
6131.382892 95.890 170.1805
6175.813420 95.827 170.6066
6220.565910 95.766 171.0482
6265.642695 95.709 171.5043
6311.046124 95.656 171.9738
6356.778566 95.606 172.4560
6402.842404 95.559 172.9502
6449.240040 95.517 173.4559
6495.973891 95.478 173.9727
6543.046396 95.443 174.5005
6590.460007 95.412 175.0397
6638.217197 95.385 175.5909
6686.320456 95.364 176.1545
6734.772290 95.347 176.7313
6783.575226 95.337 177.3209
6832.731809 95.332 177.9232
6882.244600 95.335 178.5369
6932.116181 95.346 179.1601
6982.349153 95.366 179.7897
7032.946133 95.395 -179.5789
7083.909760 95.436 -178.9515
7135.242690 95.487 -178.3358
7186.947600 95.551 -177.7410
7239.027185 95.628 -177.1780
7291.484160 95.718 -176.6586
7344.321260 95.822 -176.1951
7397.541239 95.938 -175.8003
7451.146872 96.066 -175.4871
7505.140954 96.207 -175.2679
7559.526299 96.358 -175.1559
7614.305743 96.519 -175.1642
7669.482141 96.688 -175.3064
7725.058371 96.864 -175.5967
7781.037328 97.046 -176.0494
7837.421932 97.229 -176.6782
7894.215122 97.411 -177.4952
7951.419859 97.589 -178.5101
8009.039125 97.758 -179.7291
8067.075924 97.914 178.8458
8125.533282 98.051 177.2179
8184.414245 98.166 175.3965
8243.721885 98.252 173.3972
8303.459292 98.305 171.2427
8363.629581 98.322 168.9619
8424.235888 98.298 166.5891
8485.281374 98.231 164.1624
8546.769221 98.121 161.7220
8608.702634 97.966 159.3088
8671.084842 97.768 156.9619
8733.919097 97.530 154.7173
8797.208675 97.254 152.6072
8860.956876 96.942 150.6583
8925.167022 96.600 148.8925
8989.842461 96.231 147.3265
9054.986566 95.839 145.9725
9120.602731 95.428 144.8398
9186.694378 95.000 143.9351
9253.264952 94.561 143.2634
9320.317925 94.112 142.8284
9387.856790 93.658 142.6315
9455.885071 93.202 142.6719
9524.406312 92.747 142.9458
9593.424086 92.298 143.4460
9662.941992 91.857 144.1618
9732.963653 91.427 145.0797
9803.492719 91.011 146.1839
9874.532869 90.611 147.4573
9946.087805 90.228 148.8823
10018.161257 89.864 150.4421
10090.756983 89.520 152.1208
10163.878768 89.195 153.9040
10237.530423 88.890 155.7788
10311.715789 88.605 157.7344
10386.438732 88.340 159.7618
10461.703149 88.095 161.8531
10537.512962 87.868 164.0016
10613.872125 87.662 166.2010
10690.784618 87.474 168.4460
10768.254450 87.305 170.7316
10846.285661 87.156 173.0532
10924.882318 87.025 175.4066
11004.048518 86.913 177.7877
11083.788390 86.821 -179.8076
11164.106090 86.748 -177.3831
11245.005805 86.695 -174.9424
11326.491752 86.662 -172.4893
11408.568180 86.651 -170.0272
11491.239368 86.660 -167.5606
11574.509626 86.693 -165.0941
11658.383294 86.748 -162.6330
11742.864745 86.829 -160.1837
11827.958384 86.935 -157.7531
11913.668646 87.069 -155.3495
12000.000000 87.232 -152.9829
12086.956947 87.427 -150.6650
12174.544019 87.654 -148.4105
12262.765784 87.916 -146.2364
12351.626840 88.215 -144.1639
12441.131819 88.554 -142.2189
12531.285389 88.935 -140.4330
12622.092249 89.360 -138.8455
12713.557132 89.832 -137.5046
12805.684808 90.350 -136.4689
12898.480079 90.913 -135.8080
12991.947783 91.519 -135.6020
13086.092792 92.160 -135.9388
13180.920015 92.825 -136.9083
13276.434395 93.496 -138.5938
13372.640911 94.151 -141.0613
13469.544580 94.764 -144.3469
13567.150452 95.303 -148.4432
13665.463617 95.738 -153.2880
13764.489200 96.038 -158.7554
13864.232362 96.177 -164.6550
13964.698305 96.139 -170.7430
14065.892266 95.920 -176.7460
14167.819519 95.527 177.6061
14270.485380 94.978 172.5471
14373.895200 94.302 168.2535
14478.054370 93.531 164.8356
14582.968320 92.699 162.3386
14688.642520 91.838 160.7500
14795.082478 90.980 160.0101
14902.293745 90.149 160.0251
15010.281908 89.364 160.6811
15119.052599 88.639 161.8569
15228.611486 87.982 163.4362
15338.964283 87.395 165.3145
15450.116741 86.878 167.4039
15562.074656 86.428 169.6329
15674.843864 86.039 171.9455
15788.430244 85.709 174.2969
15902.839718 85.432 176.6517
16018.078250 85.203 178.9807
16134.151848 85.019 -178.7408
16251.066563 84.877 -176.5351
16368.828491 84.775 -174.4233
16487.443769 84.710 -172.4280
16606.918584 84.682 -170.5744
16727.259161 84.690 -168.8918
16848.471777 84.732 -167.4135
16970.562748 84.806 -166.1765
17093.538442 84.908 -165.2199
17217.405268 85.033 -164.5825
17342.169684 85.174 -164.2989
17467.838194 85.322 -164.3951
17594.417350 85.466 -164.8862
17721.913751 85.596 -165.7726
17850.334044 85.699 -167.0386
17979.684923 85.764 -168.6505
18109.973131 85.782 -170.5580
18241.205462 85.745 -172.6967
18373.388756 85.647 -174.9931
18506.529905 85.484 -177.3697
18640.635849 85.258 -179.7515
18775.713581 84.971 177.9282
18911.770141 84.627 175.7228
19048.812624 84.233 173.6688
19186.848172 83.795 171.7856
19325.883983 83.325 170.0786
19465.927305 82.838 168.5471
19606.985439 82.358 167.1978
19749.065738 81.923 166.0625
19892.175609 81.585 165.2117
20036.322514 81.398 164.7453
