* Measurement data measured by REW V5.30.4
* Source: Headset (2- CX31993 HIFI AUDIO), MICROPHONE (Master Volume), L, volume: 0.500
* Format: 256k Log Swept Sine, 1 sweep at -12.0 dBFS with no timing reference
* Dated: 08 1, 24 3:37:09 PM
* REW Settings:
*  C-weighting compensation: Off
*  Target level: 75.0 dB
* Note: ; 
* Measurement: KZ Castor Bass UUUU L
* Smoothing: 1/12 octave
* Frequency Step: 96 ppo
* Start Frequency: 20.141602 Hz
*
* Freq(Hz) SPL(dB) Phase(degrees)
20.141602 94.223 -167.1168
20.287556 94.228 -167.0884
20.434568 94.235 -167.0977
20.582645 94.243 -167.1353
20.731796 94.251 -167.1931
20.882027 94.260 -167.2650
21.033346 94.269 -167.3491
21.185762 94.278 -167.4480
21.339283 94.287 -167.5526
21.493916 94.296 -167.6615
21.649670 94.306 -167.7737
21.806553 94.316 -167.8885
21.964573 94.327 -168.0049
22.123737 94.339 -168.1292
22.284056 94.351 -168.2560
22.445536 94.364 -168.3827
22.608185 94.377 -168.5090
22.772013 94.391 -168.6345
22.937029 94.405 -168.7589
23.103241 94.420 -168.8870
23.270657 94.434 -169.0168
23.439285 94.449 -169.1453
23.609137 94.464 -169.2724
23.780218 94.478 -169.3977
23.952539 94.492 -169.5210
24.126110 94.506 -169.6471
24.300938 94.520 -169.7718
24.477032 94.533 -169.8920
24.654402 94.546 -170.0065
24.833057 94.559 -170.1144
25.013008 94.571 -170.2155
25.194263 94.584 -170.3158
25.376831 94.596 -170.4090
25.560722 94.609 -170.4960
25.745945 94.623 -170.5786
25.932510 94.636 -170.6589
26.120428 94.650 -170.7440
26.309708 94.665 -170.8343
26.500359 94.679 -170.9293
26.692390 94.693 -171.0309
26.885815 94.706 -171.1401
27.080641 94.719 -171.2600
27.276878 94.732 -171.3916
27.474539 94.743 -171.5302
27.673630 94.754 -171.6747
27.874165 94.765 -171.8236
28.076153 94.775 -171.9772
28.279604 94.785 -172.1350
28.484529 94.794 -172.2920
28.690941 94.804 -172.4461
28.898848 94.813 -172.5958
29.108261 94.822 -172.7419
29.319191 94.831 -172.8833
29.531651 94.840 -173.0169
29.745649 94.850 -173.1432
29.961199 94.859 -173.2632
30.178310 94.870 -173.3833
30.396996 94.880 -173.5029
30.617264 94.891 -173.6240
30.839128 94.902 -173.7490
31.062601 94.913 -173.8809
31.287693 94.924 -174.0222
31.514416 94.934 -174.1691
31.742783 94.945 -174.3203
31.972803 94.955 -174.4739
32.204491 94.967 -174.6321
32.437859 94.979 -174.7915
32.672916 94.993 -174.9522
32.909679 95.008 -175.1158
33.148155 95.024 -175.2867
33.388359 95.041 -175.4648
33.630306 95.058 -175.6481
33.874004 95.073 -175.8345
34.119469 95.086 -176.0222
34.366711 95.097 -176.2068
34.615746 95.105 -176.3816
34.866585 95.110 -176.5433
35.119244 95.114 -176.6924
35.373734 95.116 -176.8304
35.630066 95.118 -176.9591
35.888256 95.120 -177.0834
36.148315 95.123 -177.2110
36.410259 95.126 -177.3453
36.674103 95.129 -177.4870
36.939857 95.133 -177.6363
37.207539 95.137 -177.7941
37.477161 95.142 -177.9570
37.748737 95.147 -178.1224
38.022282 95.152 -178.2891
38.297806 95.159 -178.4592
38.575329 95.166 -178.6288
38.854862 95.173 -178.7979
39.136421 95.180 -178.9674
39.420021 95.187 -179.1373
39.705673 95.194 -179.3065
39.993397 95.200 -179.4756
40.283207 95.206 -179.6478
40.575115 95.212 -179.8216
40.869141 95.218 -179.9978
41.165295 95.223 179.8213
41.463596 95.228 179.6368
41.764057 95.232 179.4522
42.066696 95.235 179.2695
42.371529 95.238 179.0897
42.678570 95.241 178.9150
42.987835 95.243 178.7448
43.299343 95.246 178.5739
43.613110 95.249 178.4018
43.929150 95.252 178.2254
44.247478 95.254 178.0402
44.568115 95.257 177.8478
44.891075 95.258 177.6504
45.216373 95.259 177.4497
45.544029 95.259 177.2491
45.874062 95.260 177.0512
46.206486 95.261 176.8553
46.541317 95.262 176.6616
46.878574 95.263 176.4697
47.218277 95.265 176.2770
47.560440 95.267 176.0832
47.905083 95.268 175.8890
48.252224 95.268 175.6932
48.601879 95.268 175.4969
48.954067 95.267 175.3008
49.308807 95.266 175.1041
49.666119 95.264 174.9073
50.026020 95.263 174.7103
50.388531 95.261 174.5108
50.753666 95.258 174.3114
51.121449 95.256 174.1114
51.491894 95.254 173.9100
51.865025 95.251 173.7085
52.240860 95.247 173.5058
52.619419 95.243 173.3023
53.000721 95.239 173.0984
53.384785 95.234 172.8922
53.771633 95.229 172.6855
54.161285 95.224 172.4783
54.553761 95.220 172.2709
54.949081 95.215 172.0647
55.347263 95.210 171.8581
55.748333 95.204 171.6516
56.152309 95.197 171.4442
56.559212 95.188 171.2356
56.969063 95.178 171.0280
57.381886 95.166 170.8209
57.797699 95.155 170.6179
58.216526 95.146 170.4175
58.638386 95.139 170.2158
59.063305 95.134 170.0085
59.491302 95.131 169.7933
59.922401 95.128 169.5739
60.356625 95.124 169.3534
60.793995 95.119 169.1357
61.234531 95.113 168.9207
61.678261 95.105 168.7064
62.125206 95.096 168.4910
62.575390 95.086 168.2742
63.028835 95.075 168.0567
63.485569 95.063 167.8385
63.945610 95.051 167.6219
64.408989 95.039 167.4057
64.875725 95.027 167.1902
65.345840 95.014 166.9752
65.819366 95.001 166.7607
66.296318 94.988 166.5452
66.776726 94.974 166.3293
67.260620 94.961 166.1142
67.748016 94.947 165.8997
68.238945 94.933 165.6843
68.733429 94.918 165.4683
69.231499 94.902 165.2535
69.733177 94.886 165.0398
70.238495 94.870 164.8265
70.747475 94.853 164.6130
71.260139 94.837 164.3978
71.776520 94.819 164.1806
72.296638 94.802 163.9627
72.820526 94.784 163.7449
73.348213 94.765 163.5276
73.879723 94.746 163.3115
74.415085 94.727 163.0955
74.954330 94.707 162.8806
75.497482 94.687 162.6672
76.044571 94.667 162.4548
76.595619 94.646 162.2427
77.150665 94.626 162.0302
77.709732 94.604 161.8168
78.272850 94.582 161.6030
78.840050 94.560 161.3893
79.411354 94.537 161.1771
79.986801 94.513 160.9666
80.566422 94.489 160.7570
81.150238 94.465 160.5488
81.738289 94.441 160.3424
82.330597 94.416 160.1351
82.927200 94.392 159.9267
83.528122 94.367 159.7191
84.133400 94.341 159.5114
84.743065 94.315 159.3035
85.357147 94.289 159.0972
85.975677 94.262 158.8932
86.598694 94.235 158.6934
87.226227 94.207 158.4940
87.858307 94.179 158.2933
88.494965 94.150 158.0941
89.136238 94.120 157.8961
89.782158 94.090 157.6992
90.432755 94.060 157.5021
91.088066 94.029 157.3051
91.748131 93.998 157.1096
92.412979 93.967 156.9146
93.082642 93.936 156.7211
93.757156 93.904 156.5294
94.436562 93.871 156.3414
95.120888 93.838 156.1567
95.810173 93.804 155.9735
96.504456 93.769 155.7920
97.203766 93.734 155.6096
97.908142 93.699 155.4247
98.617622 93.663 155.2422
99.332245 93.626 155.0624
100.052048 93.589 154.8854
100.777069 93.551 154.7100
101.507339 93.514 154.5388
102.242905 93.476 154.3711
102.983795 93.438 154.2055
103.730057 93.399 154.0369
104.481728 93.359 153.8684
105.238846 93.319 153.7006
106.001450 93.278 153.5352
106.769577 93.237 153.3722
107.543274 93.195 153.2169
108.322578 93.152 153.0722
109.107529 93.108 152.9388
109.898170 93.064 152.8118
110.694534 93.020 152.6896
111.496674 92.976 152.5710
112.304626 92.933 152.4534
113.118431 92.890 152.3348
113.938133 92.847 152.2150
114.763779 92.804 152.0931
115.595406 92.761 151.9711
116.433060 92.719 151.8459
117.276779 92.677 151.7204
118.126617 92.634 151.6019
118.982613 92.591 151.4890
119.844810 92.546 151.3894
120.713257 92.499 151.3076
121.587997 92.451 151.2408
122.469070 92.402 151.1808
123.356529 92.354 151.1194
124.250420 92.307 151.0504
125.150787 92.260 150.9697
126.057678 92.214 150.8804
126.971146 92.167 150.7867
127.891228 92.119 150.6884
128.817978 92.071 150.5905
129.751450 92.022 150.4917
130.691681 91.971 150.3912
131.638733 91.918 150.2919
132.592636 91.865 150.1989
133.553452 91.810 150.1127
134.521240 91.755 150.0322
135.496033 91.699 149.9567
136.477890 91.644 149.8859
137.466858 91.590 149.8213
138.462997 91.536 149.7615
139.466354 91.482 149.7048
140.476990 91.429 149.6532
141.494949 91.376 149.6053
142.520279 91.321 149.5621
143.553040 91.266 149.5265
144.593277 91.210 149.5009
145.641052 91.152 149.4877
146.696426 91.094 149.4865
147.759445 91.034 149.4950
148.830170 90.974 149.5069
149.908661 90.913 149.5216
150.994965 90.851 149.5415
152.089142 90.790 149.5632
153.191238 90.729 149.5915
154.301331 90.668 149.6270
155.419464 90.607 149.6695
156.545700 90.544 149.7231
157.680099 90.481 149.7869
158.822708 90.416 149.8564
159.973602 90.350 149.9343
161.132843 90.283 150.0195
162.300476 90.216 150.1169
163.476578 90.149 150.2280
164.661194 90.081 150.3504
165.854401 90.013 150.4826
167.056244 89.944 150.6278
168.266800 89.875 150.7884
169.486130 89.805 150.9730
170.714294 89.735 151.1891
171.951355 89.664 151.4394
173.197388 89.594 151.7249
174.452454 89.526 152.0436
175.716614 89.461 152.3939
176.989929 89.399 152.7755
178.272476 89.341 153.1808
179.564316 89.290 153.6116
180.865509 89.246 154.0685
182.176132 89.209 154.5376
183.496262 89.180 155.0187
184.825958 89.159 155.5003
186.165283 89.145 155.9735
187.514313 89.137 156.4262
188.873123 89.137 156.8411
190.241776 89.145 157.2165
191.620346 89.158 157.5279
193.008911 89.175 157.7702
194.407532 89.192 157.9225
195.816284 89.205 158.0024
197.235245 89.212 158.0140
198.664490 89.210 157.9757
200.104095 89.198 157.9088
201.554138 89.178 157.8333
203.014679 89.151 157.7668
204.485809 89.119 157.7219
205.967590 89.083 157.7073
207.460114 89.044 157.7224
208.963455 89.002 157.7697
210.477692 88.959 157.8413
212.002899 88.916 157.9335
213.539154 88.872 158.0452
215.086548 88.827 158.1764
216.645157 88.783 158.3312
218.215057 88.739 158.5008
219.796341 88.696 158.6849
221.389069 88.653 158.8828
222.993347 88.610 159.0884
224.609253 88.569 159.3007
226.236862 88.529 159.5178
227.876266 88.490 159.7401
229.527557 88.453 159.9695
231.190811 88.417 160.2056
232.866119 88.382 160.4483
234.553558 88.349 160.6885
236.253235 88.316 160.9318
237.965225 88.285 161.1788
239.689621 88.255 161.4274
241.426514 88.225 161.6849
243.175995 88.197 161.9505
244.938141 88.169 162.2217
246.713058 88.141 162.4943
248.500839 88.113 162.7695
250.301575 88.086 163.0385
252.115356 88.061 163.3048
253.942291 88.038 163.5728
255.782455 88.016 163.8420
257.635956 87.995 164.1197
259.502899 87.974 164.3994
261.383362 87.954 164.6804
263.277466 87.934 164.9679
265.185272 87.916 165.2515
267.106903 87.899 165.5318
269.042480 87.883 165.8058
270.992065 87.868 166.0807
272.955780 87.854 166.3544
274.933716 87.840 166.6278
276.925995 87.826 166.9038
278.932709 87.814 167.1737
280.953979 87.802 167.4449
282.989899 87.791 167.7202
285.040558 87.781 167.9886
287.106079 87.771 168.2532
289.186554 87.762 168.5122
291.282104 87.753 168.7666
293.392853 87.745 169.0172
295.518890 87.737 169.2672
297.660339 87.729 169.5146
299.817322 87.723 169.7598
301.989929 87.716 170.0064
304.178284 87.710 170.2482
306.382477 87.704 170.4859
308.602661 87.699 170.7230
310.838928 87.693 170.9589
313.091400 87.689 171.1926
315.360199 87.684 171.4255
317.645416 87.680 171.6540
319.947205 87.677 171.8835
322.265686 87.674 172.1105
324.600952 87.671 172.3355
326.953156 87.669 172.5602
329.322388 87.667 172.7810
331.708801 87.665 172.9983
334.112488 87.663 173.2130
336.533600 87.661 173.4260
338.972260 87.659 173.6359
341.428589 87.658 173.8448
343.902710 87.656 174.0517
346.394775 87.654 174.2583
348.904907 87.653 174.4617
351.433228 87.652 174.6646
353.979858 87.652 174.8615
356.544952 87.651 175.0562
359.128632 87.651 175.2491
361.731018 87.650 175.4393
364.352264 87.650 175.6295
366.992523 87.649 175.8170
369.651917 87.648 176.0075
372.330566 87.647 176.1891
375.028625 87.646 176.3769
377.746246 87.645 176.5597
380.483551 87.643 176.7440
383.240692 87.642 176.9252
386.017822 87.641 177.1063
388.815063 87.640 177.2896
391.632568 87.639 177.4662
394.470490 87.639 177.6435
397.328979 87.638 177.8202
400.208191 87.638 177.9944
403.108276 87.637 178.1743
406.029358 87.636 178.3513
408.971619 87.635 178.5267
411.935181 87.634 178.7017
414.920227 87.633 178.8795
417.926910 87.632 179.0510
420.955383 87.631 179.2247
424.005798 87.630 179.3931
427.078308 87.629 179.5630
430.173096 87.627 179.7335
433.290314 87.626 179.9035
436.430115 87.625 -179.9222
439.592682 87.623 -179.7507
442.778137 87.621 -179.5816
445.986694 87.620 -179.4144
449.218506 87.618 -179.2442
452.473724 87.617 -179.0758
455.752533 87.615 -178.9089
459.055115 87.614 -178.7440
462.381622 87.612 -178.5724
465.732239 87.610 -178.4034
469.107117 87.608 -178.2346
472.506470 87.606 -178.0596
475.930450 87.603 -177.8889
479.379242 87.601 -177.7159
482.853027 87.598 -177.5403
486.351990 87.596 -177.3654
489.876282 87.593 -177.1844
493.426117 87.590 -177.0030
497.001678 87.588 -176.8283
500.603149 87.585 -176.6469
504.230713 87.583 -176.4676
507.884583 87.580 -176.2875
511.564911 87.577 -176.1094
515.271912 87.574 -175.9284
519.005798 87.570 -175.7440
522.766724 87.567 -175.5634
526.554932 87.564 -175.3738
530.370544 87.561 -175.1891
534.213806 87.558 -174.9957
538.084961 87.554 -174.8064
541.984131 87.551 -174.6168
545.911560 87.548 -174.4193
549.867432 87.545 -174.2239
553.851990 87.542 -174.0278
557.865417 87.539 -173.8292
561.907959 87.536 -173.6259
565.979797 87.533 -173.4237
570.081116 87.530 -173.2195
574.212158 87.526 -173.0128
578.373108 87.523 -172.8036
582.564209 87.520 -172.5908
586.785706 87.516 -172.3736
591.037781 87.513 -172.1574
595.320679 87.510 -171.9389
599.634644 87.507 -171.7159
603.979858 87.504 -171.4919
608.356567 87.501 -171.2648
612.764954 87.498 -171.0333
617.205322 87.496 -170.8032
621.677856 87.494 -170.5675
626.182800 87.492 -170.3301
630.720398 87.490 -170.0879
635.290833 87.488 -169.8444
639.894409 87.486 -169.5982
644.531372 87.485 -169.3475
649.201904 87.484 -169.0940
653.906311 87.483 -168.8392
658.644775 87.483 -168.5788
663.417603 87.483 -168.3179
668.224976 87.483 -168.0538
673.067200 87.484 -167.7868
677.944519 87.485 -167.5166
682.857178 87.487 -167.2439
687.805420 87.489 -166.9678
692.789551 87.491 -166.6829
697.809814 87.494 -166.4000
702.866455 87.497 -166.1104
707.959717 87.501 -165.8176
713.089905 87.506 -165.5242
718.257263 87.511 -165.2307
723.462036 87.517 -164.9262
728.704529 87.523 -164.6242
733.985046 87.530 -164.3213
739.303833 87.538 -164.0111
744.661133 87.547 -163.6996
750.057251 87.557 -163.3885
755.492493 87.568 -163.0739
760.967102 87.580 -162.7605
766.481384 87.594 -162.4464
772.035645 87.609 -162.1354
777.630127 87.625 -161.8260
783.265137 87.642 -161.5284
788.940979 87.660 -161.2366
794.657959 87.679 -160.9661
800.416382 87.698 -160.7167
806.216553 87.715 -160.4865
812.058716 87.728 -160.2822
817.943237 87.736 -160.0893
823.870361 87.736 -159.8935
829.840454 87.727 -159.6686
835.853821 87.712 -159.3732
841.910767 87.696 -158.9851
848.011597 87.685 -158.4977
854.156616 87.685 -157.9467
860.346191 87.697 -157.3663
866.580627 87.722 -156.7949
872.860229 87.756 -156.2555
879.185364 87.796 -155.7626
885.556274 87.840 -155.3073
891.973389 87.886 -154.8949
898.437012 87.933 -154.5070
904.947449 87.980 -154.1484
911.505066 88.026 -153.8193
918.110229 88.072 -153.5062
924.763245 88.117 -153.2162
931.464478 88.159 -152.9360
938.214233 88.200 -152.6734
945.012939 88.237 -152.4190
951.860901 88.271 -152.1682
958.758484 88.302 -151.9008
965.706055 88.330 -151.6177
972.703979 88.357 -151.3003
979.752563 88.385 -150.9473
986.852234 88.415 -150.5680
994.003357 88.449 -150.1591
1001.206299 88.489 -149.7352
1008.461426 88.535 -149.3054
1015.769165 88.587 -148.8912
1023.129822 88.644 -148.4885
1030.543823 88.705 -148.1077
1038.011597 88.769 -147.7541
1045.533447 88.835 -147.4242
1053.109863 88.903 -147.1128
1060.741089 88.971 -146.8275
1068.427612 89.040 -146.5572
1076.169922 89.108 -146.2964
1083.968262 89.176 -146.0536
1091.823120 89.243 -145.8261
1099.734863 89.309 -145.6093
1107.703979 89.375 -145.4049
1115.730835 89.441 -145.2163
1123.815918 89.507 -145.0353
1131.959595 89.572 -144.8640
1140.162231 89.636 -144.7114
1148.424316 89.701 -144.5566
1156.746216 89.765 -144.4165
1165.128418 89.828 -144.2821
1173.571411 89.890 -144.1561
1182.075562 89.952 -144.0395
1190.641357 90.014 -143.9229
1199.269287 90.075 -143.8192
1207.959717 90.135 -143.7197
1216.713135 90.194 -143.6216
1225.529907 90.253 -143.5326
1234.410645 90.311 -143.4435
1243.355713 90.369 -143.3627
1252.365601 90.426 -143.2823
1261.440796 90.482 -143.2105
1270.581665 90.538 -143.1318
1279.788818 90.593 -143.0595
1289.062744 90.648 -142.9911
1298.403809 90.702 -142.9212
1307.812622 90.755 -142.8509
1317.289551 90.808 -142.7880
1326.835205 90.861 -142.7172
1336.449951 90.913 -142.6493
1346.134399 90.965 -142.5813
1355.889038 91.017 -142.5178
1365.714355 91.068 -142.4501
1375.610840 91.119 -142.3800
1385.579102 91.170 -142.3060
1395.619629 91.221 -142.2368
1405.732910 91.272 -142.1641
1415.919434 91.322 -142.0933
1426.179810 91.373 -142.0178
1436.514526 91.424 -141.9457
1446.924072 91.475 -141.8621
1457.409058 91.526 -141.7869
1467.970093 91.577 -141.7071
1478.607666 91.628 -141.6291
1489.322266 91.680 -141.5410
1500.114502 91.732 -141.4541
1510.984985 91.784 -141.3675
1521.934204 91.837 -141.2881
1532.962769 91.891 -141.1983
1544.071289 91.944 -141.1135
1555.260254 91.999 -141.0261
1566.530273 92.054 -140.9387
1577.881958 92.109 -140.8417
1589.315918 92.165 -140.7599
1600.832764 92.222 -140.6727
1612.433105 92.280 -140.5792
1624.117432 92.339 -140.4932
1635.886475 92.398 -140.4055
1647.740723 92.458 -140.3220
1659.680908 92.519 -140.2344
1671.707642 92.580 -140.1527
1683.821533 92.643 -140.0743
1696.023193 92.706 -139.9991
1708.313232 92.770 -139.9158
1720.692383 92.835 -139.8407
1733.161255 92.901 -139.7666
1745.720459 92.968 -139.7042
1758.370728 93.035 -139.6395
1771.112549 93.104 -139.5840
1783.946777 93.174 -139.5210
1796.874023 93.245 -139.4600
1809.894897 93.316 -139.4229
1823.010132 93.389 -139.3791
1836.220459 93.463 -139.3386
1849.526489 93.537 -139.3083
1862.928955 93.613 -139.2774
1876.428467 93.690 -139.2611
1890.025879 93.767 -139.2445
1903.721802 93.846 -139.2409
1917.516968 93.925 -139.2401
1931.412109 94.005 -139.2518
1945.407959 94.086 -139.2660
1959.505127 94.168 -139.2911
1973.704468 94.251 -139.3242
1988.006714 94.335 -139.3617
2002.412598 94.420 -139.4142
2016.922852 94.506 -139.4733
2031.538330 94.593 -139.5460
2046.259644 94.680 -139.6277
2061.087646 94.768 -139.7202
2076.023193 94.857 -139.8175
2091.066895 94.946 -139.9381
2106.219727 95.036 -140.0629
2121.482178 95.126 -140.2099
2136.855225 95.217 -140.3540
2152.339844 95.309 -140.5117
2167.936523 95.402 -140.6749
2183.646240 95.496 -140.8774
2199.469727 95.591 -141.0845
2215.407959 95.686 -141.3141
2231.461670 95.781 -141.5600
2247.631836 95.877 -141.8187
2263.919189 95.972 -142.0926
2280.324463 96.067 -142.3791
2296.848633 96.162 -142.6922
2313.492432 96.257 -143.0277
2330.256836 96.352 -143.3824
2347.142822 96.446 -143.7542
2364.151123 96.540 -144.1415
2381.282715 96.633 -144.5458
2398.538574 96.725 -144.9802
2415.919434 96.817 -145.4310
2433.426270 96.907 -145.8974
2451.059814 96.996 -146.3856
2468.821289 97.083 -146.9020
2486.711426 97.168 -147.4307
2504.731201 97.252 -148.0019
2522.881592 97.334 -148.5873
2541.163330 97.413 -149.1854
2559.577637 97.489 -149.7987
2578.125488 97.563 -150.4154
2596.807617 97.634 -151.0998
2615.625244 97.702 -151.7785
2634.579102 97.767 -152.4785
2653.670410 97.828 -153.1805
2672.899902 97.885 -153.8949
2692.268799 97.939 -154.6292
2711.778076 97.988 -155.3930
2731.428711 98.034 -156.1598
2751.221680 98.076 -156.9294
2771.158203 98.113 -157.7086
2791.239258 98.146 -158.5051
2811.465820 98.175 -159.2970
2831.838867 98.199 -160.0899
2852.359619 98.219 -160.8988
2873.029053 98.234 -161.6977
2893.848145 98.245 -162.5003
2914.818115 98.251 -163.3165
2935.940186 98.253 -164.0926
2957.215332 98.250 -164.8970
2978.644531 98.243 -165.6874
3000.229004 98.232 -166.4750
3021.969971 98.216 -167.2359
3043.868408 98.196 -167.9995
3065.925537 98.171 -168.7654
3088.142578 98.143 -169.5003
3110.520508 98.111 -170.2126
3133.060547 98.075 -170.9272
3155.763916 98.035 -171.6249
3178.631836 97.992 -172.2863
3201.665527 97.946 -172.9346
3224.866211 97.897 -173.5675
3248.234863 97.846 -174.1836
3271.772949 97.792 -174.7764
3295.481445 97.735 -175.3477
3319.361816 97.677 -175.8972
3343.415283 97.616 -176.4287
3367.643066 97.554 -176.9396
3392.046387 97.490 -177.4161
3416.626465 97.424 -177.8807
3441.384766 97.357 -178.3313
3466.322510 97.289 -178.7396
3491.440918 97.220 -179.1427
3516.741455 97.150 -179.5245
3542.225098 97.079 -179.8732
3567.893555 97.008 179.7996
3593.748047 96.937 179.4702
3619.789795 96.865 179.1928
3646.020264 96.793 178.9269
3672.440918 96.722 178.6572
3699.052979 96.650 178.4182
3725.857910 96.579 178.2059
3752.856934 96.508 177.9976
3780.051758 96.437 177.8239
3807.443604 96.367 177.6545
3835.033936 96.297 177.5025
3862.824219 96.228 177.3727
3890.815918 96.159 177.2440
3919.010254 96.091 177.1292
3947.408936 96.023 177.0419
3976.013428 95.956 176.9404
4004.825195 95.889 176.8751
4033.845703 95.822 176.8126
4063.076660 95.756 176.7499
4092.519287 95.691 176.7184
4122.175293 95.625 176.6956
4152.046387 95.560 176.6881
4182.133789 95.495 176.6779
4212.439453 95.429 176.6845
4242.964355 95.364 176.7076
4273.710449 95.298 176.7565
4304.679688 95.232 176.8206
4335.873047 95.167 176.8920
4367.292480 95.101 177.0092
4398.939453 95.037 177.1407
4430.815918 94.974 177.3042
4462.923340 94.913 177.5040
4495.263672 94.856 177.7214
4527.838379 94.802 177.9798
4560.648926 94.754 178.2588
4593.697266 94.712 178.5573
4626.984863 94.677 178.8643
4660.513672 94.649 179.1853
4694.285645 94.627 179.4646
4728.302246 94.612 179.7602
4762.565430 94.601 -179.9936
4797.077148 94.594 -179.7702
4831.838867 94.588 -179.5811
4866.852539 94.583 -179.4035
4902.119629 94.578 -179.2607
4937.642578 94.574 -179.1168
4973.422852 94.570 -178.9973
5009.462402 94.566 -178.8783
5045.763184 94.563 -178.7796
5082.326660 94.560 -178.6839
5119.155273 94.557 -178.5939
5156.250977 94.555 -178.5213
5193.615234 94.552 -178.4569
5231.250488 94.550 -178.3891
5269.158203 94.547 -178.3245
5307.340820 94.544 -178.2818
5345.799805 94.542 -178.2221
5384.537598 94.539 -178.1760
5423.556152 94.537 -178.1331
5462.857422 94.535 -178.0846
5502.443359 94.534 -178.0473
5542.316406 94.533 -178.0144
5582.478516 94.534 -177.9685
5622.931641 94.535 -177.9541
5663.677734 94.536 -177.9323
5704.719238 94.538 -177.9139
5746.058105 94.541 -177.8969
5787.696289 94.543 -177.8752
5829.636230 94.546 -177.8819
5871.880371 94.548 -177.8774
5914.430664 94.550 -177.8785
5957.289062 94.552 -177.8852
6000.458008 94.554 -177.8882
6043.939941 94.556 -177.8615
6087.736816 94.558 -177.8704
6131.851074 94.560 -177.8359
6176.285156 94.563 -177.8154
6221.041016 94.567 -177.7689
6266.121094 94.573 -177.7156
6311.527832 94.580 -177.6466
6357.263672 94.590 -177.5628
6403.331055 94.604 -177.4729
6449.732422 94.621 -177.3682
6496.469727 94.643 -177.2506
6543.545898 94.670 -177.1001
6590.962891 94.702 -176.9790
6638.723633 94.740 -176.8407
6686.830566 94.785 -176.6964
6735.286133 94.837 -176.5780
6784.092773 94.896 -176.4633
6833.252930 94.962 -176.3334
6882.769531 95.036 -176.2224
6932.645020 95.119 -176.1291
6982.881836 95.211 -176.0728
7033.482910 95.313 -176.0266
7084.450195 95.425 -176.0212
7135.787109 95.548 -176.0587
7187.496094 95.684 -176.1331
7239.579590 95.832 -176.2761
7292.040527 95.992 -176.4941
7344.881836 96.165 -176.8077
7398.105957 96.352 -177.2056
7451.715820 96.551 -177.7252
7505.713867 96.763 -178.3954
7560.103516 96.986 -179.2069
7614.887207 97.219 179.7799
7670.067871 97.459 178.5401
7725.648438 97.702 177.0768
7781.631836 97.945 175.3602
7838.020508 98.179 173.3597
7894.817871 98.399 171.0758
7952.026855 98.595 168.4829
8009.650391 98.760 165.6144
8067.691406 98.882 162.4534
8126.153320 98.954 159.0851
8185.038574 98.967 155.5409
8244.350586 98.915 151.8611
8304.092773 98.794 148.1556
8364.267578 98.603 144.4688
8424.878906 98.341 140.8885
8485.928711 98.014 137.5023
8547.420898 97.626 134.3515
8609.359375 97.186 131.5060
8671.746094 96.702 128.9877
8734.584961 96.184 126.8346
8797.878906 95.641 125.0500
8861.631836 95.082 123.6335
8925.846680 94.515 122.5622
8990.527344 93.946 121.8364
9055.676758 93.382 121.4146
9121.297852 92.828 121.2903
9187.394531 92.286 121.4438
9253.969727 91.761 121.8226
9321.027344 91.254 122.4302
9388.571289 90.767 123.2255
9456.604492 90.301 124.1847
9525.130859 89.856 125.2949
9594.154297 89.433 126.5108
9663.677734 89.031 127.8516
9733.705078 88.650 129.2960
9804.239258 88.290 130.8062
9875.285156 87.950 132.4039
9946.845703 87.631 134.0482
10018.924805 87.332 135.7250
10091.526367 87.053 137.4346
10164.653320 86.793 139.1581
10238.310547 86.551 140.8850
10312.501953 86.325 142.5955
10387.230469 86.114 144.3011
10462.500977 85.916 145.9971
10538.316406 85.731 147.6677
10614.681641 85.558 149.3170
10691.599609 85.396 150.9557
10769.075195 85.244 152.5616
10847.112305 85.102 154.1104
10925.714844 84.968 155.6339
11004.886719 84.842 157.1112
11084.632812 84.720 158.5490
11164.957031 84.603 159.9531
11245.863281 84.488 161.2878
11327.355469 84.375 162.5901
11409.438477 84.261 163.8889
11492.116211 84.146 165.1408
11575.392578 84.029 166.4070
11659.272461 83.910 167.6850
11743.760742 83.791 169.0021
11828.861328 83.673 170.3643
11914.578125 83.559 171.7764
12000.916016 83.452 173.2399
12087.879883 83.351 174.7407
12175.473633 83.256 176.2906
12263.702148 83.168 177.9331
12352.570312 83.091 179.7001
12442.082031 83.036 -178.3825
12532.242188 83.012 -176.3081
12623.055664 83.030 -174.1722
12714.527344 83.097 -171.9840
12806.662109 83.214 -169.8787
12899.464844 83.383 -167.8948
12992.939453 83.601 -166.1129
13087.091797 83.860 -164.6105
13181.925781 84.154 -163.4099
13277.447266 84.474 -162.5632
13373.661133 84.811 -162.0858
13470.572266 85.156 -161.9822
13568.185547 85.500 -162.2570
13666.505859 85.834 -162.8905
13765.539062 86.149 -163.8551
13865.290039 86.439 -165.1286
13965.763672 86.698 -166.6448
14066.965820 86.921 -168.3725
14168.900391 87.106 -170.2732
14271.574219 87.252 -172.2750
14374.992188 87.359 -174.3477
14479.159180 87.429 -176.4054
14584.081055 87.466 -178.4653
14689.763672 87.476 179.5362
14796.211914 87.463 177.6187
14903.431641 87.436 175.7968
15011.427734 87.402 174.0294
15120.207031 87.367 172.2985
15229.774414 87.334 170.5623
15340.135742 87.306 168.7476
15451.296875 87.279 166.8288
15563.263672 87.248 164.6876
15676.041016 87.201 162.3149
15789.635742 87.125 159.6549
15904.053711 87.004 156.7643
16019.300781 86.821 153.6258
16135.382812 86.562 150.3390
16252.306641 86.215 146.9948
16370.077148 85.771 143.7173
16488.701172 85.228 140.6609
16608.185547 84.588 137.9029
16728.535156 83.858 135.5824
16849.757812 83.048 133.8011
16971.857422 82.174 132.6157
17094.841797 81.248 132.0914
17218.718750 80.288 132.2056
17343.492188 79.308 132.9907
17469.169922 78.322 134.3914
17595.757812 77.343 136.3771
17723.263672 76.382 138.8662
17851.693359 75.448 141.8317
17981.054688 74.547 145.1792
18111.353516 73.684 148.8599
18242.595703 72.864 152.8101
18374.789062 72.090 156.9577
18507.939453 71.365 161.2523
18642.054688 70.690 165.6565
18777.142578 70.069 170.0733
18913.208984 69.504 174.4967
19050.261719 68.998 178.8247
19188.308594 68.555 -176.9710
19327.355469 68.179 -173.0151
19467.410156 67.871 -169.3476
19608.478516 67.632 -166.1135
19750.570312 67.460 -163.4597
19893.691406 67.350 -161.5644
20037.849609 0.000 199.3717
