* Measurement data measured by REW V5.31.3
* Source: Headset (CX31993 HIFI AUDIO), MICROPHONE (Master Volume), R, volume: 0.250
* Format: 256k Log Swept Sine, 1 sweep at -12.0 dBFS with no timing reference
* Dated: 01 24, 25 7:55:20 PM
* REW Settings:
*  C-weighting compensation: Off
*  Target level: 75.0 dB
* Note: ; 
* Measurement: KZ Libra X filterless R
* Smoothing: 1/12 octave
* Frequency Step: 96 ppo
* Start Frequency: 0.36621094 Hz
*
* Freq(Hz) SPL(dB) Phase(degrees)
0.366211 44.952 -71.2540
0.368865 44.971 -71.3945
0.371538 45.000 -71.6035
0.374230 45.035 -71.8633
0.376942 45.075 -72.1587
0.379673 45.118 -72.4787
0.382424 45.163 -72.8159
0.385196 45.209 -73.1657
0.387987 45.255 -73.5254
0.390798 45.302 -73.8936
0.393630 45.350 -74.2695
0.396483 45.398 -74.6525
0.399356 45.446 -75.0425
0.402250 45.495 -75.4393
0.405165 45.544 -75.8427
0.408101 45.594 -76.2529
0.411058 45.643 -76.6695
0.414037 45.694 -77.0927
0.417037 45.744 -77.5223
0.420059 45.795 -77.9583
0.423103 45.846 -78.4005
0.426169 45.898 -78.8490
0.429257 45.950 -79.3036
0.432368 46.002 -79.7642
0.435501 46.055 -80.2307
0.438656 46.108 -80.7031
0.441835 46.162 -81.1812
0.445037 46.216 -81.6650
0.448262 46.270 -82.1542
0.451510 46.325 -82.6489
0.454782 46.380 -83.1488
0.458077 46.436 -83.6539
0.461397 46.491 -84.1641
0.464740 46.548 -84.6791
0.468108 46.605 -85.1989
0.471500 46.662 -85.7233
0.474917 46.719 -86.2523
0.478358 46.777 -86.7855
0.481825 46.836 -87.3230
0.485316 46.895 -87.8646
0.488833 46.954 -88.4101
0.492375 47.013 -88.9594
0.495943 47.074 -89.5123
0.499537 47.134 -90.0688
0.503157 47.195 -90.6285
0.506803 47.257 -91.1915
0.510475 47.318 -91.7576
0.514175 47.381 -92.3266
0.517900 47.444 -92.8984
0.521653 47.507 -93.4728
0.525434 47.570 -94.0498
0.529241 47.635 -94.6291
0.533076 47.699 -95.2108
0.536939 47.764 -95.7945
0.540830 47.830 -96.3803
0.544749 47.896 -96.9679
0.548696 47.962 -97.5574
0.552673 48.029 -98.1485
0.556677 48.097 -98.7412
0.560711 48.165 -99.3354
0.564774 48.233 -99.9310
0.568867 48.302 -100.5278
0.572989 48.372 -101.1259
0.577141 48.442 -101.7251
0.581324 48.512 -102.3254
0.585536 48.583 -102.9267
0.589779 48.655 -103.5289
0.594053 48.727 -104.1320
0.598358 48.799 -104.7359
0.602694 48.872 -105.3407
0.607061 48.946 -105.9462
0.611460 49.020 -106.5525
0.615891 49.095 -107.1595
0.620354 49.170 -107.7671
0.624849 49.246 -108.3755
0.629377 49.322 -108.9846
0.633938 49.399 -109.5944
0.638532 49.476 -110.2049
0.643159 49.554 -110.8161
0.647819 49.633 -111.4281
0.652514 49.712 -112.0409
0.657242 49.792 -112.6544
0.662005 49.872 -113.2689
0.666802 49.953 -113.8842
0.671634 50.034 -114.5006
0.676501 50.116 -115.1179
0.681403 50.199 -115.7363
0.686341 50.282 -116.3559
0.691314 50.366 -116.9766
0.696324 50.451 -117.5986
0.701370 50.536 -118.2220
0.706452 50.622 -118.8466
0.711571 50.708 -119.4726
0.716728 50.796 -120.0997
0.721921 50.885 -120.7276
0.727153 50.975 -121.3560
0.732422 51.066 -121.9840
0.737729 51.160 -122.6109
0.743075 51.255 -123.2357
0.748460 51.351 -123.8576
0.753883 51.449 -124.4759
0.759346 51.549 -125.0902
0.764849 51.650 -125.7002
0.770391 51.752 -126.3055
0.775974 51.855 -126.9061
0.781597 51.960 -127.5018
0.787261 52.065 -128.0926
0.792966 52.173 -128.6783
0.798712 52.281 -129.2590
0.804500 52.390 -129.8348
0.810329 52.501 -130.4055
0.816201 52.613 -130.9712
0.822116 52.726 -131.5320
0.828073 52.840 -132.0880
0.834074 52.955 -132.6392
0.840118 53.071 -133.1857
0.846206 53.189 -133.7277
0.852338 53.307 -134.2652
0.858514 53.427 -134.7985
0.864735 53.547 -135.3275
0.871001 53.669 -135.8526
0.877313 53.791 -136.3738
0.883670 53.915 -136.8913
0.890074 54.039 -137.4054
0.896524 54.164 -137.9161
0.903020 54.290 -138.4237
0.909564 54.417 -138.9284
0.916155 54.545 -139.4304
0.922794 54.674 -139.9298
0.929481 54.803 -140.4270
0.936216 54.933 -140.9221
0.943000 55.064 -141.4154
0.949834 55.195 -141.9071
0.956717 55.327 -142.3974
0.963649 55.459 -142.8866
0.970632 55.592 -143.3749
0.977666 55.725 -143.8625
0.984750 55.859 -144.3498
0.991886 55.993 -144.8369
0.999074 56.127 -145.3241
1.006314 56.261 -145.8116
1.013606 56.396 -146.2998
1.020951 56.530 -146.7889
1.028349 56.665 -147.2790
1.035801 56.800 -147.7706
1.043307 56.934 -148.2637
1.050867 57.068 -148.7588
1.058482 57.202 -149.2558
1.066152 57.336 -149.7551
1.073878 57.470 -150.2566
1.081660 57.603 -150.7602
1.089498 57.735 -151.2658
1.097393 57.868 -151.7728
1.105345 58.000 -152.2805
1.113355 58.132 -152.7882
1.121423 58.264 -153.2953
1.129549 58.396 -153.8012
1.137734 58.528 -154.3056
1.145979 58.660 -154.8083
1.154283 58.792 -155.3092
1.162647 58.924 -155.8081
1.171072 59.056 -156.3050
1.179558 59.189 -156.8001
1.188106 59.321 -157.2932
1.196715 59.454 -157.7844
1.205387 59.586 -158.2738
1.214122 59.719 -158.7615
1.222920 59.852 -159.2475
1.231782 59.985 -159.7319
1.240708 60.118 -160.2148
1.249699 60.251 -160.6963
1.258754 60.384 -161.1764
1.267876 60.517 -161.6554
1.277063 60.651 -162.1334
1.286318 60.784 -162.6104
1.295639 60.918 -163.0865
1.305027 61.051 -163.5621
1.314484 61.185 -164.0371
1.324009 61.319 -164.5117
1.333604 61.453 -164.9861
1.343268 61.587 -165.4605
1.353002 61.721 -165.9350
1.362806 61.855 -166.4098
1.372681 61.990 -166.8851
1.382628 62.124 -167.3610
1.392647 62.259 -167.8377
1.402739 62.394 -168.3153
1.412904 62.529 -168.7940
1.423142 62.664 -169.2740
1.433455 62.799 -169.7551
1.443843 62.934 -170.2373
1.454305 63.070 -170.7203
1.464844 63.205 -171.2038
1.475459 63.340 -171.6872
1.486150 63.475 -172.1700
1.496920 63.610 -172.6516
1.507767 63.745 -173.1320
1.518693 63.880 -173.6109
1.529698 64.014 -174.0885
1.540783 64.148 -174.5646
1.551948 64.282 -175.0396
1.563194 64.415 -175.5136
1.574521 64.548 -175.9868
1.585931 64.681 -176.4595
1.597423 64.814 -176.9319
1.608999 64.947 -177.4042
1.620658 65.079 -177.8768
1.632402 65.211 -178.3499
1.644232 65.343 -178.8238
1.656146 65.475 -179.2988
1.668147 65.607 -179.7752
1.680235 65.738 179.7467
1.692411 65.869 179.2665
1.704675 66.001 178.7841
1.717028 66.132 178.2989
1.729470 66.263 177.8107
1.742003 66.394 177.3192
1.754626 66.525 176.8239
1.767341 66.656 176.3247
1.780147 66.787 175.8213
1.793047 66.918 175.3133
1.806040 67.049 174.8007
1.819128 67.179 174.2834
1.832310 67.310 173.7618
1.845587 67.440 173.2360
1.858961 67.570 172.7064
1.872432 67.700 172.1736
1.886001 67.829 171.6379
1.899667 67.958 171.0997
1.913433 68.087 170.5594
1.927299 68.214 170.0171
1.941265 68.342 169.4731
1.955332 68.469 168.9277
1.969501 68.596 168.3809
1.983773 68.722 167.8328
1.998148 68.848 167.2836
2.012627 68.973 166.7332
2.027212 69.098 166.1818
2.041902 69.223 165.6292
2.056698 69.347 165.0756
2.071602 69.471 164.5208
2.086614 69.595 163.9647
2.101734 69.718 163.4072
2.116964 69.841 162.8481
2.132304 69.964 162.2874
2.147756 70.087 161.7245
2.163320 70.209 161.1594
2.178996 70.332 160.5917
2.194786 70.453 160.0210
2.210690 70.575 159.4470
2.226710 70.696 158.8695
2.242845 70.816 158.2886
2.259098 70.936 157.7043
2.275468 71.055 157.1169
2.291957 71.173 156.5266
2.308566 71.291 155.9339
2.325295 71.408 155.3391
2.342145 71.525 154.7425
2.359117 71.641 154.1443
2.376212 71.756 153.5450
2.393431 71.871 152.9447
2.410775 71.985 152.3437
2.428244 72.099 151.7420
2.445840 72.212 151.1399
2.463564 72.325 150.5374
2.481416 72.437 149.9344
2.499397 72.549 149.3309
2.517509 72.661 148.7267
2.535752 72.772 148.1212
2.554127 72.882 147.5141
2.572635 72.992 146.9047
2.591277 73.101 146.2923
2.610055 73.210 145.6766
2.628968 73.317 145.0574
2.648019 73.424 144.4350
2.667208 73.530 143.8095
2.686535 73.636 143.1814
2.706003 73.740 142.5511
2.725612 73.844 141.9193
2.745363 73.947 141.2863
2.765257 74.050 140.6527
2.785295 74.151 140.0188
2.805478 74.252 139.3851
2.825808 74.353 138.7518
2.846285 74.453 138.1192
2.866910 74.552 137.4873
2.887685 74.651 136.8559
2.908611 74.749 136.2245
2.929688 74.846 135.5925
2.950917 74.943 134.9591
2.972301 75.039 134.3236
2.993839 75.134 133.6855
3.015534 75.228 133.0447
3.037386 75.321 132.4016
3.059396 75.413 131.7563
3.081565 75.505 131.1097
3.103896 75.595 130.4622
3.126388 75.685 129.8144
3.149043 75.774 129.1671
3.171862 75.863 128.5208
3.194847 75.950 127.8760
3.217998 76.037 127.2331
3.241317 76.124 126.5922
3.264805 76.209 125.9531
3.288463 76.295 125.3153
3.312293 76.379 124.6782
3.336295 76.462 124.0410
3.360471 76.545 123.4031
3.384822 76.627 122.7642
3.409350 76.708 122.1243
3.434056 76.788 121.4838
3.458940 76.867 120.8431
3.484005 76.945 120.2028
3.509252 77.023 119.5634
3.534681 77.099 118.9256
3.560295 77.176 118.2898
3.586094 77.251 117.6564
3.612081 77.326 117.0257
3.638255 77.401 116.3974
3.664620 77.475 115.7712
3.691175 77.548 115.1466
3.717923 77.620 114.5229
3.744864 77.692 113.8997
3.772001 77.762 113.2769
3.799335 77.832 112.6547
3.826866 77.901 112.0333
3.854597 77.970 111.4130
3.882529 78.038 110.7945
3.910664 78.105 110.1781
3.939002 78.172 109.5642
3.967546 78.238 108.9531
3.996296 78.304 108.3450
4.025255 78.370 107.7395
4.054423 78.434 107.1364
4.083804 78.499 106.5353
4.113396 78.562 105.9359
4.143204 78.625 105.3379
4.173227 78.688 104.7413
4.203468 78.749 104.1462
4.233928 78.811 103.5529
4.264609 78.871 102.9615
4.295512 78.932 102.3723
4.326639 78.992 101.7855
4.357992 79.051 101.2010
4.389572 79.111 100.6189
4.421380 79.170 100.0389
4.453419 79.228 99.4608
4.485691 79.286 98.8843
4.518196 79.343 98.3094
4.550936 79.400 97.7359
4.583914 79.457 97.1639
4.617131 79.513 96.5935
4.650589 79.569 96.0248
4.684289 79.625 95.4578
4.718233 79.680 94.8926
4.752424 79.735 94.3290
4.786862 79.789 93.7670
4.821549 79.844 93.2063
4.856488 79.897 92.6469
4.891680 79.951 92.0885
4.927127 80.004 91.5313
4.962831 80.056 90.9752
4.998794 80.109 90.4202
5.035017 80.161 89.8665
5.071503 80.212 89.3139
5.108253 80.263 88.7625
5.145270 80.314 88.2121
5.182555 80.365 87.6625
5.220110 80.415 87.1136
5.257937 80.465 86.5655
5.296038 80.514 86.0182
5.334415 80.563 85.4716
5.373071 80.611 84.9260
5.412006 80.659 84.3814
5.451224 80.707 83.8378
5.490725 80.754 83.2951
5.530514 80.801 82.7533
5.570590 80.847 82.2122
5.610957 80.893 81.6718
5.651616 80.939 81.1320
5.692570 80.984 80.5932
5.733821 81.028 80.0554
5.775370 81.072 79.5187
5.817221 81.116 78.9832
5.859375 81.159 78.4489
5.901834 81.201 77.9157
5.944602 81.244 77.3836
5.987679 81.285 76.8525
6.031068 81.326 76.3226
6.074771 81.367 75.7938
6.118792 81.407 75.2664
6.163131 81.447 74.7406
6.207792 81.486 74.2162
6.252776 81.525 73.6935
6.298086 81.563 73.1722
6.343725 81.601 72.6524
6.389694 81.638 72.1340
6.435996 81.675 71.6172
6.482634 81.712 71.1021
6.529610 81.748 70.5887
6.576926 81.783 70.0771
6.624585 81.818 69.5674
6.672590 81.853 69.0594
6.720942 81.887 68.5532
6.769645 81.921 68.0487
6.818700 81.955 67.5460
6.868111 81.987 67.0451
6.917881 82.020 66.5461
6.968010 82.052 66.0491
7.018504 82.084 65.5538
7.069362 82.115 65.0605
7.120590 82.146 64.5689
7.172189 82.177 64.0793
7.224161 82.207 63.5915
7.276511 82.237 63.1056
7.329239 82.266 62.6216
7.382350 82.295 62.1395
7.435845 82.324 61.6593
7.489729 82.352 61.1809
7.544002 82.380 60.7045
7.598669 82.407 60.2299
7.653732 82.434 59.7572
7.709194 82.461 59.2864
7.765058 82.488 58.8175
7.821327 82.514 58.3505
7.878004 82.539 57.8853
7.935091 82.565 57.4220
7.992592 82.590 56.9605
8.050510 82.615 56.5009
8.108847 82.639 56.0431
8.167607 82.663 55.5871
8.226793 82.687 55.1328
8.286408 82.710 54.6804
8.346454 82.733 54.2296
8.406936 82.756 53.7805
8.467856 82.778 53.3330
8.529218 82.800 52.8872
8.591024 82.822 52.4430
8.653278 82.844 52.0004
8.715983 82.865 51.5593
8.779143 82.886 51.1197
8.842760 82.906 50.6815
8.906839 82.926 50.2449
8.971381 82.946 49.8097
9.036392 82.966 49.3760
9.101873 82.985 48.9437
9.167829 83.003 48.5130
9.234263 83.022 48.0837
9.301178 83.040 47.6559
9.368578 83.057 47.2297
9.436467 83.075 46.8051
9.504847 83.092 46.3821
9.573723 83.108 45.9608
9.643099 83.124 45.5412
9.712976 83.140 45.1234
9.783361 83.156 44.7074
9.854255 83.171 44.2932
9.925663 83.186 43.8809
9.997588 83.200 43.4704
10.070035 83.214 43.0618
10.143007 83.228 42.6550
10.216507 83.242 42.2499
10.290540 83.256 41.8466
10.365109 83.269 41.4449
10.440219 83.282 41.0447
10.515873 83.294 40.6460
10.592076 83.307 40.2485
10.668830 83.319 39.8522
10.746141 83.331 39.4570
10.824012 83.343 39.0627
10.902447 83.355 38.6691
10.981451 83.366 38.2763
11.061027 83.377 37.8840
11.141180 83.388 37.4923
11.221913 83.399 37.1011
11.303232 83.409 36.7106
11.385140 83.419 36.3206
11.467641 83.428 35.9313
11.550741 83.437 35.5429
11.634442 83.446 35.1556
11.718750 83.454 34.7695
11.803669 83.462 34.3850
11.889203 83.469 34.0022
11.975357 83.476 33.6214
12.062136 83.482 33.2429
12.149543 83.488 32.8668
12.237583 83.494 32.4935
12.326262 83.499 32.1229
12.415583 83.505 31.7553
12.505552 83.510 31.3906
12.596172 83.515 31.0287
12.687449 83.520 30.6694
12.779387 83.525 30.3127
12.871992 83.530 29.9580
12.965268 83.536 29.6052
13.059220 83.541 29.2537
13.153852 83.547 28.9031
13.249170 83.552 28.5529
13.345179 83.558 28.2029
13.441884 83.564 27.8524
13.539289 83.570 27.5012
13.637401 83.576 27.1490
13.736223 83.582 26.7959
13.835761 83.587 26.4417
13.936021 83.593 26.0865
14.037007 83.597 25.7307
14.138725 83.602 25.3746
14.241180 83.606 25.0188
14.344377 83.609 24.6638
14.448323 83.612 24.3102
14.553021 83.614 23.9587
14.658478 83.616 23.6100
14.764700 83.617 23.2645
14.871691 83.618 22.9227
14.979457 83.618 22.5851
15.088005 83.619 22.2517
15.197339 83.619 21.9225
15.307465 83.619 21.5973
15.418389 83.620 21.2756
15.530117 83.621 20.9572
15.642655 83.622 20.6411
15.756008 83.623 20.3265
15.870182 83.624 20.0129
15.985184 83.626 19.6995
16.101019 83.628 19.3855
16.217694 83.630 19.0704
16.335214 83.631 18.7542
16.453586 83.633 18.4365
16.572815 83.634 18.1177
16.692909 83.634 17.7981
16.813872 83.634 17.4785
16.935713 83.633 17.1598
17.058436 83.631 16.8428
17.182048 83.628 16.5286
17.306556 83.624 16.2182
17.431967 83.620 15.9124
17.558286 83.615 15.6118
17.685521 83.610 15.3169
17.813677 83.604 15.0276
17.942762 83.599 14.7436
18.072783 83.594 14.4644
18.203746 83.588 14.1889
18.335658 83.583 13.9163
18.468526 83.579 13.6451
18.602356 83.575 13.3744
18.737156 83.570 13.1030
18.872934 83.566 12.8302
19.009695 83.562 12.5555
19.147447 83.557 12.2788
19.286197 83.552 12.0002
19.425953 83.547 11.7203
19.566721 83.541 11.4399
19.708510 83.534 11.1597
19.851326 83.526 10.8804
19.995177 83.518 10.6025
20.140070 83.510 10.3264
20.286013 83.501 10.0519
20.433014 83.493 9.7784
20.581080 83.484 9.5052
20.730219 83.475 9.2313
20.880439 83.467 8.9558
21.031747 83.458 8.6778
21.184152 83.449 8.3969
21.337661 83.440 8.1133
21.492282 83.429 7.8275
21.648024 83.418 7.5408
21.804895 83.407 7.2546
21.962902 83.394 6.9704
22.122054 83.382 6.6896
22.282360 83.369 6.4127
22.443827 83.356 6.1397
22.606464 83.343 5.8692
22.770280 83.332 5.5990
22.935283 83.321 5.3263
23.101481 83.312 5.0477
23.268884 83.302 4.7606
23.437500 83.292 4.4633
23.607338 83.282 4.1555
23.778406 83.269 3.8396
23.950714 83.253 3.5200
24.124271 83.234 3.2032
24.299086 83.212 2.8973
24.475167 83.187 2.6108
24.652524 83.159 2.3513
24.831166 83.131 2.1244
25.011103 83.103 1.9324
25.192344 83.078 1.7732
25.374898 83.058 1.6407
25.558775 83.043 1.5251
25.743984 83.034 1.4136
25.930536 83.031 1.2932
26.118439 83.033 1.1522
26.307704 83.038 0.9819
26.498341 83.044 0.7787
26.690359 83.049 0.5437
26.883768 83.052 0.2826
27.078579 83.050 0.0048
27.274801 83.044 -0.2791
27.472446 83.033 -0.5582
27.671522 83.019 -0.8242
27.872042 83.003 -1.0722
28.074014 82.987 -1.3011
28.277450 82.971 -1.5139
28.482360 82.956 -1.7159
28.688755 82.943 -1.9139
28.896645 82.931 -2.1143
29.106042 82.919 -2.3215
29.316957 82.908 -2.5375
29.529400 82.895 -2.7615
29.743382 82.881 -2.9910
29.958915 82.865 -3.2220
30.176009 82.848 -3.4510
30.394677 82.829 -3.6752
30.614929 82.809 -3.8928
30.836778 82.789 -4.1039
31.060234 82.769 -4.3094
31.285309 82.749 -4.5106
31.512015 82.730 -4.7092
31.740364 82.711 -4.9062
31.970368 82.692 -5.1028
32.202039 82.674 -5.2997
32.435388 82.656 -5.4973
32.670428 82.638 -5.6963
32.907171 82.620 -5.8966
33.145630 82.602 -6.0978
33.385817 82.583 -6.2988
33.627745 82.565 -6.4981
33.871425 82.545 -6.6942
34.116871 82.526 -6.8857
34.364096 82.506 -7.0723
34.613113 82.487 -7.2535
34.863934 82.467 -7.4299
35.116572 82.447 -7.6008
35.371041 82.427 -7.7648
35.627354 82.407 -7.9191
35.885525 82.386 -8.0608
36.145566 82.366 -8.1881
36.407492 82.348 -8.3024
36.671316 82.333 -8.4091
36.937051 82.321 -8.5182
37.204712 82.312 -8.6420
37.474313 82.306 -8.7916
37.745867 82.299 -8.9742
38.019389 82.290 -9.1893
38.294893 82.276 -9.4293
38.572394 82.256 -9.6804
38.851905 82.231 -9.9271
39.133442 82.200 -10.1564
39.417019 82.166 -10.3605
39.702651 82.132 -10.5389
39.990353 82.099 -10.6967
40.280140 82.067 -10.8419
40.572026 82.037 -10.9824
40.866028 82.009 -11.1235
41.162160 81.982 -11.2675
41.460438 81.956 -11.4146
41.760877 81.931 -11.5651
42.063494 81.907 -11.7197
42.368303 81.884 -11.8801
42.675322 81.861 -12.0473
42.984565 81.838 -12.2206
43.296048 81.815 -12.3971
43.609789 81.791 -12.5727
43.925804 81.766 -12.7430
44.244108 81.741 -12.9054
44.564719 81.717 -13.0590
44.887654 81.693 -13.2048
45.212928 81.669 -13.3450
45.540560 81.646 -13.4810
45.870565 81.622 -13.6132
46.202962 81.599 -13.7417
46.537768 81.575 -13.8664
46.875000 81.551 -13.9872
47.214676 81.527 -14.1045
47.556813 81.502 -14.2189
47.901429 81.476 -14.3306
48.248542 81.450 -14.4401
48.598171 81.424 -14.5477
48.950334 81.397 -14.6542
49.305048 81.370 -14.7607
49.662333 81.342 -14.8688
50.022206 81.315 -14.9790
50.384688 81.287 -15.0918
50.749796 81.259 -15.2063
51.117550 81.231 -15.3216
51.487969 81.203 -15.4370
51.861072 81.175 -15.5530
52.236879 81.148 -15.6708
52.615409 81.122 -15.7916
52.996681 81.096 -15.9159
53.380717 81.070 -16.0419
53.767536 81.043 -16.1664
54.157158 81.016 -16.2855
54.549603 80.989 -16.3965
54.944892 80.962 -16.4995
55.343045 80.936 -16.5962
55.744084 80.910 -16.6892
56.148028 80.884 -16.7795
56.554900 80.857 -16.8658
56.964720 80.830 -16.9452
57.377510 80.802 -17.0157
57.793291 80.774 -17.0779
58.212085 80.746 -17.1350
58.633914 80.719 -17.1919
59.058799 80.692 -17.2525
59.486764 80.666 -17.3192
59.917829 80.638 -17.3920
60.352019 80.610 -17.4698
60.789354 80.580 -17.5504
61.229859 80.550 -17.6315
61.673556 80.519 -17.7110
62.120468 80.488 -17.7880
62.570618 80.457 -17.8635
63.024031 80.427 -17.9396
63.480729 80.396 -18.0174
63.940736 80.365 -18.0950
64.404077 80.334 -18.1683
64.870776 80.302 -18.2336
65.340856 80.270 -18.2900
65.814343 80.239 -18.3395
66.291261 80.209 -18.3846
66.771635 80.179 -18.4272
67.255489 80.149 -18.4677
67.742850 80.120 -18.5067
68.233743 80.090 -18.5451
68.728193 80.061 -18.5840
69.226226 80.031 -18.6236
69.727867 80.002 -18.6638
70.233144 79.973 -18.7053
70.742083 79.944 -18.7491
71.254709 79.916 -18.7965
71.771050 79.887 -18.8475
72.291132 79.859 -18.9019
72.814984 79.831 -18.9601
73.342631 79.803 -19.0233
73.874102 79.774 -19.0900
74.409424 79.743 -19.1547
74.948626 79.710 -19.2082
75.491734 79.677 -19.2428
76.038779 79.644 -19.2578
76.589787 79.613 -19.2607
77.144788 79.584 -19.2643
77.703811 79.556 -19.2787
78.266885 79.528 -19.3069
78.834039 79.497 -19.3447
79.405303 79.464 -19.3849
79.980706 79.428 -19.4204
80.560280 79.391 -19.4467
81.144053 79.352 -19.4611
81.732056 79.314 -19.4636
82.324320 79.276 -19.4561
82.920876 79.240 -19.4426
83.521755 79.205 -19.4272
84.126988 79.172 -19.4137
84.736607 79.140 -19.4039
85.350643 79.109 -19.3987
85.969129 79.078 -19.3979
86.592097 79.047 -19.4000
87.219579 79.015 -19.4011
87.851608 78.981 -19.3954
88.488217 78.947 -19.3777
89.129439 78.912 -19.3445
89.775308 78.878 -19.2957
90.425856 78.846 -19.2332
91.081119 78.815 -19.1625
91.741131 78.787 -19.0930
92.405925 78.760 -19.0341
93.075536 78.733 -18.9890
93.750000 78.705 -18.9531
94.429351 78.674 -18.9170
95.113625 78.641 -18.8723
95.802858 78.607 -18.8157
96.497085 78.573 -18.7491
97.196342 78.539 -18.6771
97.900667 78.507 -18.6014
98.610096 78.475 -18.5222
99.324665 78.444 -18.4385
100.044413 78.415 -18.3511
100.769376 78.388 -18.2611
101.499592 78.362 -18.1692
102.235100 78.337 -18.0740
102.975938 78.312 -17.9738
103.722144 78.288 -17.8678
104.473757 78.263 -17.7557
105.230817 78.237 -17.6373
105.993363 78.211 -17.5145
106.761435 78.184 -17.3911
107.535072 78.158 -17.2736
108.314315 78.133 -17.1685
109.099206 78.108 -17.0798
109.889783 78.084 -17.0070
110.686090 78.061 -16.9460
111.488167 78.039 -16.8915
112.296056 78.018 -16.8375
113.109800 77.998 -16.7789
113.929440 77.980 -16.7124
114.755020 77.963 -16.6376
115.586582 77.945 -16.5549
116.424170 77.927 -16.4655
117.267827 77.909 -16.3712
118.117598 77.890 -16.2761
118.973527 77.870 -16.1860
119.835658 77.849 -16.1046
120.704037 77.827 -16.0308
121.578708 77.805 -15.9598
122.459718 77.781 -15.8868
123.347111 77.758 -15.8098
124.240935 77.735 -15.7289
125.141236 77.713 -15.6454
126.048061 77.691 -15.5601
126.961458 77.669 -15.4727
127.881473 77.647 -15.3828
128.808154 77.626 -15.2920
129.741551 77.607 -15.2036
130.681712 77.590 -15.1215
131.628686 77.575 -15.0487
132.582521 77.560 -14.9862
133.543269 77.546 -14.9317
134.510979 77.532 -14.8828
135.485701 77.518 -14.8388
136.467486 77.503 -14.8018
137.456386 77.487 -14.7740
138.452451 77.469 -14.7544
139.455735 77.447 -14.7368
140.466288 77.424 -14.7122
141.484165 77.399 -14.6750
142.509418 77.373 -14.6261
143.542100 77.347 -14.5677
144.582265 77.321 -14.4987
145.629968 77.295 -14.4175
146.685262 77.269 -14.3262
147.748204 77.244 -14.2285
148.818849 77.219 -14.1272
149.897251 77.194 -14.0227
150.983469 77.168 -13.9147
152.077557 77.141 -13.8043
153.179574 77.112 -13.6920
154.289576 77.082 -13.5747
155.407622 77.050 -13.4458
156.533770 77.019 -13.2991
157.668078 76.989 -13.1330
158.810606 76.963 -12.9523
159.961413 76.941 -12.7653
161.120559 76.921 -12.5784
162.288105 76.903 -12.3937
163.464112 76.885 -12.2112
164.648640 76.869 -12.0318
165.841752 76.853 -11.8581
167.043510 76.839 -11.6923
168.253976 76.827 -11.5356
169.473213 76.816 -11.3898
170.701286 76.806 -11.2566
171.938258 76.796 -11.1373
173.184194 76.786 -11.0317
174.439158 76.774 -10.9390
175.703216 76.761 -10.8583
176.976434 76.746 -10.7864
178.258878 76.731 -10.7207
179.550615 76.717 -10.6606
180.851713 76.702 -10.6057
182.162239 76.687 -10.5532
183.482262 76.670 -10.4979
184.811850 76.653 -10.4345
186.151073 76.635 -10.3604
187.500000 76.617 -10.2744
188.858702 76.597 -10.1746
190.227250 76.576 -10.0569
191.605715 76.553 -9.9181
192.994169 76.529 -9.7593
194.392685 76.504 -9.5865
195.801334 76.479 -9.4067
197.220191 76.454 -9.2244
198.649330 76.430 -9.0414
200.088825 76.407 -8.8572
201.538751 76.384 -8.6694
202.999184 76.362 -8.4745
204.470200 76.341 -8.2695
205.951875 76.321 -8.0527
207.444287 76.304 -7.8236
208.947514 76.288 -7.5823
210.461634 76.274 -7.3317
211.986726 76.264 -7.0789
213.522869 76.257 -6.8342
215.070144 76.256 -6.6094
216.628631 76.259 -6.4135
218.198411 76.266 -6.2491
219.779567 76.275 -6.1116
221.372180 76.284 -5.9946
222.976334 76.291 -5.8946
224.592112 76.294 -5.8104
226.219600 76.294 -5.7410
227.858880 76.290 -5.6835
229.510039 76.283 -5.6335
231.173164 76.274 -5.5865
232.848340 76.262 -5.5385
234.535655 76.249 -5.4858
236.235197 76.234 -5.4252
237.947054 76.218 -5.3531
239.671317 76.201 -5.2677
241.408074 76.184 -5.1695
243.157416 76.167 -5.0619
244.919435 76.149 -4.9485
246.694223 76.131 -4.8312
248.481871 76.113 -4.7100
250.282473 76.094 -4.5837
252.096123 76.076 -4.4515
253.922915 76.057 -4.3134
255.762945 76.039 -4.1699
257.616309 76.022 -4.0219
259.483103 76.005 -3.8700
261.363424 75.989 -3.7147
263.257372 75.972 -3.5563
265.165043 75.955 -3.3942
267.086538 75.938 -3.2280
269.021957 75.921 -3.0585
270.971401 75.905 -2.8870
272.934972 75.888 -2.7154
274.912771 75.872 -2.5446
276.904902 75.855 -2.3742
278.911469 75.839 -2.2032
280.932577 75.824 -2.0307
282.968330 75.809 -1.8558
285.018835 75.794 -1.6783
287.084199 75.779 -1.4995
289.164530 75.765 -1.3202
291.259935 75.751 -1.1412
293.370525 75.737 -0.9624
295.496408 75.724 -0.7825
297.637697 75.710 -0.6002
299.794503 75.698 -0.4146
301.966937 75.686 -0.2253
304.155114 75.674 -0.0336
306.359147 75.663 0.1600
308.579152 75.651 0.3552
310.815244 75.639 0.5516
313.067539 75.628 0.7488
315.336156 75.616 0.9468
317.621211 75.605 1.1459
319.922826 75.594 1.3465
322.241118 75.583 1.5486
324.576210 75.572 1.7516
326.928223 75.561 1.9551
329.297280 75.551 2.1586
331.683504 75.540 2.3622
334.087019 75.530 2.5660
336.507952 75.519 2.7706
338.946427 75.509 2.9771
341.402572 75.500 3.1851
343.876516 75.490 3.3947
346.368387 75.481 3.6054
348.878315 75.472 3.8182
351.406431 75.464 4.0341
353.952867 75.455 4.2534
356.517756 75.446 4.4753
359.101230 75.438 4.6984
361.703426 75.430 4.9214
364.324478 75.422 5.1438
366.964523 75.414 5.3655
369.623699 75.407 5.5866
372.302145 75.399 5.8073
375.000000 75.392 6.0280
377.717405 75.385 6.2495
380.454501 75.378 6.4725
383.211431 75.371 6.6981
385.988339 75.364 6.9263
388.785369 75.357 7.1572
391.602668 75.351 7.3903
394.440383 75.344 7.6254
397.298660 75.338 7.8618
400.177650 75.332 8.0990
403.077502 75.326 8.3359
405.998368 75.321 8.5726
408.940400 75.315 8.8091
411.903750 75.310 9.0461
414.888575 75.305 9.2843
417.895028 75.300 9.5247
420.923268 75.296 9.7687
423.973452 75.291 10.0164
427.045738 75.287 10.2668
430.140287 75.282 10.5188
433.257261 75.277 10.7711
436.396822 75.273 11.0234
439.559133 75.268 11.2759
442.744360 75.264 11.5292
445.952668 75.259 11.7838
449.184225 75.255 12.0402
452.439199 75.252 12.2988
455.717760 75.248 12.5592
459.020079 75.245 12.8212
462.346327 75.242 13.0844
465.696680 75.239 13.3491
469.071310 75.237 13.6161
472.470394 75.234 13.8859
475.894109 75.231 14.1576
479.342634 75.229 14.4304
482.816148 75.226 14.7036
486.314833 75.224 14.9774
489.838871 75.223 15.2523
493.388445 75.221 15.5292
496.963741 75.220 15.8083
500.564945 75.219 16.0901
504.192245 75.219 16.3744
507.845830 75.218 16.6611
511.525890 75.218 16.9495
515.232618 75.218 17.2391
518.966206 75.217 17.5294
522.726849 75.217 17.8207
526.514743 75.217 18.1138
530.330086 75.218 18.4095
534.173076 75.218 18.7084
538.043915 75.219 19.0105
541.942803 75.220 19.3157
545.869944 75.222 19.6238
549.825542 75.224 19.9348
553.809805 75.226 20.2486
557.822939 75.228 20.5647
561.865154 75.230 20.8827
565.936660 75.233 21.2020
570.037671 75.235 21.5226
574.168399 75.238 21.8448
578.329060 75.242 22.1692
582.519870 75.245 22.4967
586.741049 75.249 22.8281
590.992817 75.253 23.1640
595.275394 75.257 23.5042
599.589005 75.262 23.8484
603.933874 75.267 24.1963
608.310228 75.272 24.5474
612.718295 75.279 24.9014
617.158304 75.285 25.2581
621.630488 75.292 25.6180
626.135079 75.300 25.9813
630.672311 75.308 26.3477
635.242423 75.317 26.7169
639.845651 75.327 27.0886
644.482237 75.337 27.4620
649.152421 75.348 27.8368
653.856447 75.359 28.2127
658.594560 75.371 28.5901
663.367008 75.384 28.9694
668.174039 75.397 29.3503
673.015903 75.411 29.7321
677.892854 75.425 30.1143
682.805145 75.440 30.4968
687.753032 75.455 30.8797
692.736774 75.471 31.2637
697.756631 75.486 31.6497
702.812863 75.502 32.0382
707.905735 75.519 32.4296
713.035511 75.536 32.8241
718.202461 75.553 33.2226
723.406852 75.570 33.6260
728.648956 75.588 34.0347
733.929047 75.606 34.4482
739.247399 75.625 34.8656
744.604290 75.644 35.2860
750.000000 75.665 35.7094
755.434809 75.686 36.1360
760.909001 75.708 36.5663
766.422861 75.731 37.0005
771.976677 75.756 37.4381
777.570739 75.781 37.8789
783.205337 75.807 38.3227
788.880766 75.835 38.7696
794.597321 75.863 39.2196
800.355301 75.892 39.6728
806.155005 75.923 40.1288
811.996736 75.954 40.5875
817.880799 75.987 41.0483
823.807501 76.020 41.5110
829.777150 76.055 41.9750
835.790057 76.092 42.4396
841.846536 76.129 42.9044
847.946903 76.168 43.3690
854.091476 76.208 43.8342
860.280575 76.250 44.3004
866.514523 76.292 44.7673
872.793644 76.337 45.2346
879.118267 76.382 45.7016
885.488720 76.429 46.1679
891.905336 76.477 46.6330
898.368450 76.526 47.0963
904.878398 76.577 47.5569
911.435520 76.629 48.0148
918.040157 76.683 48.4699
924.692655 76.738 48.9223
931.393359 76.794 49.3718
938.142619 76.852 49.8177
944.940787 76.911 50.2592
951.788218 76.972 50.6955
958.685268 77.033 51.1261
965.632296 77.096 51.5508
972.629666 77.160 51.9695
979.677741 77.225 52.3826
986.776890 77.291 52.7899
993.927482 77.358 53.1913
1001.129891 77.427 53.5862
1008.384491 77.496 53.9744
1015.691660 77.567 54.3552
1023.051781 77.638 54.7285
1030.465236 77.711 55.0938
1037.932411 77.783 55.4511
1045.453698 77.857 55.8007
1053.029486 77.931 56.1429
1060.660172 78.005 56.4785
1068.346153 78.081 56.8081
1076.087829 78.157 57.1311
1083.885605 78.234 57.4466
1091.739887 78.312 57.7527
1099.651084 78.390 58.0485
1107.619609 78.469 58.3342
1115.645878 78.548 58.6110
1123.730308 78.627 58.8813
1131.873321 78.706 59.1470
1140.075341 78.784 59.4100
1148.336797 78.861 59.6708
1156.658119 78.938 59.9286
1165.039741 79.013 60.1819
1173.482099 79.089 60.4295
1181.985634 79.163 60.6713
1190.550789 79.238 60.9083
1199.178011 79.312 61.1420
1207.867749 79.386 61.3734
1216.620457 79.460 61.6031
1225.436590 79.534 61.8315
1234.316609 79.607 62.0586
1243.260976 79.680 62.2845
1252.270157 79.753 62.5096
1261.344623 79.826 62.7345
1270.484846 79.899 62.9597
1279.691303 79.972 63.1855
1288.964474 80.045 63.4122
1298.304842 80.117 63.6403
1307.712894 80.190 63.8701
1317.189120 80.263 64.1019
1326.734016 80.335 64.3359
1336.348077 80.408 64.5724
1346.031806 80.481 64.8112
1355.785708 80.554 65.0527
1365.610290 80.628 65.2974
1375.506065 80.702 65.5456
1385.473549 80.777 65.7978
1395.513261 80.852 66.0541
1405.625726 80.929 66.3146
1415.811469 81.006 66.5791
1426.071023 81.084 66.8474
1436.404921 81.164 67.1193
1446.813703 81.244 67.3942
1457.297912 81.327 67.6711
1467.858093 81.410 67.9486
1478.494798 81.495 68.2253
1489.208581 81.582 68.4999
1500.000000 81.670 68.7720
1510.869618 81.758 69.0417
1521.818002 81.848 69.3098
1532.845723 81.939 69.5771
1543.953355 82.030 69.8447
1555.141477 82.122 70.1131
1566.410674 82.215 70.3829
1577.761531 82.310 70.6544
1589.194642 82.405 70.9279
1600.710601 82.502 71.2034
1612.310010 82.601 71.4812
1623.993473 82.700 71.7611
1635.761599 82.802 72.0431
1647.615002 82.905 72.3268
1659.554299 83.010 72.6119
1671.580114 83.117 72.8981
1683.693072 83.226 73.1854
1695.893807 83.337 73.4740
1708.182952 83.449 73.7642
1720.561150 83.564 74.0563
1733.029045 83.681 74.3505
1745.587288 83.800 74.6469
1758.236533 83.922 74.9463
1770.977440 84.046 75.2494
1783.810673 84.172 75.5571
1796.736900 84.301 75.8708
1809.756796 84.433 76.1920
1822.871040 84.569 76.5223
1836.080315 84.708 76.8636
1849.385310 84.852 77.2175
1862.786718 85.002 77.5851
1876.285239 85.159 77.9669
1889.881575 85.323 78.3621
1903.576436 85.497 78.7675
1917.370535 85.682 79.1766
1931.264593 85.879 79.5794
1945.259332 86.089 79.9617
1959.355483 86.313 80.3060
1973.553781 86.551 80.5930
1987.854965 86.800 80.8040
2002.259781 87.059 80.9232
2016.768981 87.325 80.9406
2031.383320 87.595 80.8526
2046.103561 87.867 80.6624
2060.930471 88.138 80.3781
2075.864823 88.407 80.0104
2090.907395 88.673 79.5705
2106.058972 88.938 79.0683
2121.320344 89.202 78.5109
2136.692305 89.464 77.9022
2152.175658 89.728 77.2429
2167.771210 89.992 76.5307
2183.479774 90.259 75.7611
2199.302169 90.528 74.9280
2215.239219 90.800 74.0239
2231.291755 91.074 73.0405
2247.460615 91.350 71.9690
2263.746641 91.628 70.8005
2280.150683 91.905 69.5259
2296.673595 92.182 68.1369
2313.316238 92.457 66.6255
2330.079481 92.726 64.9847
2346.964198 92.990 63.2092
2363.971268 93.245 61.2953
2381.101578 93.488 59.2417
2398.356022 93.716 57.0496
2415.735498 93.927 54.7229
2433.240913 94.118 52.2689
2450.873180 94.286 49.6982
2468.633217 94.429 47.0246
2486.521951 94.543 44.2653
2504.540314 94.627 41.4399
2522.689246 94.679 38.5707
2540.969692 94.699 35.6813
2559.382606 94.687 32.7965
2577.928947 94.642 29.9410
2596.609683 94.565 27.1387
2615.425787 94.458 24.4117
2634.378241 94.323 21.7800
2653.468031 94.163 19.2606
2672.696154 93.979 16.8676
2692.063613 93.774 14.6118
2711.571415 93.552 12.5016
2731.220579 93.315 10.5420
2751.012130 93.066 8.7358
2770.947098 92.808 7.0832
2791.026522 92.542 5.5820
2811.251451 92.272 4.2284
2831.622938 92.000 3.0166
2852.142045 91.726 1.9396
2872.809842 91.454 0.9894
2893.627406 91.183 0.1583
2914.595823 90.915 -0.5609
2935.716186 90.650 -1.1751
2956.989596 90.389 -1.6907
2978.417161 90.132 -2.1135
3000.000000 89.880 -2.4487
3021.739237 89.633 -2.7007
3043.636005 89.390 -2.8727
3065.691446 89.153 -2.9675
3087.906710 88.921 -2.9874
3110.282955 88.695 -2.9347
3132.821347 88.475 -2.8118
3155.523062 88.261 -2.6215
3178.389283 88.056 -2.3676
3201.421202 87.857 -2.0547
3224.620020 87.667 -1.6882
3247.986946 87.486 -1.2745
3271.523198 87.313 -0.8195
3295.230004 87.148 -0.3289
3319.108599 86.991 0.1927
3343.160228 86.842 0.7419
3367.386145 86.700 1.3164
3391.787613 86.565 1.9148
3416.365904 86.437 2.5363
3441.122300 86.316 3.1801
3466.058091 86.201 3.8453
3491.174576 86.093 4.5311
3516.473066 85.991 5.2361
3541.954880 85.897 5.9585
3567.621345 85.809 6.6962
3593.473800 85.727 7.4463
3619.513592 85.653 8.2062
3645.742080 85.584 8.9737
3672.160630 85.522 9.7470
3698.770620 85.466 10.5253
3725.573436 85.415 11.3082
3752.570477 85.369 12.0964
3779.763150 85.329 12.8905
3807.152872 85.293 13.6915
3834.741071 85.263 14.5002
3862.529185 85.237 15.3171
3890.518664 85.217 16.1428
3918.710966 85.202 16.9772
3947.107561 85.192 17.8199
3975.709929 85.188 18.6707
4004.519563 85.190 19.5287
4033.537962 85.198 20.3936
4062.766641 85.212 21.2648
4092.207123 85.232 22.1415
4121.860942 85.258 23.0231
4151.729646 85.291 23.9086
4181.814790 85.331 24.7975
4212.117944 85.378 25.6888
4242.640687 85.431 26.5819
4273.384610 85.493 27.4756
4304.351317 85.561 28.3691
4335.542421 85.638 29.2613
4366.959549 85.723 30.1513
4398.604338 85.816 31.0378
4430.478438 85.919 31.9192
4462.583511 86.032 32.7928
4494.921231 86.155 33.6553
4527.493283 86.289 34.5023
4560.301365 86.434 35.3287
4593.347189 86.592 36.1288
4626.632476 86.761 36.8960
4660.158962 86.943 37.6234
4693.928395 87.138 38.3033
4727.942535 87.346 38.9277
4762.203156 87.566 39.4884
4796.712043 87.799 39.9771
4831.470996 88.044 40.3854
4866.481826 88.301 40.7049
4901.746360 88.570 40.9272
4937.266434 88.850 41.0440
4973.043902 89.140 41.0468
5009.080628 89.440 40.9265
5045.378492 89.751 40.6734
5081.939384 90.070 40.2763
5118.765212 90.398 39.7220
5155.857894 90.734 38.9950
5193.219366 91.076 38.0769
5230.851574 91.422 36.9473
5268.756481 91.768 35.5847
5306.936062 92.110 33.9692
5345.392309 92.442 32.0848
5384.127225 92.757 29.9224
5423.142830 93.047 27.4822
5462.441159 93.305 24.7764
5502.024259 93.521 21.8298
5541.894195 93.690 18.6802
5582.053045 93.803 15.3766
5622.502902 93.858 11.9773
5663.245876 93.852 8.5464
5704.284090 93.784 5.1499
5745.619684 93.657 1.8522
5787.254813 93.474 -1.2881
5829.191647 93.242 -4.2206
5871.432373 92.967 -6.9053
5913.979192 92.657 -9.3132
5956.834323 92.320 -11.4267
6000.000000 91.963 -13.2377
6043.478473 91.593 -14.7468
6087.272010 91.217 -15.9620
6131.382892 90.841 -16.8963
6175.813420 90.470 -17.5663
6220.565910 90.107 -17.9908
6265.642695 89.757 -18.1897
6311.046124 89.421 -18.1829
6356.778566 89.103 -17.9904
6402.842404 88.804 -17.6313
6449.240040 88.525 -17.1241
6495.973891 88.268 -16.4863
6543.046396 88.034 -15.7344
6590.460007 87.823 -14.8837
6638.217197 87.635 -13.9489
6686.320456 87.472 -12.9431
6734.772290 87.333 -11.8792
6783.575226 87.220 -10.7690
6832.731809 87.132 -9.6244
6882.244600 87.072 -8.4570
6932.116181 87.039 -7.2795
6982.349153 87.035 -6.1060
7032.946133 87.062 -4.9523
7083.909760 87.120 -3.8369
7135.242690 87.211 -2.7815
7186.947600 87.336 -1.8109
7239.027185 87.495 -0.9543
7291.484160 87.691 -0.2450
7344.321260 87.922 0.2791
7397.541239 88.189 0.5743
7451.146872 88.490 0.5923
7505.140954 88.822 0.2791
7559.526299 89.180 -0.4224
7614.305743 89.555 -1.5688
7669.482141 89.936 -3.2117
7725.058371 90.310 -5.3910
7781.037328 90.660 -8.1287
7837.421932 90.966 -11.4216
7894.215122 91.209 -15.2349
7951.419859 91.369 -19.4993
8009.039125 91.430 -24.1107
8067.075924 91.379 -28.9352
8125.533282 91.208 -33.8179
8184.414245 90.918 -38.5975
8243.721885 90.514 -43.1214
8303.459292 90.009 -47.2589
8363.629581 89.417 -50.9099
8424.235888 88.757 -54.0096
8485.281374 88.050 -56.5287
8546.769221 87.312 -58.4694
8608.702634 86.562 -59.8586
8671.084842 85.814 -60.7400
8733.919097 85.077 -61.1658
8797.208675 84.361 -61.1908
8860.956876 83.670 -60.8684
8925.167022 83.008 -60.2488
8989.842461 82.376 -59.3778
9054.986566 81.774 -58.2955
9120.602731 81.201 -57.0342
9186.694378 80.656 -55.6172
9253.264952 80.135 -54.0602
9320.317925 79.639 -52.3727
9387.856790 79.165 -50.5616
9455.885071 78.714 -48.6340
9524.406312 78.285 -46.5978
9593.424086 77.878 -44.4620
9662.941992 77.492 -42.2357
9732.963653 77.127 -39.9272
9803.492719 76.783 -37.5439
9874.532869 76.461 -35.0927
9946.087805 76.159 -32.5793
10018.161257 75.879 -30.0092
10090.756983 75.620 -27.3864
10163.878768 75.382 -24.7155
10237.530423 75.166 -21.9999
10311.715789 74.971 -19.2429
10386.438732 74.797 -16.4468
10461.703149 74.644 -13.6134
10537.512962 74.514 -10.7448
10613.872125 74.405 -7.8430
10690.784618 74.320 -4.9115
10768.254450 74.258 -1.9542
10846.285661 74.220 1.0236
10924.882318 74.208 4.0160
11004.048518 74.222 7.0158
11083.788390 74.264 10.0149
11164.106090 74.334 13.0038
11245.005805 74.434 15.9718
11326.491752 74.564 18.9075
11408.568180 74.726 21.7986
11491.239368 74.921 24.6321
11574.509626 75.150 27.3933
11658.383294 75.417 30.0651
11742.864745 75.723 32.6259
11827.958384 76.071 35.0473
11913.668646 76.463 37.2926
12000.000000 76.901 39.3143
12086.956947 77.386 41.0529
12174.544019 77.915 42.4372
12262.765784 78.484 43.3867
12351.626840 79.084 43.8186
12441.131819 79.700 43.6554
12531.285389 80.314 42.8361
12622.092249 80.907 41.3245
12713.557132 81.455 39.1174
12805.684808 81.933 36.2505
12898.480079 82.320 32.8031
12991.947783 82.595 28.8992
13086.092792 82.742 24.7041
13180.920015 82.753 20.4135
13276.434395 82.629 16.2341
13372.640911 82.379 12.3625
13469.544580 82.022 8.9648
13567.150452 81.579 6.1644
13665.463617 81.077 4.0375
13764.489200 80.542 2.6149
13864.232362 80.001 1.8884
13964.698305 79.476 1.8170
14065.892266 78.990 2.3335
14167.819519 78.561 3.3517
14270.485380 78.202 4.7726
14373.895200 77.929 6.4869
14478.054370 77.751 8.3751
14582.968320 77.678 10.3049
14688.642520 77.719 12.1278
14795.082478 77.874 13.6779
14902.293745 78.143 14.7729
15010.281908 78.512 15.2234
15119.052599 78.961 14.8484
15228.611486 79.456 13.4960
15338.964283 79.956 11.0652
15450.116741 80.413 7.5248
15562.074656 80.776 2.9305
15674.843864 80.997 -2.5623
15788.430244 81.034 -8.6975
15902.839718 80.860 -15.1353
16018.078250 80.464 -21.4929
16134.151848 79.856 -27.4012
16251.066563 79.059 -32.5515
16368.828491 78.108 -36.7224
16487.443769 77.043 -39.7848
16606.918584 75.906 -41.6954
16727.259161 74.736 -42.4828
16848.471777 73.569 -42.2282
16970.562748 72.435 -41.0433
17093.538442 71.358 -39.0503
17217.405268 70.356 -36.3693
17342.169684 69.442 -33.1140
17467.838194 68.625 -29.3929
17594.417350 67.908 -25.3101
17721.913751 67.293 -20.9662
17850.334044 66.781 -16.4573
17979.684923 66.369 -11.8737
18109.973131 66.054 -7.3015
18241.205462 65.832 -2.8286
18373.388756 65.700 1.4485
18506.529905 65.654 5.4200
18640.635849 65.685 8.9622
18775.713581 65.781 11.9438
18911.770141 65.927 14.2385
19048.812624 66.099 15.7405
19186.848172 66.271 16.3856
19325.883983 66.415 16.1740
19465.927305 66.509 15.1920
19606.985439 66.541 13.6356
19749.065738 66.518 11.8250
19892.175609 66.469 10.1949
20036.322514 66.431 9.2153
