* Measurement data measured by REW V5.31.3
* Source: Headset (2- CX31993 HIFI AUDIO), MICROPHONE (Master Volume), R, volume: 0.500
* Format: 256k Log Swept Sine, 1 sweep at -11.9 dBFS with no timing reference
* Dated: 09 2, 25 3:33:57 PM
* REW Settings:
*  C-weighting compensation: Off
*  Target level: 75.0 dB
* Note: ; 
* Measurement: MD Blessing2 LDF big L
* Smoothing: 1/12 octave
* Frequency Step: 96 ppo
* Start Frequency: 0.36621094 Hz
*
* Freq(Hz) SPL(dB) Phase(degrees)
0.366211 37.002 -79.8098
0.368865 37.007 -79.8813
0.371538 37.014 -79.9884
0.374230 37.023 -80.1233
0.376942 37.033 -80.2789
0.379673 37.043 -80.4502
0.382424 37.054 -80.6340
0.385196 37.066 -80.8282
0.387987 37.077 -81.0317
0.390798 37.089 -81.2438
0.393630 37.101 -81.4643
0.396483 37.113 -81.6930
0.399356 37.125 -81.9300
0.402250 37.137 -82.1751
0.405165 37.149 -82.4286
0.408101 37.161 -82.6904
0.411058 37.174 -82.9606
0.414037 37.186 -83.2392
0.417037 37.199 -83.5263
0.420059 37.211 -83.8220
0.423103 37.224 -84.1263
0.426169 37.237 -84.4393
0.429257 37.250 -84.7610
0.432368 37.263 -85.0914
0.435501 37.276 -85.4307
0.438656 37.289 -85.7787
0.441835 37.302 -86.1355
0.445037 37.316 -86.5012
0.448262 37.329 -86.8757
0.451510 37.343 -87.2591
0.454782 37.357 -87.6513
0.458077 37.370 -88.0523
0.461397 37.384 -88.4621
0.464740 37.398 -88.8806
0.468108 37.412 -89.3078
0.471500 37.426 -89.7437
0.474917 37.441 -90.1881
0.478358 37.455 -90.6410
0.481825 37.470 -91.1023
0.485316 37.484 -91.5718
0.488833 37.499 -92.0495
0.492375 37.514 -92.5352
0.495943 37.529 -93.0287
0.499537 37.544 -93.5299
0.503157 37.559 -94.0386
0.506803 37.574 -94.5545
0.510475 37.589 -95.0776
0.514175 37.605 -95.6074
0.517900 37.620 -96.1438
0.521653 37.636 -96.6866
0.525434 37.652 -97.2353
0.529241 37.668 -97.7897
0.533076 37.684 -98.3495
0.536939 37.700 -98.9144
0.540830 37.716 -99.4838
0.544749 37.733 -100.0576
0.548696 37.749 -100.6353
0.552673 37.766 -101.2164
0.556677 37.783 -101.8006
0.560711 37.799 -102.3874
0.564774 37.816 -102.9762
0.568867 37.834 -103.5668
0.572989 37.851 -104.1584
0.577141 37.868 -104.7507
0.581324 37.886 -105.3431
0.585536 37.903 -105.9350
0.589779 37.921 -106.5260
0.594053 37.939 -107.1154
0.598358 37.957 -107.7027
0.602694 37.975 -108.2872
0.607061 37.993 -108.8685
0.611460 38.012 -109.4458
0.615891 38.030 -110.0186
0.620354 38.049 -110.5863
0.624849 38.068 -111.1482
0.629377 38.087 -111.7038
0.633938 38.106 -112.2523
0.638532 38.125 -112.7931
0.643159 38.144 -113.3256
0.647819 38.164 -113.8492
0.652514 38.183 -114.3631
0.657242 38.203 -114.8668
0.662005 38.223 -115.3595
0.666802 38.243 -115.8407
0.671634 38.263 -116.3097
0.676501 38.284 -116.7658
0.681403 38.304 -117.2084
0.686341 38.324 -117.6369
0.691314 38.345 -118.0511
0.696324 38.365 -118.4505
0.701370 38.385 -118.8356
0.706452 38.405 -119.2071
0.711571 38.423 -119.5672
0.716728 38.438 -119.9197
0.721921 38.450 -120.2706
0.727153 38.455 -120.6280
0.732422 38.453 -121.0016
0.737729 38.441 -121.3993
0.743075 38.420 -121.8244
0.748460 38.390 -122.2767
0.753883 38.353 -122.7544
0.759346 38.310 -123.2554
0.764849 38.260 -123.7781
0.770391 38.206 -124.3211
0.775974 38.146 -124.8836
0.781597 38.082 -125.4651
0.787261 38.013 -126.0650
0.792966 37.940 -126.6830
0.798712 37.863 -127.3188
0.804500 37.782 -127.9722
0.810329 37.697 -128.6428
0.816201 37.608 -129.3304
0.822116 37.515 -130.0345
0.828073 37.419 -130.7548
0.834074 37.319 -131.4910
0.840118 37.216 -132.2426
0.846206 37.110 -133.0092
0.852338 37.001 -133.7902
0.858514 36.890 -134.5852
0.864735 36.776 -135.3935
0.871001 36.659 -136.2146
0.877313 36.541 -137.0480
0.883670 36.421 -137.8928
0.890074 36.299 -138.7485
0.896524 36.176 -139.6143
0.903020 36.051 -140.4895
0.909564 35.926 -141.3733
0.916155 35.801 -142.2650
0.922794 35.675 -143.1636
0.929481 35.549 -144.0684
0.936216 35.423 -144.9786
0.943000 35.299 -145.8932
0.949834 35.175 -146.8115
0.956717 35.053 -147.7324
0.963649 34.933 -148.6552
0.970632 34.815 -149.5788
0.977666 34.700 -150.5025
0.984750 34.588 -151.4254
0.991886 34.480 -152.3466
0.999074 34.375 -153.2651
1.006314 34.276 -154.1801
1.013606 34.181 -155.0909
1.020951 34.092 -155.9965
1.028349 34.010 -156.8963
1.035801 33.934 -157.7895
1.043307 33.866 -158.6757
1.050867 33.805 -159.5549
1.058482 33.754 -160.4274
1.066152 33.711 -161.2949
1.073878 33.678 -162.1610
1.081660 33.655 -163.0321
1.089498 33.642 -163.9192
1.097393 33.639 -164.8390
1.105345 33.645 -165.8142
1.113355 33.660 -166.8726
1.121423 33.684 -168.0450
1.129549 33.716 -169.3645
1.137734 33.755 -170.8684
1.145979 33.802 -172.6004
1.154283 33.856 -174.6149
1.162647 33.918 -176.9821
1.171072 33.987 -179.7949
1.179558 34.063 176.8209
1.188106 34.146 172.6938
1.196715 34.237 167.5919
1.205387 34.335 161.2101
1.214122 34.440 153.1819
1.222920 34.551 143.1638
1.231782 34.670 131.0658
1.240708 34.796 117.4033
1.249699 34.929 103.4049
1.258754 35.068 90.4717
1.267876 35.214 79.4436
1.277063 35.367 70.4459
1.286318 35.526 63.2046
1.295639 35.692 57.3450
1.305027 35.864 52.5320
1.314484 36.042 48.5028
1.324009 36.227 45.0622
1.333604 36.417 42.0667
1.343268 36.613 39.4109
1.353002 36.815 37.0167
1.362806 37.022 34.8256
1.372681 37.235 32.7931
1.382628 37.453 30.8849
1.392647 37.675 29.0746
1.402739 37.903 27.3418
1.412904 38.136 25.6708
1.423142 38.374 24.0504
1.433455 38.618 22.4731
1.443843 38.868 20.9362
1.454305 39.125 19.4404
1.464844 39.391 17.9906
1.475459 39.667 16.5938
1.486150 39.954 15.2561
1.496920 40.254 13.9812
1.507767 40.567 12.7688
1.518693 40.893 11.6161
1.529698 41.231 10.5183
1.540783 41.581 9.4698
1.551948 41.943 8.4647
1.563194 42.315 7.4967
1.574521 42.698 6.5605
1.585931 43.089 5.6507
1.597423 43.488 4.7625
1.608999 43.895 3.8912
1.620658 44.307 3.0331
1.632402 44.725 2.1843
1.644232 45.147 1.3416
1.656146 45.571 0.5017
1.668147 45.997 -0.3381
1.680235 46.424 -1.1805
1.692411 46.850 -2.0278
1.704675 47.275 -2.8821
1.717028 47.695 -3.7455
1.729470 48.112 -4.6195
1.742003 48.522 -5.5059
1.754626 48.925 -6.4058
1.767341 49.320 -7.3199
1.780147 49.705 -8.2486
1.793047 50.080 -9.1910
1.806040 50.444 -10.1454
1.819128 50.797 -11.1085
1.832310 51.139 -12.0755
1.845587 51.472 -13.0409
1.858961 51.795 -13.9995
1.872432 52.111 -14.9473
1.886001 52.419 -15.8818
1.899667 52.720 -16.8025
1.913433 53.015 -17.7092
1.927299 53.304 -18.6029
1.941265 53.588 -19.4849
1.955332 53.866 -20.3568
1.969501 54.140 -21.2203
1.983773 54.409 -22.0773
1.998148 54.674 -22.9293
2.012627 54.935 -23.7783
2.027212 55.194 -24.6260
2.041902 55.450 -25.4742
2.056698 55.703 -26.3246
2.071602 55.956 -27.1787
2.086614 56.207 -28.0381
2.101734 56.457 -28.9044
2.116964 56.707 -29.7786
2.132304 56.958 -30.6619
2.147756 57.209 -31.5544
2.163320 57.460 -32.4563
2.178996 57.713 -33.3663
2.194786 57.965 -34.2825
2.210690 58.217 -35.2018
2.226710 58.468 -36.1213
2.242845 58.718 -37.0382
2.259098 58.965 -37.9509
2.275468 59.210 -38.8583
2.291957 59.453 -39.7601
2.308566 59.694 -40.6567
2.325295 59.933 -41.5485
2.342145 60.170 -42.4364
2.359117 60.405 -43.3214
2.376212 60.638 -44.2045
2.393431 60.870 -45.0868
2.410775 61.101 -45.9696
2.428244 61.331 -46.8541
2.445840 61.560 -47.7414
2.463564 61.788 -48.6327
2.481416 62.015 -49.5289
2.499397 62.242 -50.4310
2.517509 62.469 -51.3394
2.535752 62.695 -52.2540
2.554127 62.921 -53.1741
2.572635 63.146 -54.0986
2.591277 63.370 -55.0255
2.610055 63.593 -55.9532
2.628968 63.815 -56.8802
2.648019 64.035 -57.8058
2.667208 64.254 -58.7293
2.686535 64.471 -59.6507
2.706003 64.687 -60.5701
2.725612 64.902 -61.4878
2.745363 65.116 -62.4045
2.765257 65.328 -63.3207
2.785295 65.540 -64.2371
2.805478 65.751 -65.1546
2.825808 65.961 -66.0740
2.846285 66.171 -66.9960
2.866910 66.380 -67.9211
2.887685 66.589 -68.8501
2.908611 66.797 -69.7828
2.929688 67.004 -70.7191
2.950917 67.211 -71.6581
2.972301 67.416 -72.5989
2.993839 67.621 -73.5405
3.015534 67.824 -74.4822
3.037386 68.026 -75.4234
3.059396 68.227 -76.3639
3.081565 68.427 -77.3036
3.103896 68.626 -78.2426
3.126388 68.825 -79.1811
3.149043 69.022 -80.1196
3.171862 69.219 -81.0585
3.194847 69.414 -81.9984
3.217998 69.610 -82.9398
3.241317 69.804 -83.8832
3.264805 69.998 -84.8291
3.288463 70.192 -85.7775
3.312293 70.384 -86.7285
3.336295 70.576 -87.6815
3.360471 70.767 -88.6361
3.384822 70.956 -89.5917
3.409350 71.145 -90.5477
3.434056 71.333 -91.5037
3.458940 71.520 -92.4595
3.484005 71.706 -93.4150
3.509252 71.891 -94.3701
3.534681 72.075 -95.3251
3.560295 72.259 -96.2803
3.586094 72.442 -97.2360
3.612081 72.624 -98.1924
3.638255 72.805 -99.1503
3.664620 72.986 -100.1097
3.691175 73.166 -101.0709
3.717923 73.345 -102.0338
3.744864 73.523 -102.9979
3.772001 73.700 -103.9629
3.799335 73.876 -104.9283
3.826866 74.052 -105.8937
3.854597 74.226 -106.8589
3.882529 74.399 -107.8236
3.910664 74.572 -108.7878
3.939002 74.744 -109.7517
3.967546 74.915 -110.7155
3.996296 75.085 -111.6796
4.025255 75.255 -112.6445
4.054423 75.424 -113.6105
4.083804 75.592 -114.5777
4.113396 75.759 -115.5461
4.143204 75.924 -116.5153
4.173227 76.089 -117.4849
4.203468 76.253 -118.4542
4.233928 76.416 -119.4231
4.264609 76.579 -120.3910
4.295512 76.740 -121.3578
4.326639 76.900 -122.3238
4.357992 77.060 -123.2891
4.389572 77.219 -124.2540
4.421380 77.377 -125.2192
4.453419 77.534 -126.1851
4.485691 77.690 -127.1514
4.518196 77.845 -128.1181
4.550936 77.999 -129.0846
4.583914 78.152 -130.0504
4.617131 78.304 -131.0148
4.650589 78.455 -131.9776
4.684289 78.605 -132.9386
4.718233 78.754 -133.8978
4.752424 78.903 -134.8557
4.786862 79.050 -135.8126
4.821549 79.197 -136.7690
4.856488 79.342 -137.7252
4.891680 79.487 -138.6807
4.927127 79.631 -139.6351
4.962831 79.773 -140.5880
4.998794 79.915 -141.5387
5.035017 80.055 -142.4868
5.071503 80.195 -143.4321
5.108253 80.334 -144.3749
5.145270 80.472 -145.3154
5.182555 80.610 -146.2542
5.220110 80.746 -147.1913
5.257937 80.881 -148.1270
5.296038 81.015 -149.0606
5.334415 81.149 -149.9918
5.373071 81.281 -150.9200
5.412006 81.413 -151.8450
5.451224 81.544 -152.7665
5.490725 81.674 -153.6847
5.530514 81.804 -154.5999
5.570590 81.932 -155.5124
5.610957 82.060 -156.4224
5.651616 82.187 -157.3298
5.692570 82.313 -158.2344
5.733821 82.439 -159.1357
5.775370 82.564 -160.0336
5.817221 82.688 -160.9279
5.859375 82.811 -161.8187
5.901834 82.934 -162.7062
5.944602 83.057 -163.5907
5.987679 83.178 -164.4724
6.031068 83.299 -165.3513
6.074771 83.420 -166.2274
6.118792 83.540 -167.1005
6.163131 83.660 -167.9706
6.207792 83.779 -168.8379
6.252776 83.897 -169.7023
6.298086 84.015 -170.5642
6.343725 84.133 -171.4239
6.389694 84.250 -172.2814
6.435996 84.367 -173.1368
6.482634 84.483 -173.9904
6.529610 84.599 -174.8420
6.576926 84.715 -175.6920
6.624585 84.830 -176.5405
6.672590 84.944 -177.3878
6.720942 85.059 -178.2339
6.769645 85.172 -179.0791
6.818700 85.286 -179.9235
6.868111 85.398 179.2328
6.917881 85.511 178.3897
6.968010 85.623 177.5469
7.018504 85.734 176.7043
7.069362 85.845 175.8616
7.120590 85.955 175.0190
7.172189 86.065 174.1763
7.224161 86.173 173.3337
7.276511 86.282 172.4910
7.329239 86.389 171.6481
7.382350 86.496 170.8049
7.435845 86.602 169.9614
7.489729 86.707 169.1177
7.544002 86.812 168.2740
7.598669 86.915 167.4305
7.653732 87.018 166.5873
7.709194 87.120 165.7444
7.765058 87.220 164.9019
7.821327 87.320 164.0599
7.878004 87.419 163.2185
7.935091 87.517 162.3782
7.992592 87.614 161.5394
8.050510 87.709 160.7023
8.108847 87.804 159.8669
8.167607 87.898 159.0334
8.226793 87.991 158.2020
8.286408 88.082 157.3730
8.346454 88.173 156.5468
8.406936 88.263 155.7238
8.467856 88.351 154.9040
8.529218 88.439 154.0875
8.591024 88.526 153.2744
8.653278 88.612 152.4650
8.715983 88.698 151.6594
8.779143 88.782 150.8578
8.842760 88.866 150.0603
8.906839 88.949 149.2667
8.971381 89.032 148.4771
9.036392 89.114 147.6914
9.101873 89.195 146.9095
9.167829 89.276 146.1315
9.234263 89.357 145.3571
9.301178 89.437 144.5861
9.368578 89.517 143.8182
9.436467 89.596 143.0534
9.504847 89.675 142.2913
9.573723 89.754 141.5317
9.643099 89.833 140.7744
9.712976 89.911 140.0190
9.783361 89.989 139.2653
9.854255 90.066 138.5129
9.925663 90.143 137.7618
9.997588 90.220 137.0116
10.070035 90.296 136.2621
10.143007 90.373 135.5133
10.216507 90.448 134.7650
10.290540 90.523 134.0171
10.365109 90.598 133.2694
10.440219 90.672 132.5220
10.515873 90.745 131.7750
10.592076 90.818 131.0285
10.668830 90.890 130.2825
10.746141 90.962 129.5370
10.824012 91.033 128.7924
10.902447 91.103 128.0488
10.981451 91.172 127.3064
11.061027 91.241 126.5655
11.141180 91.309 125.8262
11.221913 91.376 125.0887
11.303232 91.442 124.3534
11.385140 91.508 123.6204
11.467641 91.573 122.8898
11.550741 91.637 122.1619
11.634442 91.701 121.4366
11.718750 91.764 120.7144
11.803669 91.827 119.9949
11.889203 91.889 119.2784
11.975357 91.950 118.5649
12.062136 92.011 117.8542
12.149543 92.072 117.1464
12.237583 92.132 116.4413
12.326262 92.192 115.7388
12.415583 92.251 115.0389
12.505552 92.310 114.3414
12.596172 92.368 113.6461
12.687449 92.426 112.9529
12.779387 92.484 112.2619
12.871992 92.541 111.5728
12.965268 92.598 110.8857
13.059220 92.654 110.2004
13.153852 92.709 109.5170
13.249170 92.765 108.8356
13.345179 92.819 108.1562
13.441884 92.873 107.4788
13.539289 92.927 106.8036
13.637401 92.980 106.1308
13.736223 93.032 105.4604
13.835761 93.083 104.7927
13.936021 93.134 104.1277
14.037007 93.185 103.4656
14.138725 93.235 102.8065
14.241180 93.284 102.1506
14.344377 93.333 101.4980
14.448323 93.381 100.8487
14.553021 93.428 100.2028
14.658478 93.476 99.5602
14.764700 93.522 98.9210
14.871691 93.568 98.2850
14.979457 93.614 97.6523
15.088005 93.660 97.0228
15.197339 93.705 96.3962
15.307465 93.749 95.7724
15.418389 93.794 95.1512
15.530117 93.837 94.5325
15.642655 93.881 93.9160
15.756008 93.924 93.3014
15.870182 93.967 92.6887
15.985184 94.009 92.0775
16.101019 94.051 91.4676
16.217694 94.092 90.8590
16.335214 94.133 90.2515
16.453586 94.174 89.6451
16.572815 94.213 89.0397
16.692909 94.252 88.4356
16.813872 94.291 87.8328
16.935713 94.328 87.2316
17.058436 94.365 86.6323
17.182048 94.401 86.0353
17.306556 94.436 85.4412
17.431967 94.470 84.8504
17.558286 94.504 84.2633
17.685521 94.537 83.6804
17.813677 94.569 83.1021
17.942762 94.601 82.5284
18.072783 94.632 81.9595
18.203746 94.664 81.3954
18.335658 94.695 80.8356
18.468526 94.726 80.2797
18.602356 94.757 79.7270
18.737156 94.788 79.1769
18.872934 94.819 78.6284
19.009695 94.850 78.0810
19.147447 94.882 77.5338
19.286197 94.913 76.9863
19.425953 94.944 76.4383
19.566721 94.975 75.8896
19.708510 95.005 75.3406
19.851326 95.035 74.7917
19.995177 95.064 74.2434
20.140070 95.092 73.6966
20.286013 95.120 73.1520
20.433014 95.148 72.6103
20.581080 95.175 72.0720
20.730219 95.201 71.5372
20.880439 95.228 71.0059
21.031747 95.255 70.4777
21.184152 95.281 69.9517
21.337661 95.308 69.4272
21.492282 95.334 68.9033
21.648024 95.361 68.3792
21.804895 95.387 67.8541
21.962902 95.413 67.3282
22.122054 95.438 66.8016
22.282360 95.462 66.2750
22.443827 95.485 65.7498
22.606464 95.507 65.2275
22.770280 95.528 64.7097
22.935283 95.548 64.1980
23.101481 95.567 63.6937
23.268884 95.585 63.1977
23.437500 95.603 62.7101
23.607338 95.622 62.2305
23.778406 95.640 61.7578
23.950714 95.660 61.2902
24.124271 95.679 60.8258
24.299086 95.699 60.3625
24.475167 95.720 59.8985
24.652524 95.741 59.4323
24.831166 95.761 58.9631
25.011103 95.781 58.4910
25.192344 95.800 58.0165
25.374898 95.819 57.5412
25.558775 95.836 57.0667
25.743984 95.851 56.5952
25.930536 95.866 56.1284
26.118439 95.880 55.6682
26.307704 95.894 55.2151
26.498341 95.908 54.7696
26.690359 95.922 54.3304
26.883768 95.937 53.8959
27.078579 95.952 53.4634
27.274801 95.969 53.0298
27.472446 95.987 52.5920
27.671522 96.005 52.1475
27.872042 96.024 51.6944
28.074014 96.042 51.2324
28.277450 96.059 50.7626
28.482360 96.074 50.2875
28.688755 96.087 49.8113
28.896645 96.098 49.3386
29.106042 96.107 48.8740
29.316957 96.114 48.4217
29.529400 96.121 47.9843
29.743382 96.128 47.5625
29.958915 96.135 47.1555
30.176009 96.143 46.7607
30.394677 96.153 46.3746
30.614929 96.164 45.9937
30.836778 96.176 45.6157
31.060234 96.189 45.2393
31.285309 96.201 44.8653
31.512015 96.214 44.4954
31.740364 96.226 44.1322
31.970368 96.239 43.7775
32.202039 96.252 43.4317
32.435388 96.266 43.0934
32.670428 96.282 42.7593
32.907171 96.299 42.4247
33.145630 96.317 42.0851
33.385817 96.336 41.7369
33.627745 96.355 41.3788
33.871425 96.373 41.0122
34.116871 96.389 40.6401
34.364096 96.404 40.2667
34.613113 96.417 39.8952
34.863934 96.430 39.5269
35.116572 96.443 39.1604
35.371041 96.456 38.7913
35.627354 96.470 38.4141
35.885525 96.484 38.0229
36.145566 96.498 37.6144
36.407492 96.510 37.1882
36.671316 96.518 36.7476
36.937051 96.523 36.2994
37.204712 96.524 35.8518
37.474313 96.521 35.4133
37.745867 96.516 34.9905
38.019389 96.509 34.5876
38.294893 96.502 34.2059
38.572394 96.496 33.8438
38.851905 96.492 33.4979
39.133442 96.490 33.1635
39.417019 96.490 32.8355
39.702651 96.493 32.5090
39.990353 96.498 32.1800
40.280140 96.504 31.8459
40.572026 96.511 31.5063
40.866028 96.518 31.1628
41.162160 96.524 30.8191
41.460438 96.530 30.4794
41.760877 96.536 30.1472
42.063494 96.542 29.8239
42.368303 96.549 29.5082
42.675322 96.557 29.1960
42.984565 96.567 28.8823
43.296048 96.577 28.5625
43.609789 96.587 28.2342
43.925804 96.596 27.8979
44.244108 96.604 27.5565
44.564719 96.609 27.2134
44.887654 96.613 26.8721
45.212928 96.615 26.5344
45.540560 96.617 26.2007
45.870565 96.617 25.8708
46.202962 96.617 25.5440
46.537768 96.616 25.2202
46.875000 96.615 24.8995
47.214676 96.613 24.5823
47.556813 96.611 24.2686
47.901429 96.609 23.9575
48.248542 96.608 23.6478
48.598171 96.607 23.3387
48.950334 96.606 23.0298
49.305048 96.604 22.7221
49.662333 96.603 22.4174
50.022206 96.601 22.1173
50.384688 96.600 21.8223
50.749796 96.600 21.5309
51.117550 96.601 21.2400
51.487969 96.602 20.9457
51.861072 96.603 20.6458
52.236879 96.604 20.3405
52.615409 96.603 20.0326
52.996681 96.601 19.7261
53.380717 96.597 19.4241
53.767536 96.593 19.1278
54.157158 96.589 18.8366
54.549603 96.584 18.5491
54.944892 96.579 18.2646
55.343045 96.574 17.9828
55.744084 96.568 17.7043
56.148028 96.563 17.4295
56.554900 96.558 17.1587
56.964720 96.553 16.8926
57.377510 96.548 16.6314
57.793291 96.545 16.3743
58.212085 96.544 16.1178
58.633914 96.543 15.8566
59.058799 96.544 15.5853
59.486764 96.545 15.3018
59.917829 96.545 15.0082
60.352019 96.542 14.7111
60.789354 96.538 14.4176
61.229859 96.532 14.1323
61.673556 96.526 13.8559
62.120468 96.519 13.5853
62.570618 96.514 13.3165
63.024031 96.507 13.0472
63.480729 96.501 12.7771
63.940736 96.494 12.5074
64.404077 96.487 12.2397
64.870776 96.479 11.9749
65.340856 96.472 11.7132
65.814343 96.465 11.4541
66.291261 96.458 11.1968
66.771635 96.452 10.9398
67.255489 96.447 10.6821
67.742850 96.442 10.4230
68.233743 96.437 10.1631
68.728193 96.431 9.9036
69.226226 96.426 9.6452
69.727867 96.420 9.3882
70.233144 96.414 9.1328
70.742083 96.408 8.8788
71.254709 96.401 8.6266
71.771050 96.394 8.3768
72.291132 96.386 8.1300
72.814984 96.378 7.8868
73.342631 96.369 7.6470
73.874102 96.361 7.4093
74.409424 96.352 7.1716
74.948626 96.343 6.9331
75.491734 96.333 6.6953
76.038779 96.323 6.4614
76.589787 96.312 6.2338
77.144788 96.302 6.0114
77.703811 96.293 5.7900
78.266885 96.284 5.5648
78.834039 96.275 5.3332
79.405303 96.265 5.0945
79.980706 96.255 4.8511
80.560280 96.242 4.6067
81.144053 96.229 4.3657
81.732056 96.214 4.1308
82.324320 96.200 3.9033
82.920876 96.185 3.6835
83.521755 96.171 3.4702
84.126988 96.158 3.2598
84.736607 96.146 3.0475
85.350643 96.135 2.8310
85.969129 96.123 2.6116
86.592097 96.112 2.3924
87.219579 96.100 2.1759
87.851608 96.088 1.9631
88.488217 96.076 1.7538
89.129439 96.064 1.5467
89.775308 96.052 1.3400
90.425856 96.040 1.1328
91.081119 96.027 0.9249
91.741131 96.013 0.7169
92.405925 95.998 0.5085
93.075536 95.983 0.2992
93.750000 95.966 0.0887
94.429351 95.949 -0.1221
95.113625 95.931 -0.3323
95.802858 95.913 -0.5400
96.497085 95.895 -0.7438
97.196342 95.878 -0.9437
97.900667 95.863 -1.1422
98.610096 95.849 -1.3428
99.324665 95.836 -1.5476
100.044413 95.823 -1.7554
100.769376 95.810 -1.9636
101.499592 95.796 -2.1696
102.235100 95.782 -2.3715
102.975938 95.767 -2.5688
103.722144 95.751 -2.7620
104.473757 95.735 -2.9517
105.230817 95.718 -3.1384
105.993363 95.700 -3.3221
106.761435 95.681 -3.5026
107.535072 95.663 -3.6805
108.314315 95.644 -3.8579
109.099206 95.625 -4.0370
109.889783 95.606 -4.2191
110.686090 95.587 -4.4035
111.488167 95.567 -4.5898
112.296056 95.548 -4.7788
113.109800 95.529 -4.9731
113.929440 95.510 -5.1751
114.755020 95.490 -5.3845
115.586582 95.469 -5.5963
116.424170 95.447 -5.8022
117.267827 95.424 -5.9948
118.117598 95.402 -6.1713
118.973527 95.379 -6.3339
119.835658 95.358 -6.4865
120.704037 95.337 -6.6312
121.578708 95.316 -6.7701
122.459718 95.295 -6.9053
123.347111 95.274 -7.0383
124.240935 95.254 -7.1715
125.141236 95.234 -7.3082
126.048061 95.214 -7.4512
126.961458 95.194 -7.6024
127.881473 95.172 -7.7605
128.808154 95.148 -7.9204
129.741551 95.123 -8.0752
130.681712 95.096 -8.2203
131.628686 95.069 -8.3572
132.582521 95.044 -8.4924
133.543269 95.020 -8.6332
134.510979 94.997 -8.7841
135.485701 94.974 -8.9436
136.467486 94.949 -9.1053
137.456386 94.923 -9.2611
138.452451 94.896 -9.4045
139.455735 94.867 -9.5306
140.466288 94.838 -9.6368
141.484165 94.811 -9.7246
142.509418 94.787 -9.8005
143.542100 94.766 -9.8755
144.582265 94.748 -9.9620
145.629968 94.733 -10.0712
146.685262 94.718 -10.2104
147.748204 94.701 -10.3819
148.818849 94.679 -10.5806
149.897251 94.651 -10.7949
150.983469 94.618 -11.0096
152.077557 94.579 -11.2076
153.179574 94.536 -11.3733
154.289576 94.492 -11.4952
155.407622 94.447 -11.5697
156.533770 94.402 -11.5997
157.668078 94.359 -11.5933
158.810606 94.317 -11.5628
159.961413 94.276 -11.5217
161.120559 94.236 -11.4799
162.288105 94.196 -11.4431
163.464112 94.157 -11.4144
164.648640 94.117 -11.3961
165.841752 94.077 -11.3904
167.043510 94.037 -11.4018
168.253976 93.996 -11.4362
169.473213 93.956 -11.4941
170.701286 93.915 -11.5626
171.938258 93.874 -11.6158
173.184194 93.832 -11.6251
174.439158 93.790 -11.5726
175.703216 93.751 -11.4592
176.976434 93.715 -11.3054
178.258878 93.685 -11.1434
179.550615 93.665 -11.0037
180.851713 93.656 -10.9064
182.162239 93.660 -10.8547
183.482262 93.675 -10.8364
184.811850 93.698 -10.8400
186.151073 93.726 -10.8674
187.500000 93.754 -10.9259
188.858702 93.776 -11.0198
190.227250 93.792 -11.1500
191.605715 93.800 -11.3088
192.994169 93.801 -11.4798
194.392685 93.795 -11.6465
195.801334 93.785 -11.8016
197.220191 93.771 -11.9537
198.649330 93.755 -12.1158
200.088825 93.735 -12.2877
201.538751 93.713 -12.4641
202.999184 93.689 -12.6378
204.470200 93.662 -12.7937
205.951875 93.633 -12.9231
207.444287 93.603 -13.0297
208.947514 93.572 -13.1208
210.461634 93.541 -13.2013
211.986726 93.510 -13.2725
213.522869 93.479 -13.3332
215.070144 93.449 -13.3832
216.628631 93.420 -13.4278
218.198411 93.391 -13.4728
219.779567 93.362 -13.5192
221.372180 93.332 -13.5633
222.976334 93.301 -13.6014
224.592112 93.270 -13.6324
226.219600 93.239 -13.6563
227.858880 93.209 -13.6744
229.510039 93.179 -13.6891
231.173164 93.151 -13.7030
232.848340 93.121 -13.7183
234.535655 93.091 -13.7356
236.235197 93.059 -13.7539
237.947054 93.026 -13.7708
239.671317 92.992 -13.7825
241.408074 92.958 -13.7859
243.157416 92.925 -13.7798
244.919435 92.892 -13.7651
246.694223 92.859 -13.7434
248.481871 92.826 -13.7153
250.282473 92.793 -13.6829
252.096123 92.762 -13.6521
253.922915 92.732 -13.6302
255.762945 92.702 -13.6201
257.616309 92.673 -13.6164
259.483103 92.643 -13.6085
261.363424 92.613 -13.5892
263.257372 92.582 -13.5596
265.165043 92.551 -13.5236
267.086538 92.520 -13.4832
269.021957 92.487 -13.4382
270.971401 92.455 -13.3894
272.934972 92.423 -13.3403
274.912771 92.391 -13.2949
276.904902 92.361 -13.2542
278.911469 92.332 -13.2151
280.932577 92.304 -13.1738
282.968330 92.277 -13.1281
285.018835 92.251 -13.0782
287.084199 92.226 -13.0251
289.164530 92.200 -12.9706
291.259935 92.173 -12.9150
293.370525 92.145 -12.8559
295.496408 92.115 -12.7916
297.637697 92.084 -12.7221
299.794503 92.051 -12.6483
301.966937 92.019 -12.5704
304.155114 91.987 -12.4890
306.359147 91.955 -12.4042
308.579152 91.923 -12.3163
310.815244 91.892 -12.2258
313.067539 91.862 -12.1339
315.336156 91.833 -12.0403
317.621211 91.804 -11.9421
319.922826 91.776 -11.8362
322.241118 91.748 -11.7228
324.576210 91.720 -11.6049
326.928223 91.692 -11.4863
329.297280 91.664 -11.3696
331.683504 91.636 -11.2545
334.087019 91.607 -11.1385
336.507952 91.579 -11.0171
338.946427 91.550 -10.8858
341.402572 91.523 -10.7418
343.876516 91.496 -10.5845
346.368387 91.470 -10.4139
348.878315 91.445 -10.2319
351.406431 91.422 -10.0412
353.952867 91.399 -9.8447
356.517756 91.378 -9.6438
359.101230 91.359 -9.4406
361.703426 91.342 -9.2385
364.324478 91.328 -9.0419
366.964523 91.317 -8.8560
369.623699 91.307 -8.6856
372.302145 91.298 -8.5358
375.000000 91.290 -8.4087
377.717405 91.280 -8.3026
380.454501 91.270 -8.2130
383.211431 91.257 -8.1355
385.988339 91.243 -8.0653
388.785369 91.226 -7.9972
391.602668 91.208 -7.9255
394.440383 91.189 -7.8453
397.298660 91.169 -7.7543
400.177650 91.149 -7.6544
403.077502 91.128 -7.5496
405.998368 91.108 -7.4415
408.940400 91.087 -7.3278
411.903750 91.066 -7.2066
414.888575 91.045 -7.0778
417.895028 91.023 -6.9406
420.923268 91.000 -6.7949
423.973452 90.977 -6.6426
427.045738 90.954 -6.4869
430.140287 90.931 -6.3309
433.257261 90.908 -6.1774
436.396822 90.886 -6.0272
439.559133 90.864 -5.8779
442.744360 90.843 -5.7268
445.952668 90.822 -5.5728
449.184225 90.801 -5.4160
452.439199 90.781 -5.2568
455.717760 90.761 -5.0948
459.020079 90.742 -4.9297
462.346327 90.722 -4.7613
465.696680 90.703 -4.5892
469.071310 90.683 -4.4133
472.470394 90.664 -4.2335
475.894109 90.644 -4.0500
479.342634 90.625 -3.8637
482.816148 90.606 -3.6751
486.314833 90.587 -3.4841
489.838871 90.569 -3.2906
493.388445 90.551 -3.0947
496.963741 90.533 -2.8966
500.564945 90.516 -2.6967
504.192245 90.499 -2.4951
507.845830 90.482 -2.2914
511.525890 90.465 -2.0855
515.232618 90.449 -1.8773
518.966206 90.432 -1.6665
522.726849 90.416 -1.4532
526.514743 90.401 -1.2376
530.330086 90.385 -1.0197
534.173076 90.370 -0.7997
538.043915 90.355 -0.5776
541.942803 90.340 -0.3535
545.869944 90.325 -0.1273
549.825542 90.310 0.1010
553.809805 90.296 0.3316
557.822939 90.281 0.5646
561.865154 90.267 0.7997
565.936660 90.253 1.0369
570.037671 90.240 1.2759
574.168399 90.227 1.5171
578.329060 90.214 1.7608
582.519870 90.202 2.0074
586.741049 90.190 2.2567
590.992817 90.178 2.5088
595.275394 90.166 2.7637
599.589005 90.154 3.0216
603.933874 90.143 3.2830
608.310228 90.131 3.5482
612.718295 90.120 3.8170
617.158304 90.110 4.0884
621.630488 90.100 4.3609
626.135079 90.091 4.6331
630.672311 90.082 4.9047
635.242423 90.074 5.1767
639.845651 90.066 5.4507
644.482237 90.058 5.7282
649.152421 90.050 6.0099
653.856447 90.043 6.2960
658.594560 90.036 6.5862
663.367008 90.029 6.8812
668.174039 90.023 7.1816
673.015903 90.017 7.4871
677.892854 90.011 7.7969
682.805145 90.006 8.1106
687.753032 90.000 8.4286
692.736774 89.995 8.7509
697.756631 89.991 9.0775
702.812863 89.987 9.4080
707.905735 89.985 9.7419
713.035511 89.983 10.0793
718.202461 89.983 10.4199
723.406852 89.983 10.7629
728.648956 89.983 11.1079
733.929047 89.984 11.4555
739.247399 89.986 11.8059
744.604290 89.988 12.1586
750.000000 89.992 12.5134
755.434809 89.996 12.8705
760.909001 90.002 13.2299
766.422861 90.009 13.5911
771.976677 90.017 13.9540
777.570739 90.027 14.3188
783.205337 90.037 14.6859
788.880766 90.047 15.0552
794.597321 90.058 15.4271
800.355301 90.071 15.8021
806.155005 90.084 16.1805
811.996736 90.099 16.5621
817.880799 90.115 16.9462
823.807501 90.133 17.3329
829.777150 90.151 17.7220
835.790057 90.171 18.1128
841.846536 90.192 18.5051
847.946903 90.213 18.8989
854.091476 90.236 19.2933
860.280575 90.260 19.6869
866.514523 90.286 20.0787
872.793644 90.314 20.4684
879.118267 90.343 20.8563
885.488720 90.373 21.2422
891.905336 90.405 21.6263
898.368450 90.438 22.0087
904.878398 90.471 22.3893
911.435520 90.507 22.7674
918.040157 90.543 23.1423
924.692655 90.581 23.5134
931.393359 90.620 23.8802
938.142619 90.661 24.2419
944.940787 90.703 24.5982
951.788218 90.747 24.9489
958.685268 90.793 25.2942
965.632296 90.839 25.6343
972.629666 90.888 25.9691
979.677741 90.937 26.2980
986.776890 90.988 26.6201
993.927482 91.039 26.9340
1001.129891 91.091 27.2386
1008.384491 91.145 27.5339
1015.691660 91.199 27.8202
1023.051781 91.254 28.0975
1030.465236 91.310 28.3657
1037.932411 91.367 28.6243
1045.453698 91.424 28.8732
1053.029486 91.482 29.1125
1060.660172 91.540 29.3423
1068.346153 91.599 29.5630
1076.087829 91.658 29.7744
1083.885605 91.717 29.9767
1091.739887 91.776 30.1694
1099.651084 91.835 30.3521
1107.619609 91.895 30.5243
1115.645878 91.954 30.6862
1123.730308 92.014 30.8386
1131.873321 92.074 30.9830
1140.075341 92.133 31.1205
1148.336797 92.192 31.2520
1156.658119 92.251 31.3773
1165.039741 92.309 31.4966
1173.482099 92.367 31.6094
1181.985634 92.425 31.7153
1190.550789 92.483 31.8146
1199.178011 92.540 31.9079
1207.867749 92.597 31.9963
1216.620457 92.654 32.0806
1225.436590 92.710 32.1615
1234.316609 92.766 32.2391
1243.260976 92.821 32.3132
1252.270157 92.877 32.3832
1261.344623 92.932 32.4485
1270.484846 92.987 32.5087
1279.691303 93.041 32.5640
1288.964474 93.096 32.6152
1298.304842 93.151 32.6629
1307.712894 93.206 32.7070
1317.189120 93.261 32.7469
1326.734016 93.317 32.7817
1336.348077 93.372 32.8109
1346.031806 93.426 32.8342
1355.785708 93.481 32.8513
1365.610290 93.535 32.8622
1375.506065 93.589 32.8668
1385.473549 93.643 32.8649
1395.513261 93.697 32.8571
1405.625726 93.750 32.8436
1415.811469 93.802 32.8253
1426.071023 93.855 32.8023
1436.404921 93.906 32.7745
1446.813703 93.957 32.7422
1457.297912 94.008 32.7055
1467.858093 94.058 32.6642
1478.494798 94.107 32.6182
1489.208581 94.155 32.5677
1500.000000 94.202 32.5134
1510.869618 94.249 32.4559
1521.818002 94.295 32.3959
1532.845723 94.340 32.3342
1543.953355 94.384 32.2713
1555.141477 94.428 32.2075
1566.410674 94.470 32.1430
1577.761531 94.512 32.0781
1589.194642 94.554 32.0131
1600.710601 94.594 31.9484
1612.310010 94.635 31.8846
1623.993473 94.674 31.8221
1635.761599 94.713 31.7614
1647.615002 94.752 31.7029
1659.554299 94.790 31.6466
1671.580114 94.827 31.5925
1683.693072 94.865 31.5405
1695.893807 94.902 31.4907
1708.182952 94.939 31.4427
1720.561150 94.976 31.3968
1733.029045 95.013 31.3528
1745.587288 95.050 31.3112
1758.236533 95.087 31.2716
1770.977440 95.123 31.2344
1783.810673 95.160 31.1995
1796.736900 95.197 31.1670
1809.756796 95.235 31.1364
1822.871040 95.272 31.1069
1836.080315 95.310 31.0779
1849.385310 95.349 31.0489
1862.786718 95.388 31.0199
1876.285239 95.427 30.9913
1889.881575 95.466 30.9633
1903.576436 95.507 30.9360
1917.370535 95.547 30.9094
1931.264593 95.588 30.8828
1945.259332 95.630 30.8558
1959.355483 95.672 30.8280
1973.553781 95.714 30.7991
1987.854965 95.757 30.7690
2002.259781 95.801 30.7372
2016.768981 95.845 30.7032
2031.383320 95.890 30.6668
2046.103561 95.936 30.6277
2060.930471 95.982 30.5859
2075.864823 96.028 30.5411
2090.907395 96.076 30.4933
2106.058972 96.123 30.4421
2121.320344 96.172 30.3873
2136.692305 96.221 30.3282
2152.175658 96.270 30.2646
2167.771210 96.320 30.1960
2183.479774 96.371 30.1223
2199.302169 96.422 30.0430
2215.239219 96.474 29.9581
2231.291755 96.526 29.8677
2247.460615 96.579 29.7715
2263.746641 96.632 29.6693
2280.150683 96.685 29.5607
2296.673595 96.740 29.4454
2313.316238 96.794 29.3228
2330.079481 96.849 29.1923
2346.964198 96.904 29.0536
2363.971268 96.960 28.9066
2381.101578 97.016 28.7507
2398.356022 97.072 28.5859
2415.735498 97.128 28.4119
2433.240913 97.184 28.2283
2450.873180 97.240 28.0349
2468.633217 97.297 27.8314
2486.521951 97.353 27.6173
2504.540314 97.409 27.3925
2522.689246 97.465 27.1568
2540.969692 97.521 26.9099
2559.382606 97.577 26.6516
2577.928947 97.632 26.3818
2596.609683 97.686 26.1000
2615.425787 97.741 25.8062
2634.378241 97.794 25.5000
2653.468031 97.847 25.1813
2672.696154 97.899 24.8499
2692.063613 97.951 24.5054
2711.571415 98.001 24.1480
2731.220579 98.050 23.7776
2751.012130 98.098 23.3944
2770.947098 98.145 22.9985
2791.026522 98.190 22.5900
2811.251451 98.234 22.1688
2831.622938 98.277 21.7350
2852.142045 98.317 21.2886
2872.809842 98.356 20.8297
2893.627406 98.393 20.3583
2914.595823 98.427 19.8749
2935.716186 98.459 19.3795
2956.989596 98.489 18.8727
2978.417161 98.516 18.3549
3000.000000 98.541 17.8266
3021.739237 98.563 17.2886
3043.636005 98.582 16.7415
3065.691446 98.597 16.1859
3087.906710 98.610 15.6227
3110.282955 98.619 15.0529
3132.821347 98.625 14.4774
3155.523062 98.627 13.8972
3178.389283 98.626 13.3136
3201.421202 98.621 12.7279
3224.620020 98.612 12.1417
3247.986946 98.599 11.5568
3271.523198 98.582 10.9749
3295.230004 98.561 10.3980
3319.108599 98.537 9.8280
3343.160228 98.508 9.2668
3367.386145 98.476 8.7162
3391.787613 98.440 8.1776
3416.365904 98.401 7.6520
3441.122300 98.359 7.1407
3466.058091 98.314 6.6448
3491.174576 98.266 6.1646
3516.473066 98.217 5.7003
3541.954880 98.165 5.2516
3567.621345 98.110 4.8182
3593.473800 98.054 4.3997
3619.513592 97.996 3.9960
3645.742080 97.936 3.6073
3672.160630 97.874 3.2341
3698.770620 97.809 2.8771
3725.573436 97.744 2.5372
3752.570477 97.676 2.2153
3779.763150 97.607 1.9118
3807.152872 97.536 1.6270
3834.741071 97.464 1.3607
3862.529185 97.391 1.1125
3890.518664 97.317 0.8817
3918.710966 97.242 0.6676
3947.107561 97.166 0.4700
3975.709929 97.088 0.2892
4004.519563 97.009 0.1258
4033.537962 96.928 -0.0187
4062.766641 96.845 -0.1428
4092.207123 96.761 -0.2446
4121.860942 96.676 -0.3222
4151.729646 96.589 -0.3741
4181.814790 96.500 -0.3991
4212.117944 96.411 -0.3961
4242.640687 96.321 -0.3643
4273.384610 96.231 -0.3033
4304.351317 96.140 -0.2125
4335.542421 96.049 -0.0913
4366.959549 95.958 0.0610
4398.604338 95.866 0.2457
4430.478438 95.775 0.4642
4462.583511 95.683 0.7191
4494.921231 95.592 1.0128
4527.493283 95.502 1.3486
4560.301365 95.413 1.7295
4593.347189 95.326 2.1583
4626.632476 95.242 2.6370
4660.158962 95.161 3.1663
4693.928395 95.086 3.7455
4727.942535 95.016 4.3719
4762.203156 94.953 5.0416
4796.712043 94.898 5.7494
4831.470996 94.852 6.4895
4866.481826 94.813 7.2565
4901.746360 94.784 8.0450
4937.266434 94.764 8.8506
4973.043902 94.752 9.6697
5009.080628 94.750 10.4991
5045.378492 94.757 11.3364
5081.939384 94.774 12.1797
5118.765212 94.800 13.0272
5155.857894 94.837 13.8768
5193.219366 94.884 14.7264
5230.851574 94.943 15.5731
5268.756481 95.014 16.4126
5306.936062 95.099 17.2394
5345.392309 95.197 18.0462
5384.127225 95.312 18.8232
5423.142830 95.443 19.5580
5462.441159 95.591 20.2342
5502.024259 95.758 20.8320
5541.894195 95.943 21.3274
5582.053045 96.146 21.6928
5622.502902 96.365 21.8978
5663.245876 96.598 21.9105
5704.284090 96.839 21.7002
5745.619684 97.082 21.2402
5787.254813 97.321 20.5117
5829.191647 97.547 19.5067
5871.432373 97.749 18.2322
5913.979192 97.918 16.7112
5956.834323 98.045 14.9847
6000.000000 98.124 13.1096
6043.478473 98.148 11.1556
6087.272010 98.115 9.2008
6131.382892 98.026 7.3250
6175.813420 97.885 5.6036
6220.565910 97.699 4.1020
6265.642695 97.476 2.8715
6311.046124 97.225 1.9467
6356.778566 96.958 1.3448
6402.842404 96.685 1.0672
6449.240040 96.414 1.1010
6495.973891 96.155 1.4226
6543.046396 95.913 2.0015
6590.460007 95.694 2.8030
6638.217197 95.501 3.7917
6686.320456 95.338 4.9332
6734.772290 95.205 6.1951
6783.575226 95.103 7.5487
6832.731809 95.031 8.9682
6882.244600 94.991 10.4309
6932.116181 94.980 11.9166
6982.349153 95.000 13.4068
7032.946133 95.048 14.8850
7083.909760 95.126 16.3356
7135.242690 95.231 17.7437
7186.947600 95.363 19.0948
7239.027185 95.522 20.3757
7291.484160 95.707 21.5748
7344.321260 95.917 22.6829
7397.541239 96.153 23.6910
7451.146872 96.416 24.5853
7505.140954 96.707 25.3430
7559.526299 97.025 25.9347
7614.305743 97.371 26.3275
7669.482141 97.743 26.4875
7725.058371 98.137 26.3806
7781.037328 98.549 25.9716
7837.421932 98.976 25.2258
7894.215122 99.409 24.1101
7951.419859 99.840 22.5958
8009.039125 100.260 20.6622
8067.075924 100.656 18.3018
8125.533282 101.016 15.5242
8184.414245 101.325 12.3617
8243.721885 101.570 8.8721
8303.459292 101.741 5.1404
8363.629581 101.833 1.2751
8424.235888 101.845 -2.6039
8485.281374 101.789 -6.3877
8546.769221 101.680 -10.0089
8608.702634 101.537 -13.4660
8671.084842 101.375 -16.8187
8733.919097 101.194 -20.1461
8797.208675 100.985 -23.4953
8860.956876 100.731 -26.8489
8925.167022 100.420 -30.1295
8989.842461 100.049 -33.2347
9054.986566 99.623 -36.0748
9120.602731 99.152 -38.5927
9186.694378 98.650 -40.7664
9253.264952 98.128 -42.6017
9320.317925 97.595 -44.1215
9387.856790 97.060 -45.3560
9455.885071 96.525 -46.3367
9524.406312 95.995 -47.0917
9593.424086 95.469 -47.6442
9662.941992 94.949 -48.0114
9732.963653 94.433 -48.2052
9803.492719 93.921 -48.2325
9874.532869 93.413 -48.0959
9946.087805 92.909 -47.7945
10018.161257 92.410 -47.3252
10090.756983 91.916 -46.6848
10163.878768 91.429 -45.8719
10237.530423 90.951 -44.8881
10311.715789 90.485 -43.7380
10386.438732 90.032 -42.4290
10461.703149 89.594 -40.9702
10537.512962 89.173 -39.3727
10613.872125 88.771 -37.6487
10690.784618 88.388 -35.8111
10768.254450 88.026 -33.8742
10846.285661 87.686 -31.8531
10924.882318 87.369 -29.7637
11004.048518 87.074 -27.6229
11083.788390 86.802 -25.4468
11164.106090 86.552 -23.2499
11245.005805 86.324 -21.0439
11326.491752 86.116 -18.8375
11408.568180 85.927 -16.6352
11491.239368 85.758 -14.4388
11574.509626 85.607 -12.2493
11658.383294 85.476 -10.0716
11742.864745 85.366 -7.9189
11827.958384 85.277 -5.8145
11913.668646 85.208 -3.7874
12000.000000 85.157 -1.8628
12086.956947 85.119 -0.0538
12174.544019 85.090 1.6418
12262.765784 85.066 3.2383
12351.626840 85.044 4.7549
12441.131819 85.024 6.2103
12531.285389 85.004 7.6194
12622.092249 84.986 8.9925
12713.557132 84.969 10.3358
12805.684808 84.952 11.6529
12898.480079 84.937 12.9468
12991.947783 84.921 14.2208
13086.092792 84.905 15.4802
13180.920015 84.888 16.7324
13276.434395 84.869 17.9870
13372.640911 84.850 19.2562
13469.544580 84.829 20.5542
13567.150452 84.807 21.8965
13665.463617 84.787 23.2997
13764.489200 84.770 24.7806
13864.232362 84.759 26.3553
13964.698305 84.757 28.0385
14065.892266 84.770 29.8411
14167.819519 84.802 31.7694
14270.485380 84.859 33.8214
14373.895200 84.948 35.9855
14478.054370 85.076 38.2397
14582.968320 85.250 40.5507
14688.642520 85.474 42.8742
14795.082478 85.756 45.1546
14902.293745 86.099 47.3251
15010.281908 86.506 49.3076
15119.052599 86.977 51.0139
15228.611486 87.511 52.3477
15338.964283 88.099 53.2084
15450.116741 88.732 53.4979
15562.074656 89.392 53.1272
15674.843864 90.061 52.0259
15788.430244 90.714 50.1512
15902.839718 91.324 47.4957
16018.078250 91.865 44.0963
16134.151848 92.310 40.0388
16251.066563 92.639 35.4597
16368.828491 92.835 30.5405
16487.443769 92.892 25.4916
16606.918584 92.816 20.5278
16727.259161 92.621 15.8398
16848.471777 92.333 11.5691
16970.562748 91.981 7.7902
17093.538442 91.598 4.5049
17217.405268 91.210 1.6511
17342.169684 90.836 -0.8726
17467.838194 90.484 -3.1703
17594.417350 90.152 -5.3161
17721.913751 89.837 -7.3438
17850.334044 89.536 -9.2605
17979.684923 89.248 -11.0705
18109.973131 88.976 -12.7905
18241.205462 88.723 -14.4517
18373.388756 88.489 -16.0921
18506.529905 88.271 -17.7473
18640.635849 88.065 -19.4434
18775.713581 87.865 -21.1944
18911.770141 87.667 -23.0037
19048.812624 87.465 -24.8663
19186.848172 87.257 -26.7716
19325.883983 87.041 -28.7018
19465.927305 86.821 -30.6246
19606.985439 86.604 -32.4770
19749.065738 86.408 -34.1451
19892.175609 86.257 -35.4529
20036.322514 86.173 -36.1880
