* Measurement data measured by REW V5.31.3
* Source: Headset (2- CX31993 HIFI AUDIO), MICROPHONE (Master Volume), R, volume: 0.500
* Format: 256k Log Swept Sine, 1 sweep at -11.9 dBFS with no timing reference
* Dated: 09 2, 25 3:35:07 PM
* REW Settings:
*  C-weighting compensation: Off
*  Target level: 75.0 dB
* Note: ; 
* Measurement: MD Blessing2 LDF small L
* Smoothing: 1/12 octave
* Frequency Step: 96 ppo
* Start Frequency: 0.36621094 Hz
*
* Freq(Hz) SPL(dB) Phase(degrees)
0.366211 43.420 -49.9502
0.368865 43.410 -49.9970
0.371538 43.395 -50.0673
0.374230 43.376 -50.1565
0.376942 43.355 -50.2601
0.379673 43.332 -50.3752
0.382424 43.309 -50.4998
0.385196 43.284 -50.6325
0.387987 43.259 -50.7728
0.390798 43.234 -50.9203
0.393630 43.209 -51.0750
0.396483 43.183 -51.2366
0.399356 43.158 -51.4054
0.402250 43.132 -51.5813
0.405165 43.105 -51.7645
0.408101 43.079 -51.9550
0.411058 43.052 -52.1529
0.414037 43.026 -52.3584
0.417037 42.999 -52.5716
0.420059 42.972 -52.7926
0.423103 42.944 -53.0214
0.426169 42.917 -53.2582
0.429257 42.889 -53.5032
0.432368 42.861 -53.7563
0.435501 42.833 -54.0178
0.438656 42.804 -54.2877
0.441835 42.776 -54.5662
0.445037 42.747 -54.8533
0.448262 42.718 -55.1492
0.451510 42.689 -55.4539
0.454782 42.660 -55.7677
0.458077 42.630 -56.0906
0.461397 42.600 -56.4226
0.464740 42.570 -56.7640
0.468108 42.540 -57.1147
0.471500 42.509 -57.4750
0.474917 42.479 -57.8448
0.478358 42.448 -58.2243
0.481825 42.417 -58.6136
0.485316 42.385 -59.0128
0.488833 42.354 -59.4219
0.492375 42.322 -59.8410
0.495943 42.290 -60.2701
0.499537 42.258 -60.7094
0.503157 42.225 -61.1588
0.506803 42.192 -61.6185
0.510475 42.159 -62.0884
0.514175 42.126 -62.5686
0.517900 42.093 -63.0591
0.521653 42.059 -63.5599
0.525434 42.025 -64.0709
0.529241 41.991 -64.5922
0.533076 41.956 -65.1238
0.536939 41.922 -65.6656
0.540830 41.887 -66.2174
0.544749 41.851 -66.7793
0.548696 41.816 -67.3512
0.552673 41.780 -67.9329
0.556677 41.744 -68.5244
0.560711 41.708 -69.1254
0.564774 41.671 -69.7358
0.568867 41.635 -70.3555
0.572989 41.598 -70.9841
0.577141 41.560 -71.6216
0.581324 41.523 -72.2676
0.585536 41.485 -72.9218
0.589779 41.447 -73.5841
0.594053 41.408 -74.2540
0.598358 41.370 -74.9313
0.602694 41.331 -75.6155
0.607061 41.292 -76.3063
0.611460 41.252 -77.0032
0.615891 41.212 -77.7059
0.620354 41.172 -78.4139
0.624849 41.132 -79.1267
0.629377 41.091 -79.8438
0.633938 41.050 -80.5646
0.638532 41.009 -81.2887
0.643159 40.967 -82.0154
0.647819 40.926 -82.7441
0.652514 40.883 -83.4743
0.657242 40.841 -84.2053
0.662005 40.798 -84.9364
0.666802 40.755 -85.6670
0.671634 40.712 -86.3964
0.676501 40.668 -87.1237
0.681403 40.624 -87.8485
0.686341 40.579 -88.5698
0.691314 40.535 -89.2870
0.696324 40.489 -89.9994
0.701370 40.443 -90.7065
0.706452 40.397 -91.4080
0.711571 40.349 -92.1038
0.716728 40.300 -92.7946
0.721921 40.248 -93.4820
0.727153 40.192 -94.1690
0.732422 40.132 -94.8597
0.737729 40.066 -95.5599
0.743075 39.993 -96.2754
0.748460 39.915 -97.0116
0.753883 39.830 -97.7727
0.759346 39.740 -98.5621
0.764849 39.645 -99.3824
0.770391 39.545 -100.2356
0.775974 39.441 -101.1236
0.781597 39.332 -102.0478
0.787261 39.218 -103.0097
0.792966 39.101 -104.0109
0.798712 38.979 -105.0527
0.804500 38.853 -106.1366
0.810329 38.724 -107.2641
0.816201 38.591 -108.4366
0.822116 38.455 -109.6556
0.828073 38.316 -110.9225
0.834074 38.174 -112.2387
0.840118 38.029 -113.6057
0.846206 37.881 -115.0247
0.852338 37.731 -116.4969
0.858514 37.579 -118.0236
0.864735 37.425 -119.6055
0.871001 37.270 -121.2437
0.877313 37.113 -122.9388
0.883670 36.956 -124.6911
0.890074 36.798 -126.5010
0.896524 36.639 -128.3683
0.903020 36.480 -130.2928
0.909564 36.322 -132.2738
0.916155 36.164 -134.3104
0.922794 36.008 -136.4015
0.929481 35.853 -138.5453
0.936216 35.700 -140.7401
0.943000 35.549 -142.9839
0.949834 35.401 -145.2742
0.956717 35.256 -147.6086
0.963649 35.115 -149.9844
0.970632 34.979 -152.3991
0.977666 34.847 -154.8500
0.984750 34.720 -157.3347
0.991886 34.600 -159.8511
0.999074 34.486 -162.3975
1.006314 34.379 -164.9726
1.013606 34.280 -167.5759
1.020951 34.190 -170.2077
1.028349 34.109 -172.8691
1.035801 34.038 -175.5625
1.043307 33.977 -178.2921
1.050867 33.929 178.9366
1.058482 33.892 176.1155
1.066152 33.869 173.2334
1.073878 33.860 170.2751
1.081660 33.865 167.2208
1.089498 33.886 164.0448
1.097393 33.923 160.7164
1.105345 33.976 157.2031
1.113355 34.046 153.4760
1.121423 34.132 149.5167
1.129549 34.235 145.3214
1.137734 34.354 140.9026
1.145979 34.488 136.2894
1.154283 34.639 131.5249
1.162647 34.804 126.6639
1.171072 34.985 121.7687
1.179558 35.179 116.9025
1.188106 35.388 112.1255
1.196715 35.610 107.4894
1.205387 35.846 103.0353
1.214122 36.093 98.7914
1.222920 36.353 94.7746
1.231782 36.624 90.9910
1.240708 36.905 87.4383
1.249699 37.196 84.1082
1.258754 37.497 80.9881
1.267876 37.806 78.0628
1.277063 38.123 75.3158
1.286318 38.447 72.7306
1.295639 38.777 70.2903
1.305027 39.112 67.9794
1.314484 39.452 65.7829
1.324009 39.795 63.6870
1.333604 40.140 61.6788
1.343268 40.487 59.7465
1.353002 40.834 57.8794
1.362806 41.181 56.0675
1.372681 41.526 54.3018
1.382628 41.868 52.5740
1.392647 42.205 50.8765
1.402739 42.538 49.2023
1.412904 42.865 47.5455
1.423142 43.185 45.9008
1.433455 43.498 44.2642
1.443843 43.804 42.6332
1.454305 44.103 41.0075
1.464844 44.396 39.3889
1.475459 44.685 37.7815
1.486150 44.972 36.1905
1.496920 45.257 34.6207
1.507767 45.543 33.0764
1.518693 45.828 31.5601
1.529698 46.114 30.0734
1.540783 46.401 28.6169
1.551948 46.688 27.1901
1.563194 46.976 25.7922
1.574521 47.265 24.4219
1.585931 47.554 23.0774
1.597423 47.843 21.7568
1.608999 48.133 20.4581
1.620658 48.423 19.1789
1.632402 48.713 17.9170
1.644232 49.003 16.6700
1.656146 49.292 15.4355
1.668147 49.581 14.2111
1.680235 49.870 12.9944
1.692411 50.158 11.7831
1.704675 50.446 10.5747
1.717028 50.732 9.3670
1.729470 51.017 8.1577
1.742003 51.301 6.9448
1.754626 51.584 5.7261
1.767341 51.865 4.4998
1.780147 52.144 3.2646
1.793047 52.421 2.0198
1.806040 52.696 0.7651
1.819128 52.968 -0.4980
1.832310 53.238 -1.7675
1.845587 53.506 -3.0393
1.858961 53.771 -4.3097
1.872432 54.034 -5.5747
1.886001 54.294 -6.8312
1.899667 54.551 -8.0771
1.913433 54.807 -9.3109
1.927299 55.059 -10.5316
1.941265 55.310 -11.7389
1.955332 55.559 -12.9330
1.969501 55.805 -14.1143
1.983773 56.050 -15.2834
1.998148 56.293 -16.4414
2.012627 56.535 -17.5892
2.027212 56.775 -18.7280
2.041902 57.014 -19.8594
2.056698 57.252 -20.9846
2.071602 57.489 -22.1053
2.086614 57.725 -23.2231
2.101734 57.961 -24.3396
2.116964 58.196 -25.4563
2.132304 58.431 -26.5746
2.147756 58.666 -27.6959
2.163320 58.901 -28.8210
2.178996 59.136 -29.9501
2.194786 59.370 -31.0826
2.210690 59.603 -32.2173
2.226710 59.835 -33.3524
2.242845 60.066 -34.4857
2.259098 60.296 -35.6155
2.275468 60.524 -36.7404
2.291957 60.750 -37.8593
2.308566 60.976 -38.9716
2.325295 61.199 -40.0767
2.342145 61.422 -41.1748
2.359117 61.643 -42.2659
2.376212 61.862 -43.3505
2.393431 62.081 -44.4288
2.410775 62.299 -45.5017
2.428244 62.516 -46.5699
2.445840 62.732 -47.6344
2.463564 62.947 -48.6960
2.481416 63.162 -49.7558
2.499397 63.377 -50.8148
2.517509 63.591 -51.8740
2.535752 63.804 -52.9340
2.554127 64.017 -53.9952
2.572635 64.228 -55.0577
2.591277 64.439 -56.1208
2.610055 64.649 -57.1840
2.628968 64.857 -58.2460
2.648019 65.065 -59.3058
2.667208 65.271 -60.3629
2.686535 65.475 -61.4162
2.706003 65.679 -62.4653
2.725612 65.881 -63.5100
2.745363 66.082 -64.5500
2.765257 66.282 -65.5853
2.785295 66.482 -66.6160
2.805478 66.680 -67.6423
2.825808 66.878 -68.6648
2.846285 67.076 -69.6838
2.866910 67.272 -70.7001
2.887685 67.468 -71.7140
2.908611 67.664 -72.7264
2.929688 67.858 -73.7376
2.950917 68.052 -74.7479
2.972301 68.245 -75.7574
2.993839 68.437 -76.7657
3.015534 68.627 -77.7725
3.037386 68.817 -78.7771
3.059396 69.005 -79.7791
3.081565 69.192 -80.7780
3.103896 69.378 -81.7736
3.126388 69.564 -82.7654
3.149043 69.748 -83.7536
3.171862 69.932 -84.7380
3.194847 70.115 -85.7189
3.217998 70.298 -86.6964
3.241317 70.480 -87.6708
3.264805 70.662 -88.6427
3.288463 70.842 -89.6125
3.312293 71.022 -90.5806
3.336295 71.202 -91.5472
3.360471 71.380 -92.5123
3.384822 71.558 -93.4758
3.409350 71.734 -94.4375
3.434056 71.910 -95.3970
3.458940 72.084 -96.3540
3.484005 72.258 -97.3082
3.509252 72.432 -98.2596
3.534681 72.604 -99.2079
3.560295 72.776 -100.1533
3.586094 72.948 -101.0958
3.612081 73.119 -102.0356
3.638255 73.289 -102.9730
3.664620 73.460 -103.9084
3.691175 73.629 -104.8419
3.717923 73.798 -105.7739
3.744864 73.966 -106.7042
3.772001 74.133 -107.6329
3.799335 74.300 -108.5599
3.826866 74.465 -109.4851
3.854597 74.631 -110.4084
3.882529 74.795 -111.3298
3.910664 74.959 -112.2495
3.939002 75.123 -113.1674
3.967546 75.286 -114.0839
3.996296 75.449 -114.9991
4.025255 75.611 -115.9133
4.054423 75.773 -116.8267
4.083804 75.934 -117.7394
4.113396 76.095 -118.6514
4.143204 76.255 -119.5626
4.173227 76.414 -120.4731
4.203468 76.573 -121.3828
4.233928 76.731 -122.2915
4.264609 76.889 -123.1996
4.295512 77.046 -124.1071
4.326639 77.203 -125.0142
4.357992 77.359 -125.9213
4.389572 77.514 -126.8286
4.421380 77.669 -127.7363
4.453419 77.824 -128.6447
4.485691 77.977 -129.5536
4.518196 78.130 -130.4629
4.550936 78.283 -131.3723
4.583914 78.434 -132.2819
4.617131 78.586 -133.1913
4.650589 78.736 -134.1008
4.684289 78.886 -135.0103
4.718233 79.034 -135.9203
4.752424 79.183 -136.8309
4.786862 79.330 -137.7427
4.821549 79.477 -138.6556
4.856488 79.623 -139.5698
4.891680 79.768 -140.4850
4.927127 79.912 -141.4008
4.962831 80.055 -142.3166
4.998794 80.198 -143.2323
5.035017 80.339 -144.1476
5.071503 80.480 -145.0626
5.108253 80.620 -145.9775
5.145270 80.758 -146.8927
5.182555 80.896 -147.8085
5.220110 81.033 -148.7251
5.257937 81.169 -149.6421
5.296038 81.304 -150.5591
5.334415 81.437 -151.4753
5.373071 81.570 -152.3904
5.412006 81.702 -153.3037
5.451224 81.832 -154.2153
5.490725 81.962 -155.1252
5.530514 82.091 -156.0339
5.570590 82.218 -156.9415
5.610957 82.345 -157.8483
5.651616 82.470 -158.7536
5.692570 82.595 -159.6570
5.733821 82.718 -160.5579
5.775370 82.841 -161.4557
5.817221 82.963 -162.3500
5.859375 83.084 -163.2410
5.901834 83.203 -164.1288
5.944602 83.322 -165.0138
5.987679 83.440 -165.8960
6.031068 83.558 -166.7753
6.074771 83.674 -167.6512
6.118792 83.790 -168.5235
6.163131 83.905 -169.3917
6.207792 84.020 -170.2559
6.252776 84.134 -171.1160
6.298086 84.247 -171.9722
6.343725 84.360 -172.8250
6.389694 84.472 -173.6744
6.435996 84.584 -174.5206
6.482634 84.695 -175.3635
6.529610 84.807 -176.2032
6.576926 84.918 -177.0397
6.624585 85.028 -177.8732
6.672590 85.139 -178.7039
6.720942 85.249 -179.5322
6.769645 85.359 179.6415
6.818700 85.469 178.8169
6.868111 85.578 177.9937
6.917881 85.688 177.1714
6.968010 85.797 176.3499
7.018504 85.906 175.5288
7.069362 86.016 174.7079
7.120590 86.125 173.8870
7.172189 86.233 173.0655
7.224161 86.342 172.2432
7.276511 86.450 171.4196
7.329239 86.558 170.5944
7.382350 86.665 169.7674
7.435845 86.773 168.9385
7.489729 86.879 168.1075
7.544002 86.985 167.2744
7.598669 87.091 166.4393
7.653732 87.196 165.6018
7.709194 87.300 164.7620
7.765058 87.403 163.9196
7.821327 87.506 163.0750
7.878004 87.607 162.2283
7.935091 87.708 161.3801
7.992592 87.807 160.5306
8.050510 87.905 159.6801
8.108847 88.002 158.8286
8.167607 88.098 157.9766
8.226793 88.193 157.1243
8.286408 88.286 156.2725
8.346454 88.378 155.4219
8.406936 88.469 154.5730
8.467856 88.559 153.7261
8.529218 88.647 152.8817
8.591024 88.734 152.0400
8.653278 88.819 151.2018
8.715983 88.904 150.3677
8.779143 88.987 149.5382
8.842760 89.069 148.7136
8.906839 89.151 147.8942
8.971381 89.231 147.0801
9.036392 89.310 146.2715
9.101873 89.389 145.4689
9.167829 89.467 144.6722
9.234263 89.544 143.8817
9.301178 89.621 143.0970
9.368578 89.697 142.3180
9.436467 89.773 141.5444
9.504847 89.848 140.7761
9.573723 89.924 140.0126
9.643099 89.999 139.2537
9.712976 90.074 138.4988
9.783361 90.149 137.7475
9.854255 90.224 136.9991
9.925663 90.299 136.2532
9.997588 90.373 135.5093
10.070035 90.448 134.7669
10.143007 90.522 134.0256
10.216507 90.596 133.2849
10.290540 90.670 132.5443
10.365109 90.743 131.8038
10.440219 90.816 131.0630
10.515873 90.889 130.3219
10.592076 90.961 129.5804
10.668830 91.032 128.8387
10.746141 91.102 128.0967
10.824012 91.172 127.3548
10.902447 91.241 126.6133
10.981451 91.309 125.8726
11.061027 91.375 125.1331
11.141180 91.441 124.3952
11.221913 91.506 123.6595
11.303232 91.570 122.9265
11.385140 91.633 122.1967
11.467641 91.695 121.4705
11.550741 91.756 120.7483
11.634442 91.816 120.0305
11.718750 91.875 119.3174
11.803669 91.934 118.6092
11.889203 91.992 117.9059
11.975357 92.050 117.2076
12.062136 92.107 116.5141
12.149543 92.164 115.8253
12.237583 92.221 115.1407
12.326262 92.277 114.4603
12.415583 92.334 113.7832
12.505552 92.390 113.1092
12.596172 92.446 112.4377
12.687449 92.502 111.7682
12.779387 92.558 111.1003
12.871992 92.613 110.4334
12.965268 92.669 109.7672
13.059220 92.724 109.1014
13.153852 92.779 108.4359
13.249170 92.833 107.7704
13.345179 92.887 107.1049
13.441884 92.941 106.4396
13.539289 92.994 105.7746
13.637401 93.046 105.1102
13.736223 93.097 104.4468
13.835761 93.148 103.7845
13.936021 93.198 103.1240
14.037007 93.247 102.4655
14.138725 93.296 101.8093
14.241180 93.344 101.1559
14.344377 93.391 100.5054
14.448323 93.438 99.8579
14.553021 93.484 99.2136
14.658478 93.530 98.5725
14.764700 93.576 97.9344
14.871691 93.621 97.2994
14.979457 93.665 96.6670
15.088005 93.710 96.0372
15.197339 93.754 95.4096
15.307465 93.798 94.7841
15.418389 93.841 94.1606
15.530117 93.884 93.5389
15.642655 93.926 92.9191
15.756008 93.968 92.3012
15.870182 94.010 91.6854
15.985184 94.051 91.0718
16.101019 94.091 90.4608
16.217694 94.131 89.8526
16.335214 94.171 89.2475
16.453586 94.209 88.6457
16.572815 94.248 88.0474
16.692909 94.286 87.4525
16.813872 94.324 86.8611
16.935713 94.361 86.2728
17.058436 94.398 85.6874
17.182048 94.436 85.1044
17.306556 94.473 84.5233
17.431967 94.509 83.9434
17.558286 94.546 83.3643
17.685521 94.582 82.7854
17.813677 94.618 82.2065
17.942762 94.653 81.6274
18.072783 94.687 81.0483
18.203746 94.721 80.4694
18.335658 94.754 79.8912
18.468526 94.786 79.3146
18.602356 94.816 78.7405
18.737156 94.846 78.1699
18.872934 94.875 77.6038
19.009695 94.903 77.0431
19.147447 94.930 76.4885
19.286197 94.956 75.9404
19.425953 94.983 75.3990
19.566721 95.009 74.8638
19.708510 95.035 74.3342
19.851326 95.062 73.8090
19.995177 95.089 73.2869
20.140070 95.117 72.7664
20.286013 95.145 72.2457
20.433014 95.173 71.7236
20.581080 95.201 71.1985
20.730219 95.230 70.6700
20.880439 95.258 70.1373
21.031747 95.285 69.6010
21.184152 95.312 69.0614
21.337661 95.338 68.5201
21.492282 95.362 67.9785
21.648024 95.385 67.4387
21.804895 95.407 66.9025
21.962902 95.428 66.3718
22.122054 95.448 65.8484
22.282360 95.467 65.3333
22.443827 95.486 64.8271
22.606464 95.505 64.3299
22.770280 95.525 63.8410
22.935283 95.546 63.3593
23.101481 95.567 62.8832
23.268884 95.589 62.4111
23.437500 95.612 61.9411
23.607338 95.636 61.4718
23.778406 95.660 61.0020
23.950714 95.685 60.5311
24.124271 95.710 60.0590
24.299086 95.735 59.5861
24.475167 95.759 59.1131
24.652524 95.783 58.6407
24.831166 95.807 58.1700
25.011103 95.830 57.7015
25.192344 95.852 57.2354
25.374898 95.875 56.7717
25.558775 95.896 56.3101
25.743984 95.918 55.8502
25.930536 95.938 55.3917
26.118439 95.958 54.9347
26.307704 95.977 54.4799
26.498341 95.994 54.0286
26.690359 96.010 53.5824
26.883768 96.025 53.1433
27.078579 96.038 52.7128
27.274801 96.051 52.2916
27.472446 96.063 51.8793
27.671522 96.076 51.4741
27.872042 96.089 51.0724
28.074014 96.103 50.6701
28.277450 96.118 50.2626
28.482360 96.132 49.8462
28.688755 96.146 49.4186
28.896645 96.158 48.9801
29.106042 96.167 48.5334
29.316957 96.173 48.0838
29.529400 96.177 47.6376
29.743382 96.178 47.2015
29.958915 96.177 46.7805
30.176009 96.176 46.3770
30.394677 96.176 45.9892
30.614929 96.179 45.6121
30.836778 96.185 45.2372
31.060234 96.195 44.8549
31.285309 96.208 44.4561
31.512015 96.222 44.0344
31.740364 96.236 43.5879
31.970368 96.249 43.1195
32.202039 96.259 42.6368
32.435388 96.266 42.1509
32.670428 96.269 41.6742
32.907171 96.270 41.2189
33.145630 96.269 40.7945
33.385817 96.269 40.4059
33.627745 96.273 40.0530
33.871425 96.282 39.7295
34.116871 96.298 39.4239
34.364096 96.321 39.1208
34.613113 96.351 38.8039
34.863934 96.386 38.4582
35.116572 96.424 38.0739
35.371041 96.461 37.6487
35.627354 96.494 37.1895
35.885525 96.520 36.7117
36.145566 96.539 36.2363
36.407492 96.550 35.7856
36.671316 96.557 35.3773
36.937051 96.562 35.0184
37.204712 96.570 34.7027
37.474313 96.584 34.4108
37.745867 96.603 34.1153
38.019389 96.626 33.7894
38.294893 96.649 33.4164
38.572394 96.667 32.9966
38.851905 96.674 32.5485
39.133442 96.670 32.1047
39.417019 96.655 31.7018
39.702651 96.633 31.3683
39.990353 96.612 31.1144
40.280140 96.597 30.9262
40.572026 96.594 30.7687
40.866028 96.604 30.5970
41.162160 96.623 30.3712
41.460438 96.645 30.0685
41.760877 96.665 29.6899
42.063494 96.676 29.2569
42.368303 96.678 28.8022
42.675322 96.671 28.3581
42.984565 96.658 27.9469
43.296048 96.642 27.5764
43.609789 96.628 27.2415
43.925804 96.616 26.9293
44.244108 96.605 26.6276
44.564719 96.596 26.3290
44.887654 96.587 26.0337
45.212928 96.576 25.7471
45.540560 96.564 25.4771
45.870565 96.551 25.2307
46.202962 96.539 25.0116
46.537768 96.529 24.8187
46.875000 96.522 24.6459
47.214676 96.522 24.4814
47.556813 96.526 24.3098
47.901429 96.536 24.1144
48.248542 96.550 23.8820
48.598171 96.565 23.6059
48.950334 96.580 23.2873
49.305048 96.592 22.9332
49.662333 96.601 22.5533
50.022206 96.608 22.1558
50.384688 96.612 21.7461
50.749796 96.614 21.3273
51.117550 96.615 20.9023
51.487969 96.613 20.4755
51.861072 96.610 20.0527
52.236879 96.604 19.6398
52.615409 96.598 19.2417
52.996681 96.591 18.8607
53.380717 96.583 18.4976
53.767536 96.576 18.1514
54.157158 96.568 17.8207
54.549603 96.560 17.5030
54.944892 96.552 17.1960
55.343045 96.543 16.8976
55.744084 96.533 16.6072
56.148028 96.521 16.3245
56.554900 96.509 16.0486
56.964720 96.495 15.7766
57.377510 96.481 15.5034
57.793291 96.467 15.2233
58.212085 96.453 14.9323
58.633914 96.438 14.6290
59.058799 96.422 14.3156
59.486764 96.405 13.9965
59.917829 96.387 13.6771
60.352019 96.371 13.3622
60.789354 96.356 13.0547
61.229859 96.345 12.7551
61.673556 96.336 12.4626
62.120468 96.331 12.1772
62.570618 96.329 11.9008
63.024031 96.330 11.6361
63.480729 96.333 11.3851
63.940736 96.339 11.1471
64.404077 96.347 10.9196
64.870776 96.356 10.7017
65.340856 96.365 10.4955
65.814343 96.373 10.3046
66.291261 96.381 10.1300
66.771635 96.388 9.9681
67.255489 96.395 9.8118
67.742850 96.402 9.6539
68.233743 96.406 9.4897
68.728193 96.409 9.3160
69.226226 96.409 9.1306
69.727867 96.406 8.9329
70.233144 96.399 8.7252
70.742083 96.388 8.5135
71.254709 96.373 8.3043
71.771050 96.356 8.1004
72.291132 96.337 7.8995
72.814984 96.319 7.6960
73.342631 96.299 7.4854
73.874102 96.280 7.2656
74.409424 96.259 7.0371
74.948626 96.238 6.8022
75.491734 96.216 6.5657
76.038779 96.194 6.3345
76.589787 96.173 6.1140
77.144788 96.156 5.9016
77.703811 96.145 5.6865
78.266885 96.137 5.4567
78.834039 96.132 5.2078
79.405303 96.128 4.9464
79.980706 96.123 4.6841
80.560280 96.118 4.4299
81.144053 96.113 4.1862
81.732056 96.108 3.9523
82.324320 96.102 3.7283
82.920876 96.095 3.5157
83.521755 96.086 3.3152
84.126988 96.077 3.1235
84.736607 96.068 2.9346
85.350643 96.057 2.7432
85.969129 96.045 2.5472
86.592097 96.032 2.3478
87.219579 96.019 2.1460
87.851608 96.006 1.9412
88.488217 95.993 1.7311
89.129439 95.980 1.5146
89.775308 95.967 1.2932
90.425856 95.954 1.0699
91.081119 95.941 0.8480
91.741131 95.926 0.6300
92.405925 95.912 0.4167
93.075536 95.896 0.2077
93.750000 95.880 0.0018
94.429351 95.863 -0.2016
95.113625 95.846 -0.4027
95.802858 95.828 -0.6017
96.497085 95.810 -0.7982
97.196342 95.793 -0.9909
97.900667 95.777 -1.1794
98.610096 95.762 -1.3663
99.324665 95.748 -1.5551
100.044413 95.735 -1.7468
100.769376 95.722 -1.9397
101.499592 95.709 -2.1307
102.235100 95.694 -2.3181
102.975938 95.679 -2.5021
103.722144 95.663 -2.6838
104.473757 95.646 -2.8640
105.230817 95.628 -3.0422
105.993363 95.610 -3.2186
106.761435 95.591 -3.3942
107.535072 95.573 -3.5701
108.314315 95.555 -3.7465
109.099206 95.537 -3.9225
109.889783 95.519 -4.0974
110.686090 95.501 -4.2696
111.488167 95.482 -4.4373
112.296056 95.463 -4.5998
113.109800 95.443 -4.7578
113.929440 95.422 -4.9136
114.755020 95.401 -5.0704
115.586582 95.381 -5.2318
116.424170 95.360 -5.4010
117.267827 95.339 -5.5789
118.117598 95.317 -5.7615
118.973527 95.295 -5.9424
119.835658 95.272 -6.1159
120.704037 95.250 -6.2806
121.578708 95.229 -6.4387
122.459718 95.207 -6.5938
123.347111 95.186 -6.7476
124.240935 95.164 -6.9000
125.141236 95.140 -7.0496
126.048061 95.117 -7.1961
126.961458 95.093 -7.3398
127.881473 95.069 -7.4806
128.808154 95.045 -7.6174
129.741551 95.022 -7.7489
130.681712 94.999 -7.8748
131.628686 94.976 -7.9946
132.582521 94.952 -8.1083
133.543269 94.928 -8.2173
134.510979 94.903 -8.3251
135.485701 94.878 -8.4362
136.467486 94.853 -8.5547
137.456386 94.827 -8.6837
138.452451 94.801 -8.8226
139.455735 94.773 -8.9683
140.466288 94.745 -9.1165
141.484165 94.716 -9.2630
142.509418 94.688 -9.4056
143.542100 94.660 -9.5437
144.582265 94.632 -9.6782
145.629968 94.605 -9.8101
146.685262 94.579 -9.9390
147.748204 94.552 -10.0623
148.818849 94.525 -10.1770
149.897251 94.498 -10.2833
150.983469 94.470 -10.3850
152.077557 94.442 -10.4862
153.179574 94.413 -10.5880
154.289576 94.382 -10.6879
155.407622 94.351 -10.7797
156.533770 94.318 -10.8571
157.668078 94.286 -10.9199
158.810606 94.254 -10.9752
159.961413 94.222 -11.0320
161.120559 94.191 -11.0957
162.288105 94.159 -11.1670
163.464112 94.127 -11.2430
164.648640 94.095 -11.3188
165.841752 94.061 -11.3887
167.043510 94.026 -11.4460
168.253976 93.989 -11.4849
169.473213 93.948 -11.5012
170.701286 93.905 -11.4950
171.938258 93.860 -11.4700
173.184194 93.816 -11.4294
174.439158 93.774 -11.3740
175.703216 93.734 -11.3027
176.976434 93.699 -11.2150
178.258878 93.666 -11.1085
179.550615 93.637 -10.9800
180.851713 93.610 -10.8305
182.162239 93.590 -10.6666
183.482262 93.575 -10.4983
184.811850 93.569 -10.3362
186.151073 93.569 -10.1923
187.500000 93.576 -10.0781
188.858702 93.585 -10.0039
190.227250 93.596 -9.9755
191.605715 93.605 -9.9947
192.994169 93.614 -10.0592
194.392685 93.621 -10.1615
195.801334 93.625 -10.2896
197.220191 93.626 -10.4297
198.649330 93.622 -10.5718
200.088825 93.613 -10.7134
201.538751 93.599 -10.8569
202.999184 93.581 -11.0043
204.470200 93.560 -11.1547
205.951875 93.537 -11.3040
207.444287 93.514 -11.4473
208.947514 93.490 -11.5793
210.461634 93.464 -11.6970
211.986726 93.436 -11.8009
213.522869 93.407 -11.8939
215.070144 93.377 -11.9786
216.628631 93.345 -12.0550
218.198411 93.314 -12.1201
219.779567 93.282 -12.1721
221.372180 93.250 -12.2125
222.976334 93.218 -12.2451
224.592112 93.185 -12.2748
226.219600 93.152 -12.3061
227.858880 93.118 -12.3411
229.510039 93.085 -12.3779
231.173164 93.053 -12.4109
232.848340 93.021 -12.4335
234.535655 92.990 -12.4408
236.235197 92.959 -12.4329
237.947054 92.928 -12.4147
239.671317 92.897 -12.3926
241.408074 92.865 -12.3694
243.157416 92.830 -12.3439
244.919435 92.795 -12.3123
246.694223 92.760 -12.2709
248.481871 92.726 -12.2189
250.282473 92.695 -12.1586
252.096123 92.666 -12.0960
253.922915 92.639 -12.0382
255.762945 92.613 -11.9899
257.616309 92.586 -11.9505
259.483103 92.559 -11.9158
261.363424 92.531 -11.8787
263.257372 92.503 -11.8319
265.165043 92.474 -11.7737
267.086538 92.444 -11.7083
269.021957 92.414 -11.6410
270.971401 92.383 -11.5770
272.934972 92.353 -11.5201
274.912771 92.323 -11.4698
276.904902 92.295 -11.4235
278.911469 92.271 -11.3798
280.932577 92.249 -11.3394
282.968330 92.230 -11.3022
285.018835 92.209 -11.2631
287.084199 92.185 -11.2144
289.164530 92.156 -11.1509
291.259935 92.123 -11.0725
293.370525 92.086 -10.9825
295.496408 92.050 -10.8857
297.637697 92.017 -10.7876
299.794503 91.987 -10.6920
301.966937 91.959 -10.6014
304.155114 91.933 -10.5184
306.359147 91.909 -10.4429
308.579152 91.884 -10.3697
310.815244 91.860 -10.2925
313.067539 91.835 -10.2100
315.336156 91.810 -10.1241
317.621211 91.784 -10.0349
319.922826 91.759 -9.9397
322.241118 91.734 -9.8365
324.576210 91.709 -9.7258
326.928223 91.685 -9.6093
329.297280 91.661 -9.4881
331.683504 91.637 -9.3643
334.087019 91.613 -9.2405
336.507952 91.589 -9.1186
338.946427 91.566 -8.9969
341.402572 91.542 -8.8739
343.876516 91.517 -8.7495
346.368387 91.491 -8.6246
348.878315 91.464 -8.4997
351.406431 91.438 -8.3759
353.952867 91.411 -8.2546
356.517756 91.385 -8.1359
359.101230 91.360 -8.0186
361.703426 91.334 -7.9015
364.324478 91.309 -7.7847
366.964523 91.284 -7.6666
369.623699 91.259 -7.5437
372.302145 91.236 -7.4123
375.000000 91.213 -7.2709
377.717405 91.191 -7.1199
380.454501 91.169 -6.9600
383.211431 91.147 -6.7918
385.988339 91.124 -6.6165
388.785369 91.099 -6.4366
391.602668 91.075 -6.2552
394.440383 91.051 -6.0747
397.298660 91.028 -5.8958
400.177650 91.006 -5.7184
403.077502 90.984 -5.5417
405.998368 90.963 -5.3651
408.940400 90.942 -5.1880
411.903750 90.922 -5.0111
414.888575 90.902 -4.8350
417.895028 90.882 -4.6591
420.923268 90.864 -4.4796
423.973452 90.846 -4.2910
427.045738 90.828 -4.0896
430.140287 90.810 -3.8766
433.257261 90.790 -3.6584
436.396822 90.769 -3.4435
439.559133 90.748 -3.2361
442.744360 90.727 -3.0327
445.952668 90.707 -2.8255
449.184225 90.690 -2.6081
452.439199 90.673 -2.3802
455.717760 90.658 -2.1458
459.020079 90.644 -1.9102
462.346327 90.631 -1.6779
465.696680 90.619 -1.4514
469.071310 90.608 -1.2319
472.470394 90.599 -1.0189
475.894109 90.590 -0.8113
479.342634 90.581 -0.6086
482.816148 90.573 -0.4112
486.314833 90.563 -0.2193
489.838871 90.553 -0.0322
493.388445 90.542 0.1514
496.963741 90.530 0.3337
500.564945 90.517 0.5170
504.192245 90.503 0.7036
507.845830 90.489 0.8951
511.525890 90.475 1.0918
515.232618 90.460 1.2933
518.966206 90.446 1.4991
522.726849 90.431 1.7081
526.514743 90.416 1.9201
530.330086 90.401 2.1363
534.173076 90.386 2.3570
538.043915 90.372 2.5823
541.942803 90.357 2.8126
545.869944 90.343 3.0480
549.825542 90.330 3.2869
553.809805 90.317 3.5278
557.822939 90.303 3.7707
561.865154 90.290 4.0170
565.936660 90.277 4.2679
570.037671 90.264 4.5229
574.168399 90.252 4.7805
578.329060 90.241 5.0383
582.519870 90.231 5.2949
586.741049 90.220 5.5508
590.992817 90.209 5.8084
595.275394 90.199 6.0714
599.589005 90.188 6.3425
603.933874 90.178 6.6220
608.310228 90.168 6.9078
612.718295 90.159 7.1973
617.158304 90.150 7.4883
621.630488 90.143 7.7808
626.135079 90.135 8.0763
630.672311 90.128 8.3769
635.242423 90.121 8.6833
639.845651 90.113 8.9943
644.482237 90.105 9.3069
649.152421 90.097 9.6190
653.856447 90.090 9.9310
658.594560 90.083 10.2458
663.367008 90.077 10.5656
668.174039 90.071 10.8894
673.015903 90.066 11.2148
677.892854 90.062 11.5399
682.805145 90.058 11.8660
687.753032 90.054 12.1968
692.736774 90.051 12.5347
697.756631 90.048 12.8799
702.812863 90.046 13.2311
707.905735 90.045 13.5867
713.035511 90.045 13.9460
718.202461 90.046 14.3088
723.406852 90.048 14.6748
728.648956 90.051 15.0448
733.929047 90.056 15.4199
739.247399 90.061 15.7999
744.604290 90.068 16.1831
750.000000 90.075 16.5679
755.434809 90.082 16.9530
760.909001 90.090 17.3386
766.422861 90.098 17.7258
771.976677 90.107 18.1160
777.570739 90.117 18.5099
783.205337 90.128 18.9069
788.880766 90.141 19.3056
794.597321 90.155 19.7056
800.355301 90.170 20.1077
806.155005 90.186 20.5126
811.996736 90.204 20.9209
817.880799 90.223 21.3328
823.807501 90.243 21.7485
829.777150 90.264 22.1682
835.790057 90.285 22.5900
841.846536 90.308 23.0121
847.946903 90.333 23.4330
854.091476 90.359 23.8524
860.280575 90.387 24.2707
866.514523 90.416 24.6883
872.793644 90.446 25.1058
879.118267 90.477 25.5233
885.488720 90.509 25.9405
891.905336 90.543 26.3567
898.368450 90.578 26.7707
904.878398 90.614 27.1816
911.435520 90.652 27.5890
918.040157 90.692 27.9930
924.692655 90.733 28.3936
931.393359 90.777 28.7906
938.142619 90.821 29.1837
944.940787 90.867 29.5723
951.788218 90.915 29.9561
958.685268 90.964 30.3351
965.632296 91.014 30.7089
972.629666 91.066 31.0766
979.677741 91.119 31.4373
986.776890 91.174 31.7903
993.927482 91.229 32.1354
1001.129891 91.286 32.4722
1008.384491 91.344 32.8005
1015.691660 91.403 33.1201
1023.051781 91.462 33.4307
1030.465236 91.523 33.7319
1037.932411 91.584 34.0233
1045.453698 91.646 34.3046
1053.029486 91.708 34.5760
1060.660172 91.772 34.8376
1068.346153 91.835 35.0894
1076.087829 91.899 35.3315
1083.885605 91.963 35.5638
1091.739887 92.028 35.7857
1099.651084 92.093 35.9970
1107.619609 92.158 36.1978
1115.645878 92.223 36.3885
1123.730308 92.288 36.5706
1131.873321 92.353 36.7453
1140.075341 92.418 36.9130
1148.336797 92.484 37.0732
1156.658119 92.548 37.2254
1165.039741 92.613 37.3695
1173.482099 92.677 37.5064
1181.985634 92.741 37.6370
1190.550789 92.805 37.7622
1199.178011 92.868 37.8826
1207.867749 92.931 37.9984
1216.620457 92.994 38.1092
1225.436590 93.056 38.2144
1234.316609 93.118 38.3134
1243.260976 93.180 38.4059
1252.270157 93.242 38.4925
1261.344623 93.304 38.5736
1270.484846 93.366 38.6489
1279.691303 93.428 38.7182
1288.964474 93.490 38.7820
1298.304842 93.551 38.8409
1307.712894 93.612 38.8957
1317.189120 93.673 38.9465
1326.734016 93.734 38.9934
1336.348077 93.795 39.0362
1346.031806 93.855 39.0745
1355.785708 93.915 39.1074
1365.610290 93.975 39.1345
1375.506065 94.035 39.1550
1385.473549 94.094 39.1688
1395.513261 94.153 39.1763
1405.625726 94.211 39.1780
1415.811469 94.269 39.1746
1426.071023 94.326 39.1667
1436.404921 94.382 39.1545
1446.813703 94.438 39.1379
1457.297912 94.494 39.1168
1467.858093 94.548 39.0910
1478.494798 94.603 39.0612
1489.208581 94.656 39.0279
1500.000000 94.709 38.9920
1510.869618 94.760 38.9541
1521.818002 94.812 38.9147
1532.845723 94.862 38.8740
1543.953355 94.912 38.8324
1555.141477 94.960 38.7904
1566.410674 95.009 38.7485
1577.761531 95.056 38.7072
1589.194642 95.103 38.6668
1600.710601 95.150 38.6277
1612.310010 95.196 38.5900
1623.993473 95.242 38.5538
1635.761599 95.287 38.5193
1647.615002 95.332 38.4865
1659.554299 95.376 38.4555
1671.580114 95.421 38.4267
1683.693072 95.465 38.4001
1695.893807 95.510 38.3758
1708.182952 95.554 38.3538
1720.561150 95.599 38.3340
1733.029045 95.644 38.3166
1745.587288 95.689 38.3011
1758.236533 95.735 38.2872
1770.977440 95.781 38.2746
1783.810673 95.827 38.2632
1796.736900 95.873 38.2529
1809.756796 95.920 38.2439
1822.871040 95.967 38.2356
1836.080315 96.015 38.2277
1849.385310 96.063 38.2195
1862.786718 96.112 38.2111
1876.285239 96.161 38.2021
1889.881575 96.211 38.1925
1903.576436 96.262 38.1821
1917.370535 96.314 38.1704
1931.264593 96.366 38.1573
1945.259332 96.419 38.1424
1959.355483 96.473 38.1249
1973.553781 96.528 38.1041
1987.854965 96.583 38.0795
2002.259781 96.640 38.0505
2016.768981 96.697 38.0171
2031.383320 96.755 37.9789
2046.103561 96.813 37.9360
2060.930471 96.873 37.8883
2075.864823 96.933 37.8354
2090.907395 96.994 37.7769
2106.058972 97.056 37.7120
2121.320344 97.118 37.6404
2136.692305 97.181 37.5615
2152.175658 97.245 37.4750
2167.771210 97.309 37.3806
2183.479774 97.374 37.2780
2199.302169 97.440 37.1666
2215.239219 97.507 37.0461
2231.291755 97.574 36.9160
2247.460615 97.642 36.7758
2263.746641 97.711 36.6253
2280.150683 97.779 36.4638
2296.673595 97.848 36.2906
2313.316238 97.918 36.1055
2330.079481 97.987 35.9077
2346.964198 98.057 35.6969
2363.971268 98.127 35.4723
2381.101578 98.197 35.2334
2398.356022 98.267 34.9799
2415.735498 98.337 34.7115
2433.240913 98.406 34.4283
2450.873180 98.476 34.1301
2468.633217 98.544 33.8163
2486.521951 98.612 33.4867
2504.540314 98.680 33.1408
2522.689246 98.746 32.7786
2540.969692 98.812 32.3998
2559.382606 98.876 32.0044
2577.928947 98.940 31.5921
2596.609683 99.002 31.1629
2615.425787 99.062 30.7166
2634.378241 99.121 30.2531
2653.468031 99.178 29.7726
2672.696154 99.233 29.2753
2692.063613 99.285 28.7614
2711.571415 99.336 28.2313
2731.220579 99.384 27.6854
2751.012130 99.429 27.1241
2770.947098 99.471 26.5476
2791.026522 99.511 25.9566
2811.251451 99.547 25.3517
2831.622938 99.580 24.7337
2852.142045 99.609 24.1036
2872.809842 99.634 23.4625
2893.627406 99.656 22.8113
2914.595823 99.674 22.1516
2935.716186 99.688 21.4843
2956.989596 99.698 20.8106
2978.417161 99.703 20.1318
3000.000000 99.704 19.4492
3021.739237 99.701 18.7640
3043.636005 99.693 18.0780
3065.691446 99.680 17.3932
3087.906710 99.663 16.7115
3110.282955 99.641 16.0349
3132.821347 99.614 15.3651
3155.523062 99.583 14.7042
3178.389283 99.547 14.0539
3201.421202 99.507 13.4160
3224.620020 99.462 12.7921
3247.986946 99.413 12.1843
3271.523198 99.360 11.5942
3295.230004 99.304 11.0231
3319.108599 99.244 10.4726
3343.160228 99.180 9.9438
3367.386145 99.114 9.4384
3391.787613 99.045 8.9575
3416.365904 98.974 8.5023
3441.122300 98.900 8.0732
3466.058091 98.825 7.6703
3491.174576 98.749 7.2933
3516.473066 98.671 6.9413
3541.954880 98.593 6.6137
3567.621345 98.513 6.3095
3593.473800 98.434 6.0281
3619.513592 98.354 5.7690
3645.742080 98.273 5.5320
3672.160630 98.192 5.3170
3698.770620 98.112 5.1239
3725.573436 98.031 4.9525
3752.570477 97.950 4.8027
3779.763150 97.870 4.6740
3807.152872 97.791 4.5652
3834.741071 97.712 4.4752
3862.529185 97.634 4.4025
3890.518664 97.557 4.3458
3918.710966 97.480 4.3036
3947.107561 97.404 4.2755
3975.709929 97.329 4.2611
4004.519563 97.254 4.2607
4033.537962 97.179 4.2752
4062.766641 97.104 4.3054
4092.207123 97.030 4.3522
4121.860942 96.956 4.4166
4151.729646 96.883 4.4991
4181.814790 96.811 4.6003
4212.117944 96.740 4.7197
4242.640687 96.670 4.8571
4273.384610 96.601 5.0116
4304.351317 96.534 5.1826
4335.542421 96.469 5.3690
4366.959549 96.406 5.5694
4398.604338 96.344 5.7824
4430.478438 96.285 6.0065
4462.583511 96.228 6.2403
4494.921231 96.174 6.4826
4527.493283 96.121 6.7322
4560.301365 96.071 6.9878
4593.347189 96.023 7.2480
4626.632476 95.977 7.5115
4660.158962 95.932 7.7774
4693.928395 95.890 8.0452
4727.942535 95.849 8.3146
4762.203156 95.809 8.5862
4796.712043 95.772 8.8602
4831.470996 95.735 9.1372
4866.481826 95.700 9.4175
4901.746360 95.668 9.7012
4937.266434 95.637 9.9877
4973.043902 95.608 10.2753
5009.080628 95.582 10.5618
5045.378492 95.558 10.8439
5081.939384 95.537 11.1187
5118.765212 95.518 11.3827
5155.857894 95.501 11.6332
5193.219366 95.484 11.8681
5230.851574 95.469 12.0865
5268.756481 95.452 12.2888
5306.936062 95.435 12.4763
5345.392309 95.417 12.6520
5384.127225 95.396 12.8196
5423.142830 95.372 12.9838
5462.441159 95.346 13.1497
5502.024259 95.317 13.3225
5541.894195 95.285 13.5073
5582.053045 95.251 13.7086
5622.502902 95.215 13.9312
5663.245876 95.178 14.1786
5704.284090 95.139 14.4539
5745.619684 95.100 14.7589
5787.254813 95.062 15.0949
5829.191647 95.024 15.4623
5871.432373 94.988 15.8611
5913.979192 94.954 16.2910
5956.834323 94.922 16.7516
6000.000000 94.894 17.2424
6043.478473 94.869 17.7630
6087.272010 94.848 18.3127
6131.382892 94.833 18.8903
6175.813420 94.822 19.4943
6220.565910 94.818 20.1225
6265.642695 94.820 20.7727
6311.046124 94.830 21.4421
6356.778566 94.847 22.1276
6402.842404 94.872 22.8259
6449.240040 94.906 23.5332
6495.973891 94.949 24.2462
6543.046396 95.001 24.9618
6590.460007 95.064 25.6766
6638.217197 95.136 26.3869
6686.320456 95.220 27.0888
6734.772290 95.315 27.7779
6783.575226 95.423 28.4496
6832.731809 95.543 29.0991
6882.244600 95.677 29.7201
6932.116181 95.826 30.3058
6982.349153 95.989 30.8477
7032.946133 96.168 31.3356
7083.909760 96.364 31.7573
7135.242690 96.577 32.0992
7186.947600 96.807 32.3463
7239.027185 97.055 32.4828
7291.484160 97.319 32.4938
7344.321260 97.601 32.3646
7397.541239 97.900 32.0778
7451.146872 98.218 31.6074
7505.140954 98.553 30.9167
7559.526299 98.902 29.9651
7614.305743 99.262 28.7137
7669.482141 99.625 27.1292
7725.058371 99.983 25.1853
7781.037328 100.327 22.8643
7837.421932 100.646 20.1593
7894.215122 100.930 17.0770
7951.419859 101.165 13.6409
8009.039125 101.341 9.8936
8067.075924 101.445 5.8985
8125.533282 101.468 1.7402
8184.414245 101.402 -2.4765
8243.721885 101.246 -6.6287
8303.459292 101.001 -10.5811
8363.629581 100.675 -14.1970
8424.235888 100.288 -17.3596
8485.281374 99.868 -20.0076
8546.769221 99.450 -22.1774
8608.702634 99.064 -24.0200
8671.084842 98.726 -25.7593
8733.919097 98.426 -27.5977
8797.208675 98.137 -29.6338
8860.956876 97.828 -31.8372
8925.167022 97.474 -34.0851
8989.842461 97.068 -36.2296
9054.986566 96.614 -38.1498
9120.602731 96.123 -39.7745
9186.694378 95.610 -41.0795
9253.264952 95.087 -42.0757
9320.317925 94.565 -42.7950
9387.856790 94.051 -43.2786
9455.885071 93.551 -43.5689
9524.406312 93.065 -43.7054
9593.424086 92.595 -43.7220
9662.941992 92.139 -43.6465
9732.963653 91.696 -43.4999
9803.492719 91.264 -43.2975
9874.532869 90.840 -43.0485
9946.087805 90.422 -42.7573
10018.161257 90.009 -42.4247
10090.756983 89.600 -42.0504
10163.878768 89.194 -41.6336
10237.530423 88.789 -41.1753
10311.715789 88.387 -40.6763
10386.438732 87.985 -40.1362
10461.703149 87.582 -39.5530
10537.512962 87.179 -38.9226
10613.872125 86.775 -38.2400
10690.784618 86.370 -37.4991
10768.254450 85.963 -36.6935
10846.285661 85.557 -35.8168
10924.882318 85.150 -34.8632
11004.048518 84.743 -33.8280
11083.788390 84.338 -32.7074
11164.106090 83.936 -31.4980
11245.005805 83.536 -30.1969
11326.491752 83.141 -28.8013
11408.568180 82.752 -27.3094
11491.239368 82.371 -25.7216
11574.509626 82.000 -24.0411
11658.383294 81.640 -22.2755
11742.864745 81.294 -20.4362
11827.958384 80.963 -18.5369
11913.668646 80.647 -16.5895
12000.000000 80.347 -14.6008
12086.956947 80.063 -12.5734
12174.544019 79.796 -10.5080
12262.765784 79.546 -8.4070
12351.626840 79.316 -6.2765
12441.131819 79.107 -4.1263
12531.285389 78.919 -1.9697
12622.092249 78.754 0.1773
12713.557132 78.611 2.2973
12805.684808 78.491 4.3726
12898.480079 78.393 6.3858
12991.947783 78.316 8.3213
13086.092792 78.259 10.1650
13180.920015 78.219 11.9057
13276.434395 78.195 13.5345
13372.640911 78.185 15.0461
13469.544580 78.187 16.4377
13567.150452 78.198 17.7102
13665.463617 78.217 18.8677
13764.489200 78.242 19.9166
13864.232362 78.272 20.8650
13964.698305 78.306 21.7214
14065.892266 78.345 22.4936
14167.819519 78.389 23.1865
14270.485380 78.439 23.8002
14373.895200 78.498 24.3292
14478.054370 78.564 24.7619
14582.968320 78.640 25.0819
14688.642520 78.725 25.2693
14795.082478 78.819 25.3008
14902.293745 78.921 25.1492
15010.281908 79.029 24.7830
15119.052599 79.143 24.1661
15228.611486 79.257 23.2592
15338.964283 79.367 22.0219
15450.116741 79.463 20.4175
15562.074656 79.535 18.4196
15674.843864 79.570 16.0201
15788.430244 79.549 13.2386
15902.839718 79.458 10.1298
16018.078250 79.277 6.7905
16134.151848 78.996 3.3633
16251.066563 78.606 0.0356
16368.828491 78.114 -2.9774
16487.443769 77.543 -5.4771
16606.918584 76.938 -7.3554
16727.259161 76.364 -8.6783
16848.471777 75.892 -9.7375
16970.562748 75.572 -11.0166
17093.538442 75.414 -13.0511
17217.405268 75.370 -16.2507
17342.169684 75.360 -20.7849
17467.838194 75.299 -26.5717
17594.417350 75.121 -33.3376
17721.913751 74.786 -40.7057
17850.334044 74.288 -48.2831
17979.684923 73.643 -55.7265
18109.973131 72.884 -62.7758
18241.205462 72.053 -69.2630
18373.388756 71.199 -75.1057
18506.529905 70.369 -80.2964
18640.635849 69.607 -84.8903
18775.713581 68.950 -88.9931
18911.770141 68.424 -92.7473
19048.812624 68.044 -96.3183
19186.848172 67.808 -99.8726
19325.883983 67.701 -103.5437
19465.927305 67.694 -107.3778
19606.985439 67.749 -111.2725
19749.065738 67.829 -114.9331
19892.175609 67.900 -117.8837
20036.322514 67.940 -119.5674
