* Measurement data measured by REW V5.31.3
* Source: Headset (CX31993 HIFI AUDIO), MICROPHONE (Master Volume), R, volume: 0.400
* Format: 256k Log Swept Sine, 1 sweep at -12.0 dBFS with no timing reference
* Dated: 03 3, 25 6:29:31 PM
* REW Settings:
*  C-weighting compensation: Off
*  Target level: 75.0 dB
* Note: ; 
* Measurement: Melobuds Pro FLAT R
* Smoothing: 1/12 octave
* Frequency Step: 96 ppo
* Start Frequency: 0.36621094 Hz
*
* Freq(Hz) SPL(dB) Phase(degrees)
0.366211 51.066 75.4505
0.368865 51.093 75.3167
0.371538 51.132 75.1185
0.374230 51.181 74.8731
0.376942 51.236 74.5956
0.379673 51.295 74.2970
0.382424 51.356 73.9845
0.385196 51.419 73.6626
0.387987 51.482 73.3338
0.390798 51.547 72.9997
0.393630 51.612 72.6612
0.396483 51.678 72.3187
0.399356 51.744 71.9726
0.402250 51.811 71.6230
0.405165 51.878 71.2700
0.408101 51.946 70.9139
0.411058 52.014 70.5546
0.414037 52.083 70.1924
0.417037 52.152 69.8273
0.420059 52.222 69.4595
0.423103 52.292 69.0890
0.426169 52.363 68.7159
0.429257 52.434 68.3403
0.432368 52.506 67.9625
0.435501 52.578 67.5823
0.438656 52.651 67.2000
0.441835 52.724 66.8157
0.445037 52.798 66.4295
0.448262 52.873 66.0414
0.451510 52.948 65.6516
0.454782 53.023 65.2601
0.458077 53.099 64.8671
0.461397 53.176 64.4726
0.464740 53.253 64.0768
0.468108 53.331 63.6797
0.471500 53.409 63.2814
0.474917 53.488 62.8820
0.478358 53.567 62.4816
0.481825 53.647 62.0802
0.485316 53.728 61.6780
0.488833 53.809 61.2750
0.492375 53.891 60.8712
0.495943 53.973 60.4668
0.499537 54.056 60.0617
0.503157 54.139 59.6561
0.506803 54.223 59.2500
0.510475 54.308 58.8434
0.514175 54.394 58.4364
0.517900 54.480 58.0290
0.521653 54.566 57.6213
0.525434 54.653 57.2133
0.529241 54.741 56.8049
0.533076 54.830 56.3963
0.536939 54.919 55.9874
0.540830 55.009 55.5783
0.544749 55.099 55.1690
0.548696 55.190 54.7594
0.552673 55.282 54.3495
0.556677 55.375 53.9394
0.560711 55.468 53.5291
0.564774 55.561 53.1185
0.568867 55.656 52.7076
0.572989 55.751 52.2964
0.577141 55.847 51.8848
0.581324 55.943 51.4729
0.585536 56.041 51.0605
0.589779 56.139 50.6477
0.594053 56.237 50.2344
0.598358 56.337 49.8206
0.602694 56.437 49.4061
0.607061 56.538 48.9910
0.611460 56.639 48.5752
0.615891 56.741 48.1585
0.620354 56.844 47.7411
0.624849 56.948 47.3226
0.629377 57.053 46.9032
0.633938 57.158 46.4827
0.638532 57.264 46.0610
0.643159 57.371 45.6381
0.647819 57.479 45.2138
0.652514 57.587 44.7880
0.657242 57.696 44.3607
0.662005 57.806 43.9318
0.666802 57.917 43.5011
0.671634 58.028 43.0685
0.676501 58.141 42.6340
0.681403 58.254 42.1974
0.686341 58.368 41.7586
0.691314 58.483 41.3175
0.696324 58.598 40.8740
0.701370 58.714 40.4280
0.706452 58.831 39.9795
0.711571 58.948 39.5284
0.716728 59.065 39.0749
0.721921 59.182 38.6191
0.727153 59.297 38.1616
0.732422 59.412 37.7030
0.737729 59.524 37.2439
0.743075 59.636 36.7854
0.748460 59.746 36.3281
0.753883 59.855 35.8725
0.759346 59.964 35.4190
0.764849 60.073 34.9679
0.770391 60.182 34.5193
0.775974 60.292 34.0734
0.781597 60.401 33.6301
0.787261 60.511 33.1896
0.792966 60.621 32.7517
0.798712 60.731 32.3165
0.804500 60.841 31.8840
0.810329 60.952 31.4541
0.816201 61.063 31.0268
0.822116 61.174 30.6019
0.828073 61.285 30.1796
0.834074 61.397 29.7596
0.840118 61.509 29.3418
0.846206 61.621 28.9263
0.852338 61.733 28.5129
0.858514 61.845 28.1014
0.864735 61.958 27.6918
0.871001 62.071 27.2840
0.877313 62.184 26.8778
0.883670 62.298 26.4731
0.890074 62.412 26.0698
0.896524 62.526 25.6676
0.903020 62.640 25.2666
0.909564 62.754 24.8665
0.916155 62.869 24.4671
0.922794 62.984 24.0683
0.929481 63.099 23.6700
0.936216 63.214 23.2719
0.943000 63.330 22.8739
0.949834 63.446 22.4758
0.956717 63.562 22.0775
0.963649 63.678 21.6786
0.970632 63.795 21.2792
0.977666 63.912 20.8788
0.984750 64.029 20.4775
0.991886 64.146 20.0749
0.999074 64.264 19.6708
1.006314 64.382 19.2651
1.013606 64.500 18.8575
1.020951 64.619 18.4479
1.028349 64.737 18.0359
1.035801 64.856 17.6214
1.043307 64.976 17.2042
1.050867 65.095 16.7841
1.058482 65.215 16.3609
1.066152 65.336 15.9344
1.073878 65.456 15.5046
1.081660 65.577 15.0715
1.089498 65.698 14.6353
1.097393 65.819 14.1961
1.105345 65.940 13.7547
1.113355 66.062 13.3114
1.121423 66.183 12.8668
1.129549 66.304 12.4212
1.137734 66.426 11.9750
1.145979 66.547 11.5285
1.154283 66.668 11.0817
1.162647 66.789 10.6349
1.171072 66.910 10.1880
1.179558 67.031 9.7411
1.188106 67.152 9.2943
1.196715 67.273 8.8477
1.205387 67.393 8.4012
1.214122 67.514 7.9549
1.222920 67.635 7.5088
1.231782 67.755 7.0628
1.240708 67.876 6.6170
1.249699 67.997 6.1714
1.258754 68.117 5.7259
1.267876 68.238 5.2805
1.277063 68.358 4.8352
1.286318 68.479 4.3898
1.295639 68.599 3.9445
1.305027 68.720 3.4990
1.314484 68.841 3.0534
1.324009 68.961 2.6075
1.333604 69.082 2.1613
1.343268 69.203 1.7147
1.353002 69.324 1.2676
1.362806 69.445 0.8199
1.372681 69.566 0.3715
1.382628 69.687 -0.0777
1.392647 69.809 -0.5278
1.402739 69.930 -0.9790
1.412904 70.052 -1.4313
1.423142 70.174 -1.8848
1.433455 70.296 -2.3395
1.443843 70.419 -2.7954
1.454305 70.541 -3.2525
1.464844 70.664 -3.7104
1.475459 70.786 -4.1689
1.486150 70.909 -4.6276
1.496920 71.031 -5.0865
1.507767 71.153 -5.5451
1.518693 71.275 -6.0036
1.529698 71.397 -6.4618
1.540783 71.518 -6.9198
1.551948 71.639 -7.3777
1.563194 71.760 -7.8356
1.574521 71.881 -8.2936
1.585931 72.001 -8.7519
1.597423 72.122 -9.2106
1.608999 72.242 -9.6699
1.620658 72.362 -10.1299
1.632402 72.481 -10.5909
1.644232 72.601 -11.0530
1.656146 72.720 -11.5165
1.668147 72.839 -11.9816
1.680235 72.958 -12.4484
1.692411 73.077 -12.9174
1.704675 73.196 -13.3885
1.717028 73.314 -13.8623
1.729470 73.433 -14.3388
1.742003 73.551 -14.8185
1.754626 73.670 -15.3014
1.767341 73.788 -15.7880
1.780147 73.906 -16.2785
1.793047 74.025 -16.7732
1.806040 74.143 -17.2722
1.819128 74.261 -17.7757
1.832310 74.379 -18.2837
1.845587 74.497 -18.7962
1.858961 74.614 -19.3129
1.872432 74.731 -19.8336
1.886001 74.848 -20.3580
1.899667 74.964 -20.8857
1.913433 75.080 -21.4164
1.927299 75.195 -21.9499
1.941265 75.310 -22.4858
1.955332 75.424 -23.0238
1.969501 75.538 -23.5637
1.983773 75.652 -24.1054
1.998148 75.765 -24.6485
2.012627 75.878 -25.1931
2.027212 75.991 -25.7388
2.041902 76.103 -26.2857
2.056698 76.215 -26.8336
2.071602 76.326 -27.3825
2.086614 76.437 -27.9324
2.101734 76.548 -28.4833
2.116964 76.659 -29.0352
2.132304 76.769 -29.5884
2.147756 76.879 -30.1431
2.163320 76.989 -30.6995
2.178996 77.098 -31.2580
2.194786 77.207 -31.8192
2.210690 77.315 -32.3836
2.226710 77.423 -32.9515
2.242845 77.531 -33.5233
2.259098 77.638 -34.0989
2.275468 77.744 -34.6781
2.291957 77.849 -35.2606
2.308566 77.954 -35.8460
2.325295 78.059 -36.4339
2.342145 78.162 -37.0239
2.359117 78.265 -37.6155
2.376212 78.368 -38.2085
2.393431 78.470 -38.8023
2.410775 78.571 -39.3967
2.428244 78.672 -39.9913
2.445840 78.772 -40.5860
2.463564 78.871 -41.1805
2.481416 78.971 -41.7748
2.499397 79.069 -42.3688
2.517509 79.168 -42.9628
2.535752 79.265 -43.5571
2.554127 79.362 -44.1524
2.572635 79.459 -44.7494
2.591277 79.555 -45.3490
2.610055 79.650 -45.9517
2.628968 79.744 -46.5577
2.648019 79.837 -47.1672
2.667208 79.930 -47.7796
2.686535 80.022 -48.3947
2.706003 80.112 -49.0119
2.725612 80.203 -49.6305
2.745363 80.292 -50.2501
2.765257 80.381 -50.8699
2.785295 80.469 -51.4896
2.805478 80.556 -52.1084
2.825808 80.642 -52.7260
2.846285 80.728 -53.3421
2.866910 80.814 -53.9565
2.887685 80.898 -54.5694
2.908611 80.982 -55.1810
2.929688 81.066 -55.7923
2.950917 81.148 -56.4039
2.972301 81.230 -57.0169
2.993839 81.311 -57.6318
3.015534 81.391 -58.2487
3.037386 81.469 -58.8675
3.059396 81.547 -59.4877
3.081565 81.625 -60.1089
3.103896 81.701 -60.7304
3.126388 81.776 -61.3513
3.149043 81.851 -61.9711
3.171862 81.925 -62.5889
3.194847 81.998 -63.2043
3.217998 82.071 -63.8166
3.241317 82.143 -64.4257
3.264805 82.214 -65.0315
3.288463 82.285 -65.6345
3.312293 82.355 -66.2354
3.336295 82.424 -66.8348
3.360471 82.492 -67.4336
3.384822 82.559 -68.0321
3.409350 82.626 -68.6302
3.434056 82.691 -69.2278
3.458940 82.756 -69.8244
3.484005 82.820 -70.4197
3.509252 82.883 -71.0129
3.534681 82.946 -71.6036
3.560295 83.008 -72.1911
3.586094 83.070 -72.7751
3.612081 83.131 -73.3553
3.638255 83.191 -73.9316
3.664620 83.251 -74.5042
3.691175 83.311 -75.0737
3.717923 83.370 -75.6406
3.744864 83.428 -76.2052
3.772001 83.485 -76.7678
3.799335 83.542 -77.3284
3.826866 83.598 -77.8869
3.854597 83.654 -78.4429
3.882529 83.709 -78.9963
3.910664 83.763 -79.5466
3.939002 83.818 -80.0936
3.967546 83.872 -80.6370
3.996296 83.925 -81.1767
4.025255 83.979 -81.7126
4.054423 84.032 -82.2450
4.083804 84.085 -82.7742
4.113396 84.137 -83.3003
4.143204 84.189 -83.8237
4.173227 84.241 -84.3445
4.203468 84.292 -84.8628
4.233928 84.343 -85.3787
4.264609 84.393 -85.8922
4.295512 84.444 -86.4034
4.326639 84.494 -86.9123
4.357992 84.544 -87.4188
4.389572 84.594 -87.9230
4.421380 84.644 -88.4249
4.453419 84.694 -88.9248
4.485691 84.744 -89.4226
4.518196 84.793 -89.9186
4.550936 84.842 -90.4129
4.583914 84.891 -90.9057
4.617131 84.940 -91.3971
4.650589 84.988 -91.8873
4.684289 85.036 -92.3764
4.718233 85.085 -92.8647
4.752424 85.132 -93.3521
4.786862 85.180 -93.8388
4.821549 85.228 -94.3249
4.856488 85.275 -94.8104
4.891680 85.322 -95.2953
4.927127 85.369 -95.7798
4.962831 85.416 -96.2637
4.998794 85.462 -96.7473
5.035017 85.508 -97.2304
5.071503 85.554 -97.7133
5.108253 85.599 -98.1961
5.145270 85.644 -98.6789
5.182555 85.689 -99.1617
5.220110 85.733 -99.6447
5.257937 85.776 -100.1277
5.296038 85.820 -100.6106
5.334415 85.863 -101.0933
5.373071 85.905 -101.5755
5.412006 85.947 -102.0571
5.451224 85.988 -102.5380
5.490725 86.029 -103.0183
5.530514 86.069 -103.4980
5.570590 86.108 -103.9772
5.610957 86.148 -104.4559
5.651616 86.186 -104.9339
5.692570 86.224 -105.4109
5.733821 86.261 -105.8866
5.775370 86.298 -106.3608
5.817221 86.334 -106.8331
5.859375 86.369 -107.3036
5.901834 86.404 -107.7722
5.944602 86.439 -108.2390
5.987679 86.472 -108.7039
6.031068 86.506 -109.1669
6.074771 86.538 -109.6278
6.118792 86.570 -110.0863
6.163131 86.602 -110.5422
6.207792 86.633 -110.9955
6.252776 86.664 -111.4459
6.298086 86.694 -111.8937
6.343725 86.724 -112.3388
6.389694 86.754 -112.7812
6.435996 86.783 -113.2211
6.482634 86.812 -113.6584
6.529610 86.840 -114.0930
6.576926 86.868 -114.5251
6.624585 86.896 -114.9545
6.672590 86.924 -115.3814
6.720942 86.951 -115.8058
6.769645 86.978 -116.2279
6.818700 87.005 -116.6479
6.868111 87.031 -117.0659
6.917881 87.058 -117.4820
6.968010 87.084 -117.8963
7.018504 87.110 -118.3090
7.069362 87.136 -118.7200
7.120590 87.161 -119.1295
7.172189 87.186 -119.5376
7.224161 87.211 -119.9443
7.276511 87.236 -120.3498
7.329239 87.261 -120.7541
7.382350 87.285 -121.1573
7.435845 87.309 -121.5594
7.489729 87.332 -121.9604
7.544002 87.356 -122.3601
7.598669 87.378 -122.7585
7.653732 87.401 -123.1556
7.709194 87.423 -123.5513
7.765058 87.445 -123.9456
7.821327 87.466 -124.3383
7.878004 87.487 -124.7294
7.935091 87.508 -125.1187
7.992592 87.529 -125.5059
8.050510 87.548 -125.8910
8.108847 87.568 -126.2739
8.167607 87.587 -126.6545
8.226793 87.606 -127.0327
8.286408 87.625 -127.4086
8.346454 87.644 -127.7819
8.406936 87.662 -128.1528
8.467856 87.680 -128.5212
8.529218 87.698 -128.8871
8.591024 87.716 -129.2506
8.653278 87.734 -129.6120
8.715983 87.752 -129.9715
8.779143 87.770 -130.3291
8.842760 87.788 -130.6852
8.906839 87.806 -131.0399
8.971381 87.824 -131.3934
9.036392 87.842 -131.7461
9.101873 87.860 -132.0983
9.167829 87.878 -132.4503
9.234263 87.896 -132.8024
9.301178 87.914 -133.1546
9.368578 87.932 -133.5073
9.436467 87.950 -133.8605
9.504847 87.967 -134.2144
9.573723 87.985 -134.5691
9.643099 88.002 -134.9245
9.712976 88.019 -135.2806
9.783361 88.035 -135.6371
9.854255 88.051 -135.9939
9.925663 88.067 -136.3506
9.997588 88.082 -136.7071
10.070035 88.096 -137.0629
10.143007 88.110 -137.4176
10.216507 88.123 -137.7707
10.290540 88.136 -138.1217
10.365109 88.148 -138.4702
10.440219 88.160 -138.8159
10.515873 88.171 -139.1584
10.592076 88.182 -139.4971
10.668830 88.193 -139.8319
10.746141 88.203 -140.1626
10.824012 88.213 -140.4890
10.902447 88.223 -140.8112
10.981451 88.233 -141.1293
11.061027 88.243 -141.4435
11.141180 88.253 -141.7538
11.221913 88.264 -142.0609
11.303232 88.275 -142.3652
11.385140 88.286 -142.6671
11.467641 88.297 -142.9672
11.550741 88.309 -143.2660
11.634442 88.321 -143.5640
11.718750 88.333 -143.8618
11.803669 88.346 -144.1599
11.889203 88.359 -144.4585
11.975357 88.371 -144.7579
12.062136 88.384 -145.0582
12.149543 88.397 -145.3595
12.237583 88.409 -145.6616
12.326262 88.421 -145.9643
12.415583 88.432 -146.2672
12.505552 88.444 -146.5698
12.596172 88.454 -146.8717
12.687449 88.464 -147.1722
12.779387 88.474 -147.4707
12.871992 88.483 -147.7666
12.965268 88.492 -148.0595
13.059220 88.500 -148.3488
13.153852 88.508 -148.6342
13.249170 88.516 -148.9154
13.345179 88.524 -149.1924
13.441884 88.532 -149.4653
13.539289 88.540 -149.7342
13.637401 88.548 -149.9995
13.736223 88.556 -150.2617
13.835761 88.564 -150.5214
13.936021 88.573 -150.7793
14.037007 88.583 -151.0359
14.138725 88.592 -151.2919
14.241180 88.602 -151.5481
14.344377 88.612 -151.8048
14.448323 88.622 -152.0625
14.553021 88.632 -152.3214
14.658478 88.642 -152.5819
14.764700 88.652 -152.8438
14.871691 88.661 -153.1071
14.979457 88.671 -153.3715
15.088005 88.679 -153.6368
15.197339 88.688 -153.9026
15.307465 88.695 -154.1687
15.418389 88.703 -154.4345
15.530117 88.710 -154.6999
15.642655 88.716 -154.9646
15.756008 88.722 -155.2285
15.870182 88.727 -155.4913
15.985184 88.732 -155.7530
16.101019 88.737 -156.0136
16.217694 88.741 -156.2730
16.335214 88.745 -156.5311
16.453586 88.748 -156.7879
16.572815 88.751 -157.0430
16.692909 88.753 -157.2962
16.813872 88.754 -157.5472
16.935713 88.756 -157.7955
17.058436 88.756 -158.0407
17.182048 88.757 -158.2824
17.306556 88.757 -158.5201
17.431967 88.757 -158.7538
17.558286 88.756 -158.9834
17.685521 88.756 -159.2090
17.813677 88.756 -159.4312
17.942762 88.757 -159.6506
18.072783 88.758 -159.8681
18.203746 88.759 -160.0847
18.335658 88.761 -160.3016
18.468526 88.763 -160.5198
18.602356 88.765 -160.7400
18.737156 88.768 -160.9629
18.872934 88.770 -161.1887
19.009695 88.773 -161.4173
19.147447 88.774 -161.6480
19.286197 88.776 -161.8801
19.425953 88.776 -162.1123
19.566721 88.776 -162.3434
19.708510 88.776 -162.5722
19.851326 88.775 -162.7976
19.995177 88.774 -163.0190
20.140070 88.773 -163.2362
20.286013 88.772 -163.4496
20.433014 88.772 -163.6602
20.581080 88.773 -163.8692
20.730219 88.774 -164.0784
20.880439 88.776 -164.2897
21.031747 88.779 -164.5047
21.184152 88.782 -164.7250
21.337661 88.785 -164.9514
21.492282 88.788 -165.1842
21.648024 88.790 -165.4230
21.804895 88.792 -165.6667
21.962902 88.792 -165.9135
22.122054 88.791 -166.1615
22.282360 88.788 -166.4081
22.443827 88.784 -166.6512
22.606464 88.779 -166.8885
22.770280 88.772 -167.1181
22.935283 88.765 -167.3387
23.101481 88.758 -167.5493
23.268884 88.750 -167.7495
23.437500 88.743 -167.9394
23.607338 88.736 -168.1194
23.778406 88.730 -168.2903
23.950714 88.725 -168.4534
24.124271 88.721 -168.6102
24.299086 88.718 -168.7625
24.475167 88.717 -168.9126
24.652524 88.718 -169.0627
24.831166 88.720 -169.2152
25.011103 88.723 -169.3725
25.192344 88.728 -169.5369
25.374898 88.733 -169.7100
25.558775 88.738 -169.8929
25.743984 88.743 -170.0862
25.930536 88.748 -170.2894
26.118439 88.751 -170.5011
26.307704 88.753 -170.7195
26.498341 88.754 -170.9416
26.690359 88.752 -171.1642
26.883768 88.748 -171.3839
27.078579 88.742 -171.5969
27.274801 88.735 -171.8000
27.472446 88.727 -171.9908
27.671522 88.718 -172.1678
27.872042 88.710 -172.3315
28.074014 88.703 -172.4840
28.277450 88.698 -172.6299
28.482360 88.695 -172.7753
28.688755 88.693 -172.9273
28.896645 88.693 -173.0926
29.106042 88.694 -173.2765
29.316957 88.693 -173.4806
29.529400 88.689 -173.7022
29.743382 88.681 -173.9336
29.958915 88.667 -174.1627
30.176009 88.647 -174.3746
30.394677 88.623 -174.5543
30.614929 88.596 -174.6899
30.836778 88.570 -174.7755
31.060234 88.548 -174.8136
31.285309 88.531 -174.8162
31.512015 88.524 -174.8022
31.740364 88.525 -174.7951
31.970368 88.535 -174.8174
32.202039 88.549 -174.8858
32.435388 88.565 -175.0082
32.670428 88.580 -175.1818
32.907171 88.590 -175.3953
33.145630 88.594 -175.6316
33.385817 88.592 -175.8727
33.627745 88.586 -176.1036
33.871425 88.576 -176.3158
34.116871 88.566 -176.5081
34.364096 88.557 -176.6857
34.613113 88.550 -176.8571
34.863934 88.545 -177.0311
35.116572 88.541 -177.2135
35.371041 88.536 -177.4055
35.627354 88.530 -177.6045
35.885525 88.523 -177.8055
36.145566 88.514 -178.0035
36.407492 88.505 -178.1957
36.671316 88.497 -178.3821
36.937051 88.488 -178.5654
37.204712 88.481 -178.7496
37.474313 88.474 -178.9385
37.745867 88.467 -179.1340
38.019389 88.458 -179.3360
38.294893 88.449 -179.5422
38.572394 88.437 -179.7487
38.851905 88.422 -179.9501
39.133442 88.405 179.8604
39.417019 88.386 179.6902
39.702651 88.365 179.5476
39.990353 88.343 179.4392
40.280140 88.324 179.3676
40.572026 88.309 179.3292
40.866028 88.299 179.3125
41.162160 88.298 179.3000
41.460438 88.303 179.2715
41.760877 88.313 179.2104
42.063494 88.325 179.1089
42.368303 88.336 178.9699
42.675322 88.344 178.8057
42.984565 88.347 178.6324
43.296048 88.348 178.4633
43.609789 88.348 178.3031
43.925804 88.348 178.1470
44.244108 88.350 177.9836
44.564719 88.351 177.8020
44.887654 88.351 177.5983
45.212928 88.346 177.3787
45.540560 88.335 177.1578
45.870565 88.320 176.9527
46.202962 88.301 176.7756
46.537768 88.281 176.6295
46.875000 88.263 176.5070
47.214676 88.248 176.3951
47.556813 88.236 176.2809
47.901429 88.225 176.1567
48.248542 88.214 176.0213
48.598171 88.203 175.8781
48.950334 88.191 175.7317
49.305048 88.179 175.5851
49.662333 88.167 175.4393
50.022206 88.155 175.2943
50.384688 88.143 175.1505
50.749796 88.132 175.0089
51.117550 88.121 174.8702
51.487969 88.111 174.7336
51.861072 88.102 174.5963
52.236879 88.094 174.4554
52.615409 88.085 174.3095
52.996681 88.076 174.1607
53.380717 88.065 174.0143
53.767536 88.052 173.8758
54.157158 88.039 173.7480
54.549603 88.027 173.6291
54.944892 88.015 173.5135
55.343045 88.003 173.3946
55.744084 87.992 173.2684
56.148028 87.980 173.1346
56.554900 87.967 172.9952
56.964720 87.953 172.8524
57.377510 87.939 172.7066
57.793291 87.925 172.5569
58.212085 87.910 172.4026
58.633914 87.896 172.2451
59.058799 87.881 172.0880
59.486764 87.866 171.9359
59.917829 87.851 171.7927
60.352019 87.837 171.6595
60.789354 87.823 171.5352
61.229859 87.810 171.4180
61.673556 87.797 171.3080
62.120468 87.783 171.2081
62.570618 87.767 171.1215
63.024031 87.749 171.0502
63.480729 87.729 170.9935
63.940736 87.707 170.9490
64.404077 87.682 170.9136
64.870776 87.655 170.8833
65.340856 87.625 170.8552
65.814343 87.592 170.8322
66.291261 87.555 170.8275
66.771635 87.518 170.8578
67.255489 87.487 170.9255
67.742850 87.468 170.9999
68.233743 87.465 171.0219
68.728193 87.473 170.9352
69.226226 87.484 170.7218
69.727867 87.488 170.4109
70.233144 87.484 170.0573
70.742083 87.473 169.7088
71.254709 87.458 169.3902
71.771050 87.444 169.1072
72.291132 87.430 168.8583
72.814984 87.417 168.6410
73.342631 87.406 168.4514
73.874102 87.395 168.2852
74.409424 87.382 168.1385
74.948626 87.368 168.0097
75.491734 87.352 167.8970
76.038779 87.334 167.7983
76.589787 87.312 167.7116
77.144788 87.290 167.6350
77.703811 87.267 167.5649
78.266885 87.244 167.4951
78.834039 87.222 167.4181
79.405303 87.202 167.3286
79.980706 87.183 167.2258
80.560280 87.163 167.1134
81.144053 87.144 166.9977
81.732056 87.125 166.8849
82.324320 87.106 166.7798
82.920876 87.088 166.6847
83.521755 87.070 166.5984
84.126988 87.052 166.5175
84.736607 87.035 166.4379
85.350643 87.017 166.3558
85.969129 86.999 166.2672
86.592097 86.980 166.1675
87.219579 86.961 166.0529
87.851608 86.940 165.9229
88.488217 86.917 165.7815
89.129439 86.893 165.6362
89.775308 86.867 165.4958
90.425856 86.840 165.3682
91.081119 86.815 165.2571
91.741131 86.791 165.1604
92.405925 86.769 165.0726
93.075536 86.747 164.9885
93.750000 86.726 164.9055
94.429351 86.704 164.8230
95.113625 86.681 164.7417
95.802858 86.656 164.6630
96.497085 86.631 164.5878
97.196342 86.605 164.5156
97.900667 86.580 164.4442
98.610096 86.556 164.3705
99.324665 86.533 164.2917
100.044413 86.510 164.2080
100.769376 86.487 164.1237
101.499592 86.464 164.0449
102.235100 86.440 163.9748
102.975938 86.415 163.9122
103.722144 86.391 163.8530
104.473757 86.366 163.7930
105.230817 86.340 163.7287
105.993363 86.313 163.6577
106.761435 86.286 163.5783
107.535072 86.259 163.4905
108.314315 86.232 163.3951
109.099206 86.206 163.2934
109.889783 86.180 163.1865
110.686090 86.153 163.0761
111.488167 86.125 162.9653
112.296056 86.094 162.8583
113.109800 86.061 162.7603
113.929440 86.026 162.6723
114.755020 85.988 162.5892
115.586582 85.950 162.5016
116.424170 85.910 162.4042
117.267827 85.868 162.3011
118.117598 85.825 162.2063
118.973527 85.784 162.1385
119.835658 85.749 162.1064
120.704037 85.721 162.0985
121.578708 85.702 162.0951
122.459718 85.687 162.0897
123.347111 85.674 162.0876
124.240935 85.663 162.0908
125.141236 85.651 162.0923
126.048061 85.637 162.0809
126.961458 85.620 162.0483
127.881473 85.600 161.9905
128.808154 85.576 161.9073
129.741551 85.550 161.8055
130.681712 85.526 161.6960
131.628686 85.506 161.5867
132.582521 85.495 161.4777
133.543269 85.493 161.3651
134.510979 85.497 161.2465
135.485701 85.499 161.1326
136.467486 85.491 161.0651
137.456386 85.469 161.1097
138.452451 85.437 161.3044
139.455735 85.401 161.6166
140.466288 85.368 161.9529
141.484165 85.337 162.1969
142.509418 85.301 162.2633
143.542100 85.252 162.1508
144.582265 85.187 161.9373
145.629968 85.114 161.7122
146.685262 85.042 161.5281
147.748204 84.979 161.3999
148.818849 84.926 161.3217
149.897251 84.882 161.2808
150.983469 84.842 161.2600
152.077557 84.803 161.2418
153.179574 84.762 161.2177
154.289576 84.717 161.1927
155.407622 84.669 161.1777
156.533770 84.620 161.1775
157.668078 84.571 161.1854
158.810606 84.520 161.1891
159.961413 84.466 161.1805
161.120559 84.407 161.1595
162.288105 84.345 161.1306
163.464112 84.280 161.1021
164.648640 84.213 161.0917
165.841752 84.146 161.1246
167.043510 84.079 161.2174
168.253976 84.012 161.3673
169.473213 83.940 161.5653
170.701286 83.860 161.8146
171.938258 83.771 162.1360
173.184194 83.677 162.5540
174.439158 83.582 163.0856
175.703216 83.493 163.7463
176.976434 83.414 164.5552
178.258878 83.352 165.5255
179.550615 83.313 166.6512
180.851713 83.306 167.8930
182.162239 83.337 169.1629
183.482262 83.405 170.3370
184.811850 83.504 171.3063
186.151073 83.623 172.0286
187.500000 83.755 172.5224
188.858702 83.897 172.8035
190.227250 84.047 172.8486
191.605715 84.193 172.6328
192.994169 84.323 172.1838
194.392685 84.425 171.5767
195.801334 84.495 170.8855
197.220191 84.531 170.1600
198.649330 84.534 169.4484
200.088825 84.507 168.8048
201.538751 84.459 168.2619
202.999184 84.400 167.8153
204.470200 84.336 167.4461
205.951875 84.272 167.1450
207.444287 84.212 166.9047
208.947514 84.158 166.7089
210.461634 84.111 166.5359
211.986726 84.070 166.3719
213.522869 84.033 166.2162
215.070144 83.997 166.0751
216.628631 83.962 165.9539
218.198411 83.927 165.8565
219.779567 83.890 165.7844
221.372180 83.853 165.7377
222.976334 83.813 165.7164
224.592112 83.773 165.7222
226.219600 83.734 165.7557
227.858880 83.699 165.8116
229.510039 83.669 165.8803
231.173164 83.642 165.9552
232.848340 83.617 166.0349
234.535655 83.591 166.1199
236.235197 83.564 166.2082
237.947054 83.536 166.2950
239.671317 83.506 166.3735
241.408074 83.476 166.4399
243.157416 83.446 166.4963
244.919435 83.415 166.5496
246.694223 83.385 166.6071
248.481871 83.355 166.6729
250.282473 83.326 166.7464
252.096123 83.298 166.8242
253.922915 83.270 166.9022
255.762945 83.242 166.9785
257.616309 83.214 167.0535
259.483103 83.186 167.1284
261.363424 83.157 167.2049
263.257372 83.129 167.2848
265.165043 83.102 167.3711
267.086538 83.075 167.4675
269.021957 83.048 167.5749
270.971401 83.020 167.6892
272.934972 82.993 167.8025
274.912771 82.964 167.9089
276.904902 82.936 168.0088
278.911469 82.907 168.1063
280.932577 82.880 168.2058
282.968330 82.854 168.3111
285.018835 82.828 168.4250
287.084199 82.803 168.5487
289.164530 82.778 168.6800
291.259935 82.754 168.8137
293.370525 82.731 168.9445
295.496408 82.708 169.0695
297.637697 82.685 169.1892
299.794503 82.662 169.3065
301.966937 82.639 169.4249
304.155114 82.617 169.5473
306.359147 82.594 169.6754
308.579152 82.573 169.8101
310.815244 82.552 169.9518
313.067539 82.532 170.0992
315.336156 82.512 170.2478
317.621211 82.493 170.3933
319.922826 82.473 170.5342
322.241118 82.452 170.6729
324.576210 82.430 170.8115
326.928223 82.407 170.9510
329.297280 82.384 171.0927
331.683504 82.359 171.2378
334.087019 82.333 171.3870
336.507952 82.308 171.5393
338.946427 82.282 171.6920
341.402572 82.258 171.8427
343.876516 82.236 171.9886
346.368387 82.214 172.1278
348.878315 82.194 172.2606
351.406431 82.176 172.3899
353.952867 82.158 172.5208
356.517756 82.141 172.6580
359.101230 82.124 172.8046
361.703426 82.108 172.9607
364.324478 82.093 173.1241
366.964523 82.077 173.2914
369.623699 82.061 173.4599
372.302145 82.044 173.6281
375.000000 82.024 173.7958
377.717405 82.002 173.9623
380.454501 81.979 174.1263
383.211431 81.956 174.2870
385.988339 81.934 174.4443
388.785369 81.912 174.5991
391.602668 81.893 174.7518
394.440383 81.875 174.9032
397.298660 81.859 175.0544
400.177650 81.844 175.2065
403.077502 81.831 175.3616
405.998368 81.817 175.5228
408.940400 81.802 175.6927
411.903750 81.787 175.8727
414.888575 81.770 176.0613
417.895028 81.752 176.2542
420.923268 81.734 176.4449
423.973452 81.716 176.6279
427.045738 81.699 176.8018
430.140287 81.683 176.9700
433.257261 81.669 177.1378
436.396822 81.655 177.3099
439.559133 81.641 177.4890
442.744360 81.625 177.6747
445.952668 81.607 177.8641
449.184225 81.588 178.0537
452.439199 81.569 178.2413
455.717760 81.552 178.4254
459.020079 81.537 178.6058
462.346327 81.523 178.7839
465.696680 81.511 178.9598
469.071310 81.500 179.1319
472.470394 81.490 179.2982
475.894109 81.479 179.4596
479.342634 81.468 179.6204
482.816148 81.457 179.7856
486.314833 81.446 179.9586
489.838871 81.435 -179.8606
493.388445 81.423 -179.6738
496.963741 81.410 -179.4842
500.564945 81.397 -179.2965
504.192245 81.382 -179.1161
507.845830 81.367 -178.9467
511.525890 81.351 -178.7861
515.232618 81.335 -178.6285
518.966206 81.320 -178.4677
522.726849 81.306 -178.2995
526.514743 81.292 -178.1214
530.330086 81.280 -177.9330
534.173076 81.268 -177.7361
538.043915 81.256 -177.5330
541.942803 81.244 -177.3253
545.869944 81.232 -177.1137
549.825542 81.219 -176.8990
553.809805 81.206 -176.6831
557.822939 81.193 -176.4684
561.865154 81.180 -176.2572
565.936660 81.167 -176.0501
570.037671 81.155 -175.8470
574.168399 81.142 -175.6465
578.329060 81.130 -175.4464
582.519870 81.118 -175.2438
586.741049 81.105 -175.0363
590.992817 81.093 -174.8234
595.275394 81.082 -174.6067
599.589005 81.072 -174.3896
603.933874 81.062 -174.1755
608.310228 81.054 -173.9636
612.718295 81.045 -173.7501
617.158304 81.037 -173.5317
621.630488 81.030 -173.3089
626.135079 81.022 -173.0856
630.672311 81.013 -172.8670
635.242423 81.004 -172.6544
639.845651 80.992 -172.4442
644.482237 80.979 -172.2321
649.152421 80.966 -172.0166
653.856447 80.951 -171.7986
658.594560 80.937 -171.5805
663.367008 80.923 -171.3635
668.174039 80.908 -171.1453
673.015903 80.893 -170.9202
677.892854 80.878 -170.6835
682.805145 80.864 -170.4352
687.753032 80.853 -170.1789
692.736774 80.843 -169.9196
697.756631 80.836 -169.6617
702.812863 80.830 -169.4069
707.905735 80.825 -169.1546
713.035511 80.820 -168.9036
718.202461 80.816 -168.6529
723.406852 80.813 -168.4011
728.648956 80.810 -168.1457
733.929047 80.807 -167.8842
739.247399 80.804 -167.6133
744.604290 80.803 -167.3298
750.000000 80.802 -167.0314
755.434809 80.801 -166.7215
760.909001 80.799 -166.4093
766.422861 80.797 -166.1051
771.976677 80.794 -165.8140
777.570739 80.791 -165.5351
783.205337 80.790 -165.2638
788.880766 80.789 -164.9931
794.597321 80.789 -164.7170
800.355301 80.790 -164.4336
806.155005 80.791 -164.1446
811.996736 80.792 -163.8522
817.880799 80.794 -163.5577
823.807501 80.797 -163.2616
829.777150 80.801 -162.9637
835.790057 80.806 -162.6645
841.846536 80.813 -162.3648
847.946903 80.820 -162.0656
854.091476 80.829 -161.7679
860.280575 80.839 -161.4717
866.514523 80.849 -161.1745
872.793644 80.859 -160.8712
879.118267 80.869 -160.5576
885.488720 80.880 -160.2349
891.905336 80.891 -159.9094
898.368450 80.904 -159.5895
904.878398 80.919 -159.2811
911.435520 80.935 -158.9863
918.040157 80.952 -158.7032
924.692655 80.970 -158.4278
931.393359 80.989 -158.1552
938.142619 81.009 -157.8813
944.940787 81.030 -157.6030
951.788218 81.050 -157.3185
958.685268 81.072 -157.0287
965.632296 81.094 -156.7385
972.629666 81.117 -156.4552
979.677741 81.140 -156.1852
986.776890 81.163 -155.9306
993.927482 81.187 -155.6882
1001.129891 81.210 -155.4507
1008.384491 81.235 -155.2122
1015.691660 81.260 -154.9708
1023.051781 81.286 -154.7285
1030.465236 81.313 -154.4891
1037.932411 81.341 -154.2564
1045.453698 81.368 -154.0338
1053.029486 81.395 -153.8228
1060.660172 81.423 -153.6221
1068.346153 81.451 -153.4281
1076.087829 81.480 -153.2394
1083.885605 81.510 -153.0579
1091.739887 81.541 -152.8864
1099.651084 81.572 -152.7259
1107.619609 81.602 -152.5743
1115.645878 81.633 -152.4285
1123.730308 81.663 -152.2862
1131.873321 81.693 -152.1476
1140.075341 81.723 -152.0141
1148.336797 81.753 -151.8885
1156.658119 81.783 -151.7731
1165.039741 81.813 -151.6675
1173.482099 81.842 -151.5682
1181.985634 81.870 -151.4722
1190.550789 81.897 -151.3792
1199.178011 81.923 -151.2892
1207.867749 81.948 -151.2015
1216.620457 81.972 -151.1156
1225.436590 81.996 -151.0323
1234.316609 82.019 -150.9527
1243.260976 82.041 -150.8771
1252.270157 82.063 -150.8057
1261.344623 82.085 -150.7394
1270.484846 82.105 -150.6784
1279.691303 82.125 -150.6211
1288.964474 82.144 -150.5645
1298.304842 82.162 -150.5062
1307.712894 82.180 -150.4447
1317.189120 82.198 -150.3803
1326.734016 82.214 -150.3138
1336.348077 82.230 -150.2457
1346.031806 82.245 -150.1754
1355.785708 82.259 -150.1033
1365.610290 82.271 -150.0303
1375.506065 82.284 -149.9577
1385.473549 82.296 -149.8859
1395.513261 82.308 -149.8154
1405.625726 82.320 -149.7456
1415.811469 82.331 -149.6747
1426.071023 82.341 -149.6006
1436.404921 82.351 -149.5229
1446.813703 82.360 -149.4423
1457.297912 82.368 -149.3603
1467.858093 82.376 -149.2770
1478.494798 82.383 -149.1911
1489.208581 82.391 -149.1016
1500.000000 82.400 -149.0076
1510.869618 82.409 -148.9085
1521.818002 82.420 -148.8044
1532.845723 82.431 -148.6991
1543.953355 82.442 -148.5981
1555.141477 82.453 -148.5040
1566.410674 82.462 -148.4136
1577.761531 82.469 -148.3212
1589.194642 82.475 -148.2219
1600.710601 82.480 -148.1144
1612.310010 82.485 -147.9993
1623.993473 82.491 -147.8771
1635.761599 82.498 -147.7475
1647.615002 82.506 -147.6117
1659.554299 82.513 -147.4744
1671.580114 82.520 -147.3409
1683.693072 82.527 -147.2136
1695.893807 82.533 -147.0910
1708.182952 82.540 -146.9695
1720.561150 82.548 -146.8459
1733.029045 82.557 -146.7190
1745.587288 82.567 -146.5888
1758.236533 82.578 -146.4536
1770.977440 82.590 -146.3105
1783.810673 82.601 -146.1583
1796.736900 82.612 -145.9974
1809.756796 82.623 -145.8302
1822.871040 82.633 -145.6584
1836.080315 82.642 -145.4834
1849.385310 82.652 -145.3063
1862.786718 82.662 -145.1286
1876.285239 82.674 -144.9513
1889.881575 82.687 -144.7747
1903.576436 82.701 -144.5970
1917.370535 82.716 -144.4153
1931.264593 82.731 -144.2268
1945.259332 82.746 -144.0299
1959.355483 82.761 -143.8244
1973.553781 82.776 -143.6103
1987.854965 82.792 -143.3880
2002.259781 82.808 -143.1596
2016.768981 82.825 -142.9289
2031.383320 82.844 -142.6998
2046.103561 82.865 -142.4738
2060.930471 82.887 -142.2503
2075.864823 82.912 -142.0292
2090.907395 82.938 -141.8115
2106.058972 82.968 -141.5999
2121.320344 83.001 -141.3993
2136.692305 83.037 -141.2133
2152.175658 83.075 -141.0415
2167.771210 83.113 -140.8802
2183.479774 83.150 -140.7250
2199.302169 83.186 -140.5725
2215.239219 83.222 -140.4220
2231.291755 83.257 -140.2756
2247.460615 83.292 -140.1348
2263.746641 83.329 -139.9988
2280.150683 83.367 -139.8663
2296.673595 83.407 -139.7367
2313.316238 83.448 -139.6100
2330.079481 83.490 -139.4868
2346.964198 83.532 -139.3684
2363.971268 83.575 -139.2566
2381.101578 83.616 -139.1519
2398.356022 83.658 -139.0546
2415.735498 83.699 -138.9652
2433.240913 83.741 -138.8852
2450.873180 83.783 -138.8144
2468.633217 83.826 -138.7501
2486.521951 83.870 -138.6891
2504.540314 83.915 -138.6308
2522.689246 83.961 -138.5766
2540.969692 84.007 -138.5289
2559.382606 84.053 -138.4899
2577.928947 84.099 -138.4604
2596.609683 84.145 -138.4407
2615.425787 84.190 -138.4317
2634.378241 84.236 -138.4336
2653.468031 84.282 -138.4459
2672.696154 84.328 -138.4685
2692.063613 84.374 -138.5006
2711.571415 84.419 -138.5405
2731.220579 84.464 -138.5860
2751.012130 84.509 -138.6371
2770.947098 84.555 -138.6953
2791.026522 84.601 -138.7634
2811.251451 84.648 -138.8439
2831.622938 84.695 -138.9379
2852.142045 84.740 -139.0463
2872.809842 84.784 -139.1687
2893.627406 84.825 -139.3036
2914.595823 84.864 -139.4478
2935.716186 84.901 -139.5977
2956.989596 84.937 -139.7516
2978.417161 84.971 -139.9098
3000.000000 85.004 -140.0736
3021.739237 85.034 -140.2430
3043.636005 85.063 -140.4164
3065.691446 85.091 -140.5907
3087.906710 85.120 -140.7625
3110.282955 85.149 -140.9298
3132.821347 85.179 -141.0926
3155.523062 85.209 -141.2521
3178.389283 85.238 -141.4099
3201.421202 85.265 -141.5672
3224.620020 85.290 -141.7248
3247.986946 85.313 -141.8820
3271.523198 85.334 -142.0369
3295.230004 85.352 -142.1880
3319.108599 85.369 -142.3336
3343.160228 85.384 -142.4731
3367.386145 85.400 -142.6068
3391.787613 85.415 -142.7359
3416.365904 85.430 -142.8601
3441.122300 85.444 -142.9766
3466.058091 85.457 -143.0813
3491.174576 85.469 -143.1715
3516.473066 85.480 -143.2463
3541.954880 85.490 -143.3067
3567.621345 85.502 -143.3548
3593.473800 85.515 -143.3925
3619.513592 85.530 -143.4204
3645.742080 85.548 -143.4399
3672.160630 85.569 -143.4546
3698.770620 85.592 -143.4685
3725.573436 85.619 -143.4843
3752.570477 85.648 -143.5021
3779.763150 85.681 -143.5200
3807.152872 85.716 -143.5359
3834.741071 85.755 -143.5503
3862.529185 85.795 -143.5652
3890.518664 85.837 -143.5817
3918.710966 85.880 -143.5988
3947.107561 85.926 -143.6167
3975.709929 85.972 -143.6373
4004.519563 86.019 -143.6635
4033.537962 86.070 -143.6983
4062.766641 86.123 -143.7439
4092.207123 86.180 -143.8019
4121.860942 86.241 -143.8727
4151.729646 86.304 -143.9552
4181.814790 86.370 -144.0485
4212.117944 86.438 -144.1530
4242.640687 86.508 -144.2702
4273.384610 86.582 -144.4042
4304.351317 86.658 -144.5601
4335.542421 86.737 -144.7425
4366.959549 86.818 -144.9541
4398.604338 86.900 -145.1960
4430.478438 86.983 -145.4679
4462.583511 87.068 -145.7687
4494.921231 87.155 -146.0965
4527.493283 87.243 -146.4492
4560.301365 87.334 -146.8251
4593.347189 87.426 -147.2245
4626.632476 87.522 -147.6499
4660.158962 87.620 -148.1051
4693.928395 87.721 -148.5954
4727.942535 87.824 -149.1261
4762.203156 87.931 -149.7035
4796.712043 88.039 -150.3342
4831.470996 88.149 -151.0242
4866.481826 88.260 -151.7789
4901.746360 88.372 -152.6039
4937.266434 88.483 -153.5050
4973.043902 88.594 -154.4860
5009.080628 88.703 -155.5487
5045.378492 88.809 -156.6935
5081.939384 88.909 -157.9209
5118.765212 89.002 -159.2316
5155.857894 89.086 -160.6257
5193.219366 89.160 -162.1025
5230.851574 89.222 -163.6585
5268.756481 89.269 -165.2884
5306.936062 89.301 -166.9847
5345.392309 89.315 -168.7373
5384.127225 89.310 -170.5316
5423.142830 89.285 -172.3505
5462.441159 89.240 -174.1760
5502.024259 89.173 -175.9920
5541.894195 89.086 -177.7831
5582.053045 88.978 -179.5335
5622.502902 88.850 178.7730
5663.245876 88.704 177.1512
5704.284090 88.540 175.6143
5745.619684 88.361 174.1738
5787.254813 88.168 172.8407
5829.191647 87.965 171.6232
5871.432373 87.753 170.5266
5913.979192 87.535 169.5528
5956.834323 87.313 168.7017
6000.000000 87.089 167.9720
6043.478473 86.865 167.3624
6087.272010 86.644 166.8707
6131.382892 86.427 166.4935
6175.813420 86.216 166.2252
6220.565910 86.011 166.0587
6265.642695 85.815 165.9865
6311.046124 85.629 166.0020
6356.778566 85.454 166.0986
6402.842404 85.289 166.2694
6449.240040 85.138 166.5061
6495.973891 84.999 166.8000
6543.046396 84.874 167.1426
6590.460007 84.764 167.5249
6638.217197 84.671 167.9382
6686.320456 84.596 168.3749
6734.772290 84.541 168.8271
6783.575226 84.506 169.2851
6832.731809 84.494 169.7369
6882.244600 84.505 170.1682
6932.116181 84.539 170.5633
6982.349153 84.599 170.9044
7032.946133 84.685 171.1724
7083.909760 84.798 171.3460
7135.242690 84.941 171.3994
7186.947600 85.113 171.3004
7239.027185 85.316 171.0101
7291.484160 85.549 170.4837
7344.321260 85.811 169.6706
7397.541239 86.098 168.5156
7451.146872 86.402 166.9613
7505.140954 86.715 164.9534
7559.526299 87.024 162.4463
7614.305743 87.315 159.4115
7669.482141 87.570 155.8439
7725.058371 87.770 151.7663
7781.037328 87.895 147.2324
7837.421932 87.928 142.3283
7894.215122 87.856 137.1696
7951.419859 87.667 131.8940
8009.039125 87.360 126.6500
8067.075924 86.936 121.5847
8125.533282 86.403 116.8323
8184.414245 85.774 112.5035
8243.721885 85.064 108.6803
8303.459292 84.290 105.4135
8363.629581 83.469 102.7244
8424.235888 82.618 100.6098
8485.281374 81.750 99.0468
8546.769221 80.881 97.9987
8608.702634 80.020 97.4201
8671.084842 79.177 97.2596
8733.919097 78.358 97.4637
8797.208675 77.567 97.9786
8860.956876 76.808 98.7531
8925.167022 76.081 99.7408
8989.842461 75.385 100.9039
9054.986566 74.720 102.2119
9120.602731 74.082 103.6415
9186.694378 73.470 105.1754
9253.264952 72.882 106.8030
9320.317925 72.314 108.5190
9387.856790 71.765 110.3218
9455.885071 71.234 112.2105
9524.406312 70.719 114.1812
9593.424086 70.220 116.2272
9662.941992 69.737 118.3417
9732.963653 69.269 120.5178
9803.492719 68.817 122.7491
9874.532869 68.380 125.0300
9946.087805 67.957 127.3562
10018.161257 67.547 129.7234
10090.756983 67.150 132.1274
10163.878768 66.765 134.5651
10237.530423 66.391 137.0359
10311.715789 66.028 139.5429
10386.438732 65.674 142.0909
10461.703149 65.328 144.6873
10537.512962 64.990 147.3412
10613.872125 64.660 150.0624
10690.784618 64.340 152.8590
10768.254450 64.031 155.7360
10846.285661 63.734 158.6945
10924.882318 63.453 161.7311
11004.048518 63.188 164.8359
11083.788390 62.941 167.9945
11164.106090 62.713 171.1925
11245.005805 62.504 174.4190
11326.491752 62.316 177.6663
11408.568180 62.148 -179.0721
11491.239368 61.998 -175.8025
11574.509626 61.866 -172.5300
11658.383294 61.749 -169.2548
11742.864745 61.649 -165.9720
11827.958384 61.565 -162.6754
11913.668646 61.500 -159.3619
12000.000000 61.454 -156.0338
12086.956947 61.427 -152.6939
12174.544019 61.422 -149.3438
12262.765784 61.439 -145.9862
12351.626840 61.479 -142.6280
12441.131819 61.543 -139.2777
12531.285389 61.633 -135.9416
12622.092249 61.748 -132.6234
12713.557132 61.891 -129.3259
12805.684808 62.062 -126.0523
12898.480079 62.264 -122.8070
12991.947783 62.499 -119.5971
13086.092792 62.770 -116.4321
13180.920015 63.082 -113.3258
13276.434395 63.439 -110.2984
13372.640911 63.849 -107.3772
13469.544580 64.316 -104.5977
13567.150452 64.848 -102.0043
13665.463617 65.453 -99.6526
13764.489200 66.135 -97.6114
13864.232362 66.902 -95.9650
13964.698305 67.754 -94.8163
14065.892266 68.691 -94.2880
14167.819519 69.702 -94.5216
14270.485380 70.770 -95.6687
14373.895200 71.867 -97.8776
14478.054370 72.957 -101.2768
14582.968320 73.995 -105.9560
14688.642520 74.932 -111.9431
14795.082478 75.715 -119.1817
14902.293745 76.294 -127.5103
15010.281908 76.626 -136.6501
15119.052599 76.684 -146.2146
15228.611486 76.460 -155.7613
15338.964283 75.973 -164.8767
15450.116741 75.259 -173.2452
15562.074656 74.364 179.3258
15674.843864 73.338 172.9137
15788.430244 72.228 167.5026
15902.839718 71.075 163.0096
16018.078250 69.915 159.3117
16134.151848 68.774 156.2682
16251.066563 67.670 153.7362
16368.828491 66.612 151.5803
16487.443769 65.601 149.6794
16606.918584 64.636 147.9251
16727.259161 63.713 146.2179
16848.471777 62.825 144.4639
16970.562748 61.968 142.5708
17093.538442 61.132 140.4437
17217.405268 60.310 137.9849
17342.169684 59.487 135.0960
17467.838194 58.649 131.6827
17594.417350 57.775 127.6570
17721.913751 56.846 122.9335
17850.334044 55.844 117.4144
17979.684923 54.753 110.9433
18109.973131 53.571 103.2055
18241.205462 52.317 93.4834
18373.388756 51.049 79.9772
18506.529905 49.885 57.7649
18640.635849 48.999 17.1588
18775.713581 48.556 -28.8472
18911.770141 48.592 -55.7156
19048.812624 48.986 -71.1586
19186.848172 49.560 -81.8737
19325.883983 50.173 -90.3489
19465.927305 50.741 -97.5137
19606.985439 51.218 -103.6622
19749.065738 51.585 -108.7448
19892.175609 51.830 -112.4888
20036.322514 51.953 -114.5134
