* Measurement data measured by REW V5.31.3
* Source: Headset (CX31993 HIFI AUDIO), MICROPHONE (Master Volume), R, volume: 0.400
* Format: 256k Log Swept Sine, 1 sweep at -12.0 dBFS with no timing reference
* Dated: 03 3, 25 6:15:46 PM
* REW Settings:
*  C-weighting compensation: Off
*  Target level: 75.0 dB
* Note: ; 
* Measurement: Melobuds Pro Default L
* Smoothing: 1/12 octave
* Frequency Step: 96 ppo
* Start Frequency: 0.36621094 Hz
*
* Freq(Hz) SPL(dB) Phase(degrees)
0.366211 31.354 143.6263
0.368865 31.324 143.6089
0.371538 31.279 143.5824
0.374230 31.223 143.5482
0.376942 31.160 143.5075
0.379673 31.093 143.4613
0.382424 31.022 143.4102
0.385196 30.949 143.3545
0.387987 30.875 143.2944
0.390798 30.800 143.2298
0.393630 30.724 143.1610
0.396483 30.647 143.0877
0.399356 30.570 143.0101
0.402250 30.492 142.9279
0.405165 30.414 142.8413
0.408101 30.335 142.7500
0.411058 30.255 142.6541
0.414037 30.175 142.5534
0.417037 30.094 142.4479
0.420059 30.013 142.3375
0.423103 29.931 142.2222
0.426169 29.849 142.1017
0.429257 29.766 141.9762
0.432368 29.682 141.8455
0.435501 29.598 141.7094
0.438656 29.513 141.5680
0.441835 29.427 141.4211
0.445037 29.341 141.2687
0.448262 29.255 141.1105
0.451510 29.167 140.9467
0.454782 29.079 140.7770
0.458077 28.991 140.6014
0.461397 28.901 140.4198
0.464740 28.811 140.2320
0.468108 28.721 140.0379
0.471500 28.630 139.8376
0.474917 28.538 139.6308
0.478358 28.445 139.4174
0.481825 28.352 139.1975
0.485316 28.258 138.9707
0.488833 28.164 138.7371
0.492375 28.068 138.4965
0.495943 27.972 138.2488
0.499537 27.876 137.9939
0.503157 27.778 137.7318
0.506803 27.680 137.4622
0.510475 27.582 137.1850
0.514175 27.482 136.9003
0.517900 27.382 136.6078
0.521653 27.281 136.3075
0.525434 27.179 135.9992
0.529241 27.077 135.6829
0.533076 26.974 135.3584
0.536939 26.870 135.0258
0.540830 26.765 134.6848
0.544749 26.660 134.3354
0.548696 26.554 133.9775
0.552673 26.447 133.6111
0.556677 26.339 133.2360
0.560711 26.231 132.8524
0.564774 26.122 132.4600
0.568867 26.012 132.0589
0.572989 25.901 131.6491
0.577141 25.789 131.2305
0.581324 25.677 130.8033
0.585536 25.564 130.3673
0.589779 25.450 129.9228
0.594053 25.335 129.4697
0.598358 25.219 129.0082
0.602694 25.102 128.5385
0.607061 24.985 128.0607
0.611460 24.867 127.5750
0.615891 24.748 127.0817
0.620354 24.628 126.5811
0.624849 24.507 126.0736
0.629377 24.385 125.5595
0.633938 24.263 125.0393
0.638532 24.139 124.5136
0.643159 24.015 123.9831
0.647819 23.889 123.4483
0.652514 23.763 122.9102
0.657242 23.636 122.3697
0.662005 23.508 121.8278
0.666802 23.379 121.2857
0.671634 23.249 120.7448
0.676501 23.119 120.2066
0.681403 22.987 119.6728
0.686341 22.855 119.1453
0.691314 22.721 118.6263
0.696324 22.588 118.1182
0.701370 22.454 117.6234
0.706452 22.321 117.1446
0.711571 22.191 116.6841
0.716728 22.065 116.2439
0.721921 21.948 115.8247
0.727153 21.843 115.4255
0.732422 21.756 115.0429
0.737729 21.691 114.6709
0.743075 21.646 114.3022
0.748460 21.618 113.9294
0.753883 21.606 113.5454
0.759346 21.605 113.1440
0.764849 21.614 112.7188
0.770391 21.631 112.2634
0.775974 21.656 111.7699
0.781597 21.688 111.2285
0.787261 21.726 110.6262
0.792966 21.771 109.9447
0.798712 21.822 109.1577
0.804500 21.880 108.2248
0.810329 21.944 107.0820
0.816201 22.014 105.6198
0.822116 22.090 103.6352
0.828073 22.172 100.7070
0.834074 22.260 95.8051
0.840118 22.353 85.6974
0.846206 22.453 56.3234
0.852338 22.558 -10.3720
0.858514 22.669 -41.2296
0.864735 22.785 -51.7225
0.871001 22.906 -56.7835
0.877313 23.033 -59.8174
0.883670 23.165 -61.8963
0.890074 23.301 -63.4555
0.896524 23.442 -64.7032
0.903020 23.588 -65.7518
0.909564 23.738 -66.6668
0.916155 23.893 -67.4893
0.922794 24.051 -68.2465
0.929481 24.213 -68.9568
0.936216 24.379 -69.6336
0.943000 24.548 -70.2867
0.949834 24.720 -70.9236
0.956717 24.896 -71.5499
0.963649 25.073 -72.1705
0.970632 25.253 -72.7890
0.977666 25.435 -73.4086
0.984750 25.619 -74.0322
0.991886 25.804 -74.6620
0.999074 25.990 -75.3002
1.006314 26.177 -75.9488
1.013606 26.364 -76.6095
1.020951 26.551 -77.2840
1.028349 26.738 -77.9741
1.035801 26.924 -78.6812
1.043307 27.109 -79.4069
1.050867 27.293 -80.1526
1.058482 27.474 -80.9200
1.066152 27.654 -81.7103
1.073878 27.832 -82.5248
1.081660 28.007 -83.3646
1.089498 28.182 -84.2301
1.097393 28.356 -85.1212
1.105345 28.530 -86.0369
1.113355 28.706 -86.9752
1.121423 28.884 -87.9334
1.129549 29.066 -88.9082
1.137734 29.251 -89.8964
1.145979 29.440 -90.8946
1.154283 29.632 -91.8997
1.162647 29.829 -92.9089
1.171072 30.028 -93.9196
1.179558 30.232 -94.9297
1.188106 30.439 -95.9372
1.196715 30.648 -96.9404
1.205387 30.861 -97.9379
1.214122 31.077 -98.9286
1.222920 31.295 -99.9114
1.231782 31.515 -100.8858
1.240708 31.738 -101.8511
1.249699 31.962 -102.8071
1.258754 32.188 -103.7534
1.267876 32.416 -104.6901
1.277063 32.644 -105.6173
1.286318 32.873 -106.5351
1.295639 33.103 -107.4440
1.305027 33.333 -108.3444
1.314484 33.563 -109.2367
1.324009 33.793 -110.1217
1.333604 34.021 -111.0001
1.343268 34.249 -111.8725
1.353002 34.475 -112.7400
1.362806 34.699 -113.6035
1.372681 34.921 -114.4639
1.382628 35.140 -115.3224
1.392647 35.356 -116.1802
1.402739 35.568 -117.0386
1.412904 35.776 -117.8991
1.423142 35.980 -118.7634
1.433455 36.180 -119.6334
1.443843 36.375 -120.5112
1.454305 36.564 -121.3992
1.464844 36.749 -122.2998
1.475459 36.929 -123.2153
1.486150 37.104 -124.1471
1.496920 37.275 -125.0958
1.507767 37.441 -126.0610
1.518693 37.604 -127.0417
1.529698 37.763 -128.0364
1.540783 37.918 -129.0436
1.551948 38.070 -130.0616
1.563194 38.218 -131.0887
1.574521 38.363 -132.1234
1.585931 38.504 -133.1642
1.597423 38.643 -134.2098
1.608999 38.779 -135.2591
1.620658 38.912 -136.3110
1.632402 39.043 -137.3646
1.644232 39.172 -138.4192
1.656146 39.298 -139.4743
1.668147 39.423 -140.5293
1.680235 39.546 -141.5840
1.692411 39.667 -142.6383
1.704675 39.788 -143.6921
1.717028 39.907 -144.7457
1.729470 40.026 -145.7992
1.742003 40.145 -146.8534
1.754626 40.263 -147.9089
1.767341 40.382 -148.9668
1.780147 40.500 -150.0287
1.793047 40.620 -151.0964
1.806040 40.739 -152.1726
1.819128 40.859 -153.2606
1.832310 40.979 -154.3642
1.845587 41.098 -155.4872
1.858961 41.217 -156.6323
1.872432 41.335 -157.8009
1.886001 41.451 -158.9931
1.899667 41.565 -160.2075
1.913433 41.678 -161.4421
1.927299 41.790 -162.6945
1.941265 41.899 -163.9619
1.955332 42.008 -165.2415
1.969501 42.114 -166.5307
1.983773 42.220 -167.8268
1.998148 42.323 -169.1273
2.012627 42.426 -170.4301
2.027212 42.528 -171.7328
2.041902 42.628 -173.0338
2.056698 42.727 -174.3313
2.071602 42.826 -175.6241
2.086614 42.924 -176.9110
2.101734 43.020 -178.1913
2.116964 43.117 -179.4648
2.132304 43.213 179.2679
2.147756 43.308 178.0058
2.163320 43.403 176.7464
2.178996 43.497 175.4862
2.194786 43.591 174.2203
2.210690 43.684 172.9432
2.226710 43.776 171.6499
2.242845 43.867 170.3369
2.259098 43.957 169.0028
2.275468 44.046 167.6479
2.291957 44.133 166.2739
2.308566 44.220 164.8833
2.325295 44.305 163.4792
2.342145 44.388 162.0650
2.359117 44.471 160.6440
2.376212 44.552 159.2198
2.393431 44.632 157.7957
2.410775 44.711 156.3752
2.428244 44.789 154.9612
2.445840 44.866 153.5565
2.463564 44.941 152.1634
2.481416 45.016 150.7836
2.499397 45.090 149.4180
2.517509 45.162 148.0658
2.535752 45.234 146.7250
2.554127 45.304 145.3913
2.572635 45.374 144.0589
2.591277 45.442 142.7214
2.610055 45.508 141.3735
2.628968 45.574 140.0121
2.648019 45.638 138.6362
2.667208 45.700 137.2466
2.686535 45.761 135.8458
2.706003 45.820 134.4370
2.725612 45.878 133.0240
2.745363 45.935 131.6115
2.765257 45.990 130.2039
2.785295 46.043 128.8060
2.805478 46.095 127.4225
2.825808 46.146 126.0579
2.846285 46.195 124.7160
2.866910 46.242 123.3996
2.887685 46.288 122.1098
2.908611 46.333 120.8458
2.929688 46.375 119.6041
2.950917 46.416 118.3795
2.972301 46.454 117.1662
2.993839 46.490 115.9596
3.015534 46.524 114.7571
3.037386 46.557 113.5580
3.059396 46.587 112.3633
3.081565 46.615 111.1757
3.103896 46.642 109.9986
3.126388 46.668 108.8363
3.149043 46.692 107.6938
3.171862 46.716 106.5765
3.194847 46.739 105.4897
3.217998 46.761 104.4389
3.241317 46.783 103.4285
3.264805 46.804 102.4615
3.288463 46.824 101.5394
3.312293 46.843 100.6611
3.336295 46.860 99.8242
3.360471 46.876 99.0256
3.384822 46.890 98.2629
3.409350 46.903 97.5343
3.434056 46.915 96.8390
3.458940 46.928 96.1772
3.484005 46.942 95.5500
3.509252 46.958 94.9590
3.534681 46.977 94.4065
3.560295 47.000 93.8955
3.586094 47.028 93.4294
3.612081 47.062 93.0122
3.638255 47.102 92.6479
3.664620 47.147 92.3403
3.691175 47.199 92.0918
3.717923 47.256 91.9030
3.744864 47.318 91.7716
3.772001 47.386 91.6927
3.799335 47.461 91.6594
3.826866 47.541 91.6634
3.854597 47.630 91.6955
3.882529 47.726 91.7464
3.910664 47.831 91.8066
3.939002 47.946 91.8678
3.967546 48.072 91.9230
3.996296 48.209 91.9675
4.025255 48.358 91.9998
4.054423 48.520 92.0213
4.083804 48.694 92.0358
4.113396 48.881 92.0464
4.143204 49.079 92.0547
4.173227 49.287 92.0605
4.203468 49.505 92.0611
4.233928 49.730 92.0521
4.264609 49.961 92.0274
4.295512 50.198 91.9784
4.326639 50.439 91.8947
4.357992 50.684 91.7643
4.389572 50.933 91.5759
4.421380 51.187 91.3231
4.453419 51.445 91.0071
4.485691 51.707 90.6342
4.518196 51.974 90.2101
4.550936 52.243 89.7388
4.583914 52.514 89.2216
4.617131 52.786 88.6578
4.650589 53.057 88.0460
4.684289 53.326 87.3844
4.718233 53.592 86.6724
4.752424 53.855 85.9108
4.786862 54.116 85.1023
4.821549 54.373 84.2513
4.856488 54.627 83.3630
4.891680 54.878 82.4426
4.927127 55.126 81.4943
4.962831 55.370 80.5218
4.998794 55.611 79.5270
5.035017 55.847 78.5109
5.071503 56.078 77.4734
5.108253 56.304 76.4137
5.145270 56.524 75.3307
5.182555 56.740 74.2249
5.220110 56.950 73.0984
5.257937 57.154 71.9552
5.296038 57.353 70.8005
5.334415 57.547 69.6397
5.373071 57.735 68.4774
5.412006 57.918 67.3168
5.451224 58.096 66.1591
5.490725 58.268 65.0034
5.530514 58.434 63.8482
5.570590 58.594 62.6925
5.610957 58.749 61.5375
5.651616 58.898 60.3868
5.692570 59.042 59.2455
5.733821 59.180 58.1192
5.775370 59.314 57.0126
5.817221 59.442 55.9288
5.859375 59.566 54.8688
5.901834 59.685 53.8315
5.944602 59.799 52.8160
5.987679 59.909 51.8226
6.031068 60.014 50.8532
6.074771 60.116 49.9117
6.118792 60.215 49.0023
6.163131 60.311 48.1291
6.207792 60.405 47.2948
6.252776 60.497 46.5004
6.298086 60.587 45.7455
6.343725 60.675 45.0289
6.389694 60.763 44.3499
6.435996 60.850 43.7084
6.482634 60.938 43.1049
6.529610 61.028 42.5403
6.576926 61.119 42.0153
6.624585 61.213 41.5300
6.672590 61.310 41.0832
6.720942 61.410 40.6720
6.769645 61.514 40.2924
6.818700 61.621 39.9395
6.868111 61.734 39.6091
6.917881 61.852 39.2975
6.968010 61.975 39.0021
7.018504 62.104 38.7206
7.069362 62.239 38.4498
7.120590 62.380 38.1849
7.172189 62.525 37.9201
7.224161 62.676 37.6492
7.276511 62.832 37.3668
7.329239 62.992 37.0695
7.382350 63.157 36.7551
7.435845 63.325 36.4221
7.489729 63.497 36.0688
7.544002 63.672 35.6926
7.598669 63.848 35.2908
7.653732 64.026 34.8614
7.709194 64.204 34.4033
7.765058 64.382 33.9171
7.821327 64.559 33.4039
7.878004 64.736 32.8655
7.935091 64.912 32.3038
7.992592 65.085 31.7201
8.050510 65.255 31.1158
8.108847 65.423 30.4926
8.167607 65.588 29.8525
8.226793 65.749 29.1987
8.286408 65.907 28.5351
8.346454 66.061 27.8650
8.406936 66.212 27.1915
8.467856 66.359 26.5170
8.529218 66.502 25.8434
8.591024 66.642 25.1733
8.653278 66.779 24.5098
8.715983 66.912 23.8561
8.779143 67.043 23.2146
8.842760 67.172 22.5870
8.906839 67.299 21.9744
8.971381 67.424 21.3774
9.036392 67.548 20.7969
9.101873 67.672 20.2334
9.167829 67.795 19.6873
9.234263 67.919 19.1583
9.301178 68.044 18.6450
9.368578 68.169 18.1457
9.436467 68.296 17.6583
9.504847 68.425 17.1808
9.573723 68.555 16.7111
9.643099 68.688 16.2469
9.712976 68.823 15.7855
9.783361 68.960 15.3236
9.854255 69.099 14.8582
9.925663 69.240 14.3867
9.997588 69.382 13.9072
10.070035 69.526 13.4179
10.143007 69.671 12.9168
10.216507 69.816 12.4023
10.290540 69.962 11.8735
10.365109 70.108 11.3300
10.440219 70.253 10.7720
10.515873 70.397 10.2003
10.592076 70.539 9.6158
10.668830 70.680 9.0198
10.746141 70.819 8.4136
10.824012 70.955 7.7996
10.902447 71.090 7.1802
10.981451 71.221 6.5579
11.061027 71.351 5.9349
11.141180 71.477 5.3138
11.221913 71.602 4.6970
11.303232 71.724 4.0868
11.385140 71.845 3.4855
11.467641 71.964 2.8947
11.550741 72.081 2.3156
11.634442 72.198 1.7491
11.718750 72.315 1.1960
11.803669 72.432 0.6564
11.889203 72.549 0.1296
11.975357 72.667 -0.3851
12.062136 72.786 -0.8892
12.149543 72.907 -1.3843
12.237583 73.029 -1.8723
12.326262 73.154 -2.3556
12.415583 73.280 -2.8364
12.505552 73.409 -3.3174
12.596172 73.539 -3.8007
12.687449 73.672 -4.2883
12.779387 73.806 -4.7826
12.871992 73.941 -5.2852
12.965268 74.078 -5.7974
13.059220 74.216 -6.3203
13.153852 74.354 -6.8546
13.249170 74.493 -7.4008
13.345179 74.633 -7.9590
13.441884 74.772 -8.5290
13.539289 74.911 -9.1106
13.637401 75.049 -9.7033
13.736223 75.188 -10.3068
13.835761 75.325 -10.9203
13.936021 75.462 -11.5437
14.037007 75.598 -12.1765
14.138725 75.733 -12.8182
14.241180 75.868 -13.4688
14.344377 76.001 -14.1277
14.448323 76.133 -14.7949
14.553021 76.265 -15.4700
14.658478 76.394 -16.1525
14.764700 76.522 -16.8417
14.871691 76.649 -17.5369
14.979457 76.773 -18.2367
15.088005 76.896 -18.9398
15.197339 77.017 -19.6446
15.307465 77.135 -20.3490
15.418389 77.251 -21.0510
15.530117 77.366 -21.7485
15.642655 77.478 -22.4393
15.756008 77.589 -23.1217
15.870182 77.699 -23.7940
15.985184 77.808 -24.4553
16.101019 77.917 -25.1052
16.217694 78.026 -25.7441
16.335214 78.135 -26.3729
16.453586 78.246 -26.9937
16.572815 78.358 -27.6086
16.692909 78.472 -28.2208
16.813872 78.587 -28.8333
16.935713 78.704 -29.4493
17.058436 78.822 -30.0718
17.182048 78.941 -30.7029
17.306556 79.061 -31.3444
17.431967 79.181 -31.9966
17.558286 79.300 -32.6593
17.685521 79.418 -33.3310
17.813677 79.535 -34.0095
17.942762 79.651 -34.6920
18.072783 79.765 -35.3755
18.203746 79.878 -36.0569
18.335658 79.990 -36.7339
18.468526 80.102 -37.4050
18.602356 80.215 -38.0699
18.737156 80.328 -38.7297
18.872934 80.443 -39.3868
19.009695 80.560 -40.0453
19.147447 80.679 -40.7097
19.286197 80.801 -41.3849
19.425953 80.924 -42.0760
19.566721 81.047 -42.7869
19.708510 81.171 -43.5200
19.851326 81.294 -44.2760
19.995177 81.414 -45.0533
20.140070 81.531 -45.8481
20.286013 81.644 -46.6547
20.433014 81.753 -47.4659
20.581080 81.857 -48.2738
20.730219 81.957 -49.0709
20.880439 82.054 -49.8504
21.031747 82.150 -50.6076
21.184152 82.245 -51.3405
21.337661 82.341 -52.0502
21.492282 82.439 -52.7410
21.648024 82.541 -53.4200
21.804895 82.647 -54.0964
21.962902 82.757 -54.7805
22.122054 82.870 -55.4819
22.282360 82.985 -56.2088
22.443827 83.101 -56.9665
22.606464 83.215 -57.7568
22.770280 83.327 -58.5781
22.935283 83.434 -59.4250
23.101481 83.536 -60.2900
23.268884 83.632 -61.1639
23.437500 83.723 -62.0372
23.607338 83.808 -62.9017
23.778406 83.890 -63.7512
23.950714 83.968 -64.5826
24.124271 84.046 -65.3964
24.299086 84.124 -66.1958
24.475167 84.202 -66.9866
24.652524 84.281 -67.7758
24.831166 84.361 -68.5699
25.011103 84.441 -69.3745
25.192344 84.520 -70.1921
25.374898 84.597 -71.0227
25.558775 84.671 -71.8633
25.743984 84.742 -72.7086
25.930536 84.809 -73.5524
26.118439 84.873 -74.3887
26.307704 84.935 -75.2126
26.498341 84.996 -76.0221
26.690359 85.058 -76.8180
26.883768 85.121 -77.6039
27.078579 85.186 -78.3851
27.274801 85.253 -79.1684
27.472446 85.322 -79.9595
27.671522 85.392 -80.7623
27.872042 85.462 -81.5785
28.074014 85.532 -82.4065
28.277450 85.600 -83.2426
28.482360 85.667 -84.0817
28.688755 85.732 -84.9188
28.896645 85.797 -85.7501
29.106042 85.862 -86.5743
29.316957 85.928 -87.3927
29.529400 85.994 -88.2085
29.743382 86.063 -89.0266
29.958915 86.132 -89.8514
30.176009 86.200 -90.6860
30.394677 86.268 -91.5309
30.614929 86.333 -92.3836
30.836778 86.395 -93.2394
31.060234 86.453 -94.0920
31.285309 86.508 -94.9354
31.512015 86.560 -95.7645
31.740364 86.609 -96.5768
31.970368 86.657 -97.3726
32.202039 86.704 -98.1538
32.435388 86.750 -98.9243
32.670428 86.796 -99.6879
32.907171 86.840 -100.4482
33.145630 86.883 -101.2083
33.385817 86.926 -101.9706
33.627745 86.966 -102.7384
33.871425 87.006 -103.5154
34.116871 87.044 -104.3063
34.364096 87.080 -105.1158
34.613113 87.112 -105.9472
34.863934 87.141 -106.8008
35.116572 87.163 -107.6723
35.371041 87.178 -108.5527
35.627354 87.186 -109.4290
35.885525 87.188 -110.2862
36.145566 87.185 -111.1109
36.407492 87.180 -111.8939
36.671316 87.176 -112.6329
36.937051 87.177 -113.3339
37.204712 87.186 -114.0104
37.474313 87.204 -114.6804
37.745867 87.232 -115.3635
38.019389 87.266 -116.0764
38.294893 87.307 -116.8301
38.572394 87.350 -117.6279
38.851905 87.392 -118.4655
39.133442 87.433 -119.3317
39.417019 87.469 -120.2116
39.702651 87.501 -121.0889
39.990353 87.529 -121.9483
40.280140 87.554 -122.7782
40.572026 87.578 -123.5712
40.866028 87.602 -124.3250
41.162160 87.627 -125.0415
41.460438 87.655 -125.7268
41.760877 87.687 -126.3901
42.063494 87.722 -127.0439
42.368303 87.760 -127.7022
42.675322 87.800 -128.3787
42.984565 87.839 -129.0836
43.296048 87.875 -129.8210
43.609789 87.905 -130.5861
43.925804 87.926 -131.3663
44.244108 87.939 -132.1452
44.564719 87.944 -132.9077
44.887654 87.945 -133.6456
45.212928 87.943 -134.3603
45.540560 87.941 -135.0602
45.870565 87.939 -135.7557
46.202962 87.937 -136.4536
46.537768 87.934 -137.1534
46.875000 87.929 -137.8494
47.214676 87.924 -138.5350
47.556813 87.920 -139.2084
47.901429 87.919 -139.8743
48.248542 87.921 -140.5417
48.598171 87.924 -141.2183
48.950334 87.928 -141.9062
49.305048 87.930 -142.6013
49.662333 87.929 -143.2954
50.022206 87.926 -143.9806
50.384688 87.919 -144.6515
50.749796 87.911 -145.3050
51.117550 87.899 -145.9388
51.487969 87.886 -146.5512
51.861072 87.872 -147.1422
52.236879 87.857 -147.7167
52.615409 87.845 -148.2853
52.996681 87.833 -148.8619
53.380717 87.822 -149.4581
53.767536 87.810 -150.0781
54.157158 87.796 -150.7182
54.549603 87.780 -151.3705
54.944892 87.762 -152.0292
55.343045 87.745 -152.6939
55.744084 87.729 -153.3685
56.148028 87.714 -154.0559
56.554900 87.699 -154.7536
56.964720 87.683 -155.4531
57.377510 87.666 -156.1433
57.793291 87.649 -156.8152
58.212085 87.632 -157.4633
58.633914 87.616 -158.0847
59.058799 87.601 -158.6797
59.486764 87.588 -159.2524
59.917829 87.576 -159.8110
60.352019 87.564 -160.3645
60.789354 87.551 -160.9165
61.229859 87.534 -161.4622
61.673556 87.514 -161.9932
62.120468 87.493 -162.5062
62.570618 87.473 -163.0082
63.024031 87.454 -163.5116
63.480729 87.437 -164.0261
63.940736 87.423 -164.5557
64.404077 87.411 -165.1039
64.870776 87.403 -165.6776
65.340856 87.399 -166.2834
65.814343 87.396 -166.9226
66.291261 87.393 -167.5927
66.771635 87.390 -168.2958
67.255489 87.384 -169.0372
67.742850 87.367 -169.8084
68.233743 87.335 -170.5699
68.728193 87.285 -171.2574
69.226226 87.224 -171.8161
69.727867 87.162 -172.2363
70.233144 87.108 -172.5601
70.742083 87.064 -172.8510
71.254709 87.027 -173.1567
71.771050 86.991 -173.4933
72.291132 86.953 -173.8539
72.814984 86.915 -174.2279
73.342631 86.877 -174.6145
73.874102 86.842 -175.0240
74.409424 86.809 -175.4680
74.948626 86.776 -175.9459
75.491734 86.743 -176.4440
76.038779 86.710 -176.9480
76.589787 86.679 -177.4545
77.144788 86.649 -177.9677
77.703811 86.619 -178.4861
78.266885 86.587 -179.0000
78.834039 86.552 -179.4991
79.405303 86.516 -179.9794
79.980706 86.476 179.5603
80.560280 86.435 179.1224
81.144053 86.392 178.7059
81.732056 86.350 178.3008
82.324320 86.309 177.8914
82.920876 86.268 177.4659
83.521755 86.227 177.0206
84.126988 86.185 176.5576
84.736607 86.141 176.0811
85.350643 86.097 175.5974
85.969129 86.051 175.1140
86.592097 86.004 174.6390
87.219579 85.958 174.1785
87.851608 85.913 173.7341
88.488217 85.869 173.3010
89.129439 85.828 172.8702
89.775308 85.788 172.4337
90.425856 85.746 171.9910
91.081119 85.701 171.5476
91.741131 85.653 171.1091
92.405925 85.601 170.6787
93.075536 85.546 170.2637
93.750000 85.487 169.8770
94.429351 85.429 169.5234
95.113625 85.375 169.1835
95.802858 85.324 168.8237
96.497085 85.272 168.4310
97.196342 85.216 168.0281
97.900667 85.155 167.6505
98.610096 85.095 167.3148
99.324665 85.039 167.0109
100.044413 84.988 166.7147
100.769376 84.942 166.4004
101.499592 84.898 166.0499
102.235100 84.851 165.6569
102.975938 84.799 165.2258
103.722144 84.740 164.7687
104.473757 84.672 164.3026
105.230817 84.599 163.8438
105.993363 84.523 163.4000
106.761435 84.447 162.9698
107.535072 84.373 162.5502
108.314315 84.301 162.1398
109.099206 84.230 161.7401
109.889783 84.159 161.3552
110.686090 84.086 160.9913
111.488167 84.011 160.6498
112.296056 83.932 160.3240
113.109800 83.849 160.0010
113.929440 83.763 159.6690
114.755020 83.674 159.3217
115.586582 83.584 158.9552
116.424170 83.495 158.5650
117.267827 83.407 158.1542
118.117598 83.318 157.7480
118.973527 83.230 157.3958
119.835658 83.145 157.1390
120.704037 83.072 156.9681
121.578708 83.010 156.8317
122.459718 82.954 156.6916
123.347111 82.901 156.5408
124.240935 82.847 156.3784
125.141236 82.793 156.2003
126.048061 82.738 156.0056
126.961458 82.683 155.7952
127.881473 82.628 155.5662
128.808154 82.571 155.3160
129.741551 82.508 155.0523
130.681712 82.435 154.7944
131.628686 82.353 154.5613
132.582521 82.264 154.3568
133.543269 82.173 154.1652
134.510979 82.085 153.9584
135.485701 82.003 153.7084
136.467486 81.926 153.4076
137.456386 81.852 153.0823
138.452451 81.781 152.7782
139.455735 81.711 152.5261
140.466288 81.639 152.3312
141.484165 81.559 152.1852
142.509418 81.462 152.0841
143.542100 81.344 152.0400
144.582265 81.207 152.0619
145.629968 81.057 152.1332
146.685262 80.903 152.2261
147.748204 80.751 152.3243
148.818849 80.606 152.4269
149.897251 80.471 152.5361
150.983469 80.346 152.6469
152.077557 80.226 152.7509
153.179574 80.104 152.8435
154.289576 79.976 152.9279
155.407622 79.841 153.0147
156.533770 79.699 153.1267
157.668078 79.556 153.3011
158.810606 79.417 153.5859
159.961413 79.286 154.0327
161.120559 79.165 154.6911
162.288105 79.056 155.5879
163.464112 78.961 156.6868
164.648640 78.878 157.8671
165.841752 78.796 158.9711
167.043510 78.700 159.9202
168.253976 78.580 160.7640
169.473213 78.443 161.6034
170.701286 78.304 162.5067
171.938258 78.184 163.4798
173.184194 78.100 164.4799
174.439158 78.062 165.4336
175.703216 78.070 166.2563
176.976434 78.116 166.8776
178.258878 78.184 167.2628
179.550615 78.255 167.4205
180.851713 78.309 167.3978
182.162239 78.333 167.2618
183.482262 78.321 167.0685
184.811850 78.275 166.8489
186.151073 78.202 166.6148
187.500000 78.112 166.3741
188.858702 78.016 166.1446
190.227250 77.921 165.9586
191.605715 77.830 165.8607
192.994169 77.744 165.8913
194.392685 77.660 166.0654
195.801334 77.577 166.3696
197.220191 77.495 166.7720
198.649330 77.416 167.2344
200.088825 77.344 167.7294
201.538751 77.283 168.2566
202.999184 77.232 168.8398
204.470200 77.184 169.5095
205.951875 77.132 170.2796
207.444287 77.070 171.1193
208.947514 77.000 171.9337
210.461634 76.923 172.5997
211.986726 76.844 173.0544
213.522869 76.769 173.3556
215.070144 76.704 173.6527
216.628631 76.653 174.1016
218.198411 76.618 174.7792
219.779567 76.596 175.6422
221.372180 76.582 176.5751
222.976334 76.572 177.4724
224.592112 76.567 178.2827
226.219600 76.564 179.0167
227.858880 76.565 179.7261
229.510039 76.565 -179.5380
231.173164 76.564 -178.7574
232.848340 76.565 -177.9503
234.535655 76.568 -177.1511
236.235197 76.578 -176.3901
237.947054 76.592 -175.6827
239.671317 76.607 -175.0305
241.408074 76.620 -174.4233
243.157416 76.631 -173.8468
244.919435 76.641 -173.2907
246.694223 76.654 -172.7441
248.481871 76.672 -172.1939
250.282473 76.694 -171.6307
252.096123 76.721 -171.0534
253.922915 76.750 -170.4686
255.762945 76.780 -169.8861
257.616309 76.813 -169.3149
259.483103 76.848 -168.7601
261.363424 76.884 -168.2250
263.257372 76.922 -167.7117
265.165043 76.963 -167.2209
267.086538 77.006 -166.7511
269.021957 77.052 -166.3000
270.971401 77.101 -165.8660
272.934972 77.150 -165.4491
274.912771 77.199 -165.0508
276.904902 77.246 -164.6707
278.911469 77.293 -164.3045
280.932577 77.340 -163.9459
282.968330 77.387 -163.5892
285.018835 77.436 -163.2338
287.084199 77.485 -162.8848
289.164530 77.535 -162.5504
291.259935 77.583 -162.2358
293.370525 77.631 -161.9407
295.496408 77.679 -161.6614
297.637697 77.727 -161.3940
299.794503 77.776 -161.1356
301.966937 77.826 -160.8854
304.155114 77.875 -160.6436
306.359147 77.924 -160.4097
308.579152 77.971 -160.1829
310.815244 78.018 -159.9641
313.067539 78.065 -159.7562
315.336156 78.111 -159.5624
317.621211 78.158 -159.3838
319.922826 78.203 -159.2180
322.241118 78.248 -159.0599
324.576210 78.292 -158.9053
326.928223 78.335 -158.7532
329.297280 78.378 -158.6071
331.683504 78.421 -158.4723
334.087019 78.462 -158.3531
336.507952 78.502 -158.2514
338.946427 78.540 -158.1661
341.402572 78.579 -158.0920
343.876516 78.620 -158.0220
346.368387 78.662 -157.9509
348.878315 78.706 -157.8778
351.406431 78.749 -157.8026
353.952867 78.792 -157.7261
356.517756 78.832 -157.6500
359.101230 78.871 -157.5753
361.703426 78.908 -157.5024
364.324478 78.943 -157.4330
366.964523 78.976 -157.3704
369.623699 79.007 -157.3165
372.302145 79.038 -157.2712
375.000000 79.069 -157.2332
377.717405 79.101 -157.2012
380.454501 79.133 -157.1731
383.211431 79.164 -157.1451
385.988339 79.196 -157.1133
388.785369 79.227 -157.0751
391.602668 79.258 -157.0300
394.440383 79.289 -156.9811
397.298660 79.320 -156.9343
400.177650 79.350 -156.8960
403.077502 79.379 -156.8702
405.998368 79.406 -156.8583
408.940400 79.431 -156.8596
411.903750 79.455 -156.8709
414.888575 79.479 -156.8885
417.895028 79.502 -156.9099
420.923268 79.524 -156.9333
423.973452 79.545 -156.9571
427.045738 79.564 -156.9791
430.140287 79.581 -156.9987
433.257261 79.598 -157.0175
436.396822 79.614 -157.0375
439.559133 79.630 -157.0582
442.744360 79.646 -157.0768
445.952668 79.663 -157.0925
449.184225 79.680 -157.1077
452.439199 79.695 -157.1252
455.717760 79.709 -157.1476
459.020079 79.719 -157.1755
462.346327 79.726 -157.2085
465.696680 79.731 -157.2449
469.071310 79.734 -157.2833
472.470394 79.736 -157.3237
475.894109 79.737 -157.3680
479.342634 79.739 -157.4183
482.816148 79.740 -157.4755
486.314833 79.742 -157.5381
489.838871 79.743 -157.6024
493.388445 79.744 -157.6625
496.963741 79.745 -157.7136
500.564945 79.743 -157.7529
504.192245 79.738 -157.7803
507.845830 79.729 -157.7983
511.525890 79.717 -157.8090
515.232618 79.702 -157.8118
518.966206 79.686 -157.8040
522.726849 79.670 -157.7835
526.514743 79.654 -157.7495
530.330086 79.639 -157.7015
534.173076 79.625 -157.6379
538.043915 79.611 -157.5555
541.942803 79.599 -157.4530
545.869944 79.588 -157.3331
549.825542 79.577 -157.2020
553.809805 79.567 -157.0655
557.822939 79.556 -156.9272
561.865154 79.546 -156.7888
565.936660 79.535 -156.6512
570.037671 79.525 -156.5155
574.168399 79.515 -156.3818
578.329060 79.507 -156.2493
582.519870 79.499 -156.1166
586.741049 79.492 -155.9829
590.992817 79.485 -155.8481
595.275394 79.479 -155.7132
599.589005 79.474 -155.5787
603.933874 79.469 -155.4454
608.310228 79.464 -155.3130
612.718295 79.461 -155.1798
617.158304 79.457 -155.0437
621.630488 79.452 -154.9020
626.135079 79.445 -154.7516
630.672311 79.436 -154.5905
635.242423 79.426 -154.4210
639.845651 79.414 -154.2490
644.482237 79.401 -154.0820
649.152421 79.387 -153.9233
653.856447 79.373 -153.7695
658.594560 79.358 -153.6133
663.367008 79.344 -153.4498
668.174039 79.331 -153.2789
673.015903 79.318 -153.1011
677.892854 79.306 -152.9154
682.805145 79.295 -152.7203
687.753032 79.284 -152.5145
692.736774 79.271 -152.2980
697.756631 79.258 -152.0728
702.812863 79.244 -151.8430
707.905735 79.230 -151.6104
713.035511 79.216 -151.3716
718.202461 79.203 -151.1219
723.406852 79.190 -150.8599
728.648956 79.177 -150.5880
733.929047 79.164 -150.3091
739.247399 79.151 -150.0243
744.604290 79.139 -149.7336
750.000000 79.128 -149.4364
755.434809 79.117 -149.1309
760.909001 79.106 -148.8157
766.422861 79.095 -148.4901
771.976677 79.084 -148.1545
777.570739 79.074 -147.8094
783.205337 79.062 -147.4545
788.880766 79.051 -147.0894
794.597321 79.039 -146.7124
800.355301 79.028 -146.3210
806.155005 79.019 -145.9149
811.996736 79.013 -145.4968
817.880799 79.011 -145.0691
823.807501 79.012 -144.6317
829.777150 79.016 -144.1833
835.790057 79.022 -143.7246
841.846536 79.029 -143.2581
847.946903 79.038 -142.7855
854.091476 79.048 -142.3061
860.280575 79.060 -141.8180
866.514523 79.074 -141.3207
872.793644 79.090 -140.8172
879.118267 79.108 -140.3127
885.488720 79.129 -139.8112
891.905336 79.151 -139.3123
898.368450 79.175 -138.8123
904.878398 79.201 -138.3070
911.435520 79.230 -137.7957
918.040157 79.261 -137.2815
924.692655 79.297 -136.7698
931.393359 79.335 -136.2650
938.142619 79.377 -135.7701
944.940787 79.420 -135.2864
951.788218 79.466 -134.8146
958.685268 79.515 -134.3552
965.632296 79.566 -133.9073
972.629666 79.619 -133.4681
979.677741 79.673 -133.0356
986.776890 79.729 -132.6108
993.927482 79.786 -132.1955
1001.129891 79.844 -131.7911
1008.384491 79.904 -131.3992
1015.691660 79.965 -131.0216
1023.051781 80.027 -130.6594
1030.465236 80.091 -130.3120
1037.932411 80.155 -129.9771
1045.453698 80.220 -129.6528
1053.029486 80.286 -129.3383
1060.660172 80.353 -129.0342
1068.346153 80.422 -128.7433
1076.087829 80.493 -128.4689
1083.885605 80.566 -128.2130
1091.739887 80.640 -127.9763
1099.651084 80.714 -127.7580
1107.619609 80.787 -127.5552
1115.645878 80.858 -127.3646
1123.730308 80.927 -127.1838
1131.873321 80.996 -127.0121
1140.075341 81.064 -126.8497
1148.336797 81.132 -126.6967
1156.658119 81.199 -126.5529
1165.039741 81.265 -126.4178
1173.482099 81.331 -126.2917
1181.985634 81.396 -126.1744
1190.550789 81.461 -126.0658
1199.178011 81.525 -125.9659
1207.867749 81.587 -125.8751
1216.620457 81.648 -125.7930
1225.436590 81.707 -125.7180
1234.316609 81.765 -125.6476
1243.260976 81.823 -125.5801
1252.270157 81.880 -125.5159
1261.344623 81.937 -125.4558
1270.484846 81.993 -125.3994
1279.691303 82.048 -125.3451
1288.964474 82.103 -125.2919
1298.304842 82.157 -125.2395
1307.712894 82.210 -125.1884
1317.189120 82.262 -125.1385
1326.734016 82.315 -125.0903
1336.348077 82.366 -125.0438
1346.031806 82.416 -124.9980
1355.785708 82.466 -124.9512
1365.610290 82.514 -124.9028
1375.506065 82.563 -124.8536
1385.473549 82.611 -124.8048
1395.513261 82.660 -124.7566
1405.625726 82.708 -124.7087
1415.811469 82.757 -124.6607
1426.071023 82.806 -124.6118
1436.404921 82.854 -124.5610
1446.813703 82.903 -124.5087
1457.297912 82.952 -124.4558
1467.858093 83.001 -124.4032
1478.494798 83.049 -124.3519
1489.208581 83.098 -124.3030
1500.000000 83.145 -124.2572
1510.869618 83.191 -124.2142
1521.818002 83.235 -124.1719
1532.845723 83.280 -124.1273
1543.953355 83.324 -124.0792
1555.141477 83.370 -124.0270
1566.410674 83.418 -123.9698
1577.761531 83.466 -123.9059
1589.194642 83.516 -123.8337
1600.710601 83.566 -123.7554
1612.310010 83.617 -123.6761
1623.993473 83.668 -123.6013
1635.761599 83.721 -123.5342
1647.615002 83.773 -123.4749
1659.554299 83.825 -123.4207
1671.580114 83.877 -123.3679
1683.693072 83.930 -123.3155
1695.893807 83.982 -123.2643
1708.182952 84.036 -123.2137
1720.561150 84.090 -123.1610
1733.029045 84.145 -123.1047
1745.587288 84.201 -123.0463
1758.236533 84.258 -122.9889
1770.977440 84.315 -122.9365
1783.810673 84.373 -122.8927
1796.736900 84.431 -122.8605
1809.756796 84.491 -122.8406
1822.871040 84.552 -122.8309
1836.080315 84.615 -122.8276
1849.385310 84.678 -122.8275
1862.786718 84.742 -122.8291
1876.285239 84.807 -122.8325
1889.881575 84.871 -122.8387
1903.576436 84.935 -122.8484
1917.370535 84.999 -122.8620
1931.264593 85.064 -122.8796
1945.259332 85.129 -122.9015
1959.355483 85.195 -122.9278
1973.553781 85.263 -122.9592
1987.854965 85.331 -122.9965
2002.259781 85.400 -123.0410
2016.768981 85.470 -123.0942
2031.383320 85.540 -123.1584
2046.103561 85.612 -123.2357
2060.930471 85.684 -123.3275
2075.864823 85.758 -123.4352
2090.907395 85.832 -123.5609
2106.058972 85.907 -123.7047
2121.320344 85.981 -123.8621
2136.692305 86.054 -124.0254
2152.175658 86.127 -124.1893
2167.771210 86.200 -124.3530
2183.479774 86.273 -124.5182
2199.302169 86.347 -124.6868
2215.239219 86.421 -124.8601
2231.291755 86.495 -125.0413
2247.460615 86.571 -125.2367
2263.746641 86.646 -125.4536
2280.150683 86.722 -125.6965
2296.673595 86.796 -125.9645
2313.316238 86.870 -126.2512
2330.079481 86.943 -126.5487
2346.964198 87.016 -126.8523
2363.971268 87.088 -127.1619
2381.101578 87.159 -127.4811
2398.356022 87.230 -127.8137
2415.735498 87.299 -128.1619
2433.240913 87.367 -128.5250
2450.873180 87.434 -128.9026
2468.633217 87.499 -129.2948
2486.521951 87.564 -129.7027
2504.540314 87.628 -130.1262
2522.689246 87.690 -130.5632
2540.969692 87.752 -131.0118
2559.382606 87.813 -131.4712
2577.928947 87.872 -131.9418
2596.609683 87.930 -132.4254
2615.425787 87.986 -132.9243
2634.378241 88.040 -133.4397
2653.468031 88.092 -133.9720
2672.696154 88.143 -134.5211
2692.063613 88.192 -135.0856
2711.571415 88.238 -135.6637
2731.220579 88.283 -136.2526
2751.012130 88.324 -136.8514
2770.947098 88.363 -137.4622
2791.026522 88.398 -138.0876
2811.251451 88.430 -138.7291
2831.622938 88.458 -139.3848
2852.142045 88.483 -140.0494
2872.809842 88.504 -140.7170
2893.627406 88.523 -141.3829
2914.595823 88.538 -142.0452
2935.716186 88.550 -142.7056
2956.989596 88.559 -143.3668
2978.417161 88.564 -144.0300
3000.000000 88.565 -144.6934
3021.739237 88.562 -145.3552
3043.636005 88.555 -146.0143
3065.691446 88.544 -146.6693
3087.906710 88.531 -147.3177
3110.282955 88.515 -147.9565
3132.821347 88.496 -148.5841
3155.523062 88.475 -149.1987
3178.389283 88.450 -149.8000
3201.421202 88.421 -150.3904
3224.620020 88.389 -150.9719
3247.986946 88.354 -151.5457
3271.523198 88.317 -152.1100
3295.230004 88.277 -152.6614
3319.108599 88.235 -153.1959
3343.160228 88.191 -153.7109
3367.386145 88.145 -154.2060
3391.787613 88.098 -154.6812
3416.365904 88.050 -155.1362
3441.122300 88.000 -155.5707
3466.058091 87.948 -155.9846
3491.174576 87.895 -156.3786
3516.473066 87.841 -156.7546
3541.954880 87.787 -157.1138
3567.621345 87.732 -157.4566
3593.473800 87.679 -157.7833
3619.513592 87.626 -158.0955
3645.742080 87.575 -158.3954
3672.160630 87.524 -158.6839
3698.770620 87.471 -158.9599
3725.573436 87.418 -159.2212
3752.570477 87.363 -159.4662
3779.763150 87.307 -159.6942
3807.152872 87.251 -159.9050
3834.741071 87.195 -160.0974
3862.529185 87.139 -160.2691
3890.518664 87.084 -160.4174
3918.710966 87.030 -160.5397
3947.107561 86.978 -160.6357
3975.709929 86.928 -160.7084
4004.519563 86.881 -160.7620
4033.537962 86.836 -160.8004
4062.766641 86.794 -160.8258
4092.207123 86.754 -160.8387
4121.860942 86.719 -160.8401
4151.729646 86.688 -160.8317
4181.814790 86.660 -160.8153
4212.117944 86.637 -160.7927
4242.640687 86.617 -160.7654
4273.384610 86.601 -160.7342
4304.351317 86.589 -160.7003
4335.542421 86.579 -160.6666
4366.959549 86.572 -160.6354
4398.604338 86.570 -160.6075
4430.478438 86.571 -160.5829
4462.583511 86.576 -160.5632
4494.921231 86.584 -160.5516
4527.493283 86.597 -160.5516
4560.301365 86.613 -160.5660
4593.347189 86.634 -160.5972
4626.632476 86.658 -160.6473
4660.158962 86.687 -160.7192
4693.928395 86.720 -160.8154
4727.942535 86.758 -160.9386
4762.203156 86.800 -161.0914
4796.712043 86.846 -161.2766
4831.470996 86.895 -161.4971
4866.481826 86.948 -161.7559
4901.746360 87.004 -162.0563
4937.266434 87.064 -162.4027
4973.043902 87.126 -162.8003
5009.080628 87.190 -163.2558
5045.378492 87.256 -163.7776
5081.939384 87.322 -164.3745
5118.765212 87.386 -165.0529
5155.857894 87.448 -165.8151
5193.219366 87.504 -166.6605
5230.851574 87.554 -167.5865
5268.756481 87.595 -168.5887
5306.936062 87.627 -169.6600
5345.392309 87.647 -170.7920
5384.127225 87.653 -171.9747
5423.142830 87.645 -173.1970
5462.441159 87.620 -174.4470
5502.024259 87.578 -175.7106
5541.894195 87.519 -176.9730
5582.053045 87.441 -178.2180
5622.502902 87.346 -179.4293
5663.245876 87.234 179.4089
5704.284090 87.106 178.3118
5745.619684 86.965 177.2924
5787.254813 86.813 176.3613
5829.191647 86.651 175.5265
5871.432373 86.482 174.7937
5913.979192 86.309 174.1665
5956.834323 86.134 173.6455
6000.000000 85.959 173.2274
6043.478473 85.785 172.9055
6087.272010 85.613 172.6725
6131.382892 85.445 172.5223
6175.813420 85.281 172.4506
6220.565910 85.123 172.4528
6265.642695 84.971 172.5243
6311.046124 84.828 172.6598
6356.778566 84.693 172.8551
6402.842404 84.569 173.1067
6449.240040 84.454 173.4122
6495.973891 84.350 173.7691
6543.046396 84.257 174.1741
6590.460007 84.176 174.6218
6638.217197 84.109 175.1062
6686.320456 84.055 175.6213
6734.772290 84.017 176.1613
6783.575226 83.996 176.7195
6832.731809 83.993 177.2890
6882.244600 84.008 177.8604
6932.116181 84.044 178.4224
6982.349153 84.102 178.9614
7032.946133 84.181 179.4620
7083.909760 84.285 179.9082
7135.242690 84.414 -179.7174
7186.947600 84.573 -179.4354
7239.027185 84.762 -179.2737
7291.484160 84.984 -179.2686
7344.321260 85.238 -179.4634
7397.541239 85.524 -179.9070
7451.146872 85.839 179.3484
7505.140954 86.179 178.2496
7559.526299 86.537 176.7409
7614.305743 86.902 174.7684
7669.482141 87.262 172.2873
7725.058371 87.603 169.2700
7781.037328 87.907 165.7115
7837.421932 88.155 161.6328
7894.215122 88.330 157.0851
7951.419859 88.412 152.1520
8009.039125 88.389 146.9475
8067.075924 88.251 141.6086
8125.533282 87.994 136.2839
8184.414245 87.620 131.1198
8243.721885 87.138 126.2496
8303.459292 86.558 121.7831
8363.629581 85.896 117.8011
8424.235888 85.169 114.3536
8485.281374 84.394 111.4620
8546.769221 83.586 109.1232
8608.702634 82.762 107.3157
8671.084842 81.934 106.0034
8733.919097 81.113 105.1414
8797.208675 80.306 104.6801
8860.956876 79.519 104.5716
8925.167022 78.755 104.7721
8989.842461 78.016 105.2437
9054.986566 77.304 105.9535
9120.602731 76.618 106.8725
9186.694378 75.959 107.9758
9253.264952 75.326 109.2416
9320.317925 74.718 110.6493
9387.856790 74.134 112.1794
9455.885071 73.575 113.8163
9524.406312 73.039 115.5471
9593.424086 72.524 117.3617
9662.941992 72.030 119.2507
9732.963653 71.555 121.2036
9803.492719 71.100 123.2090
9874.532869 70.663 125.2545
9946.087805 70.242 127.3292
10018.161257 69.838 129.4247
10090.756983 69.449 131.5342
10163.878768 69.074 133.6520
10237.530423 68.711 135.7743
10311.715789 68.357 137.9000
10386.438732 68.011 140.0330
10461.703149 67.670 142.1842
10537.512962 67.332 144.3705
10613.872125 66.998 146.6116
10690.784618 66.668 148.9263
10768.254450 66.344 151.3293
10846.285661 66.027 153.8280
10924.882318 65.721 156.4216
11004.048518 65.428 159.1022
11083.788390 65.152 161.8557
11164.106090 64.894 164.6653
11245.005805 64.656 167.5136
11326.491752 64.436 170.3854
11408.568180 64.236 173.2686
11491.239368 64.054 176.1548
11574.509626 63.890 179.0393
11658.383294 63.744 -178.0816
11742.864745 63.614 -175.2101
11827.958384 63.499 -172.3446
11913.668646 63.400 -169.4821
12000.000000 63.316 -166.6213
12086.956947 63.249 -163.7633
12174.544019 63.196 -160.9103
12262.765784 63.158 -158.0652
12351.626840 63.136 -155.2308
12441.131819 63.129 -152.4089
12531.285389 63.140 -149.5992
12622.092249 63.170 -146.8019
12713.557132 63.220 -144.0187
12805.684808 63.291 -141.2538
12898.480079 63.385 -138.5125
12991.947783 63.502 -135.8002
13086.092792 63.645 -133.1248
13180.920015 63.815 -130.4958
13276.434395 64.016 -127.9247
13372.640911 64.251 -125.4229
13469.544580 64.523 -123.0027
13567.150452 64.838 -120.6819
13665.463617 65.200 -118.4868
13764.489200 65.616 -116.4535
13864.232362 66.090 -114.6289
13964.698305 66.632 -113.0722
14065.892266 67.247 -111.8573
14167.819519 67.941 -111.0811
14270.485380 68.715 -110.8667
14373.895200 69.561 -111.3585
14478.054370 70.464 -112.7109
14582.968320 71.398 -115.0742
14688.642520 72.327 -118.5760
14795.082478 73.208 -123.3017
14902.293745 73.991 -129.2719
15010.281908 74.623 -136.4202
15119.052599 75.054 -144.5724
15228.611486 75.243 -153.4370
15338.964283 75.164 -162.6248
15450.116741 74.815 -171.7076
15562.074656 74.215 179.7031
15674.843864 73.401 171.8966
15788.430244 72.416 165.0452
15902.839718 71.308 159.2150
16018.078250 70.121 154.3890
16134.151848 68.895 150.4896
16251.066563 67.665 147.3947
16368.828491 66.459 144.9521
16487.443769 65.299 142.9939
16606.918584 64.200 141.3483
16727.259161 63.168 139.8463
16848.471777 62.207 138.3251
16970.562748 61.312 136.6283
17093.538442 60.478 134.6054
17217.405268 59.694 132.1101
17342.169684 58.947 129.0013
17467.838194 58.222 125.1439
17594.417350 57.500 120.4067
17721.913751 56.765 114.6569
17850.334044 55.998 107.7538
17979.684923 55.185 99.5389
18109.973131 54.317 89.8118
18241.205462 53.396 78.3019
18373.388756 52.437 64.6770
18506.529905 51.474 48.7015
18640.635849 50.557 30.6602
18775.713581 49.748 11.8099
18911.770141 49.103 -5.9559
19048.812624 48.653 -21.2431
19186.848172 48.394 -33.6929
19325.883983 48.293 -43.5932
19465.927305 48.302 -51.3840
19606.985439 48.371 -57.4268
19749.065738 48.460 -61.9428
19892.175609 48.536 -65.0078
20036.322514 48.580 -66.5792
