* Measurement data measured by REW V5.31.3
* Source: Headset (2- CX31993 HIFI AUDIO), MICROPHONE (Master Volume), R, volume: 0.300
* Format: 256k Log Swept Sine, 1 sweep at -11.9 dBFS with no timing reference
* Dated: 09 24, 25 1:43:28 PM
* REW Settings:
*  C-weighting compensation: Off
*  Target level: 75.0 dB
* Note: ; 
* Measurement: Moondrop Lan2 Ref L
* Smoothing: 1/12 octave
* Frequency Step: 96 ppo
* Start Frequency: 0.36621094 Hz
*
* Freq(Hz) SPL(dB) Phase(degrees)
0.366211 32.660 -15.0032
0.368865 32.661 -15.0448
0.371538 32.662 -15.1069
0.374230 32.663 -15.1846
0.376942 32.664 -15.2736
0.379673 32.666 -15.3707
0.382424 32.667 -15.4739
0.385196 32.669 -15.5819
0.387987 32.671 -15.6940
0.390798 32.672 -15.8099
0.393630 32.674 -15.9291
0.396483 32.676 -16.0518
0.399356 32.678 -16.1778
0.402250 32.679 -16.3072
0.405165 32.681 -16.4399
0.408101 32.683 -16.5759
0.411058 32.685 -16.7153
0.414037 32.686 -16.8580
0.417037 32.688 -17.0042
0.420059 32.690 -17.1538
0.423103 32.692 -17.3067
0.426169 32.694 -17.4632
0.429257 32.696 -17.6230
0.432368 32.697 -17.7864
0.435501 32.699 -17.9532
0.438656 32.701 -18.1235
0.441835 32.703 -18.2973
0.445037 32.705 -18.4746
0.448262 32.707 -18.6554
0.451510 32.709 -18.8398
0.454782 32.711 -19.0277
0.458077 32.713 -19.2191
0.461397 32.715 -19.4141
0.464740 32.717 -19.6127
0.468108 32.719 -19.8148
0.471500 32.721 -20.0205
0.474917 32.723 -20.2298
0.478358 32.725 -20.4427
0.481825 32.727 -20.6591
0.485316 32.729 -20.8792
0.488833 32.731 -21.1029
0.492375 32.733 -21.3302
0.495943 32.736 -21.5611
0.499537 32.738 -21.7956
0.503157 32.740 -22.0338
0.506803 32.742 -22.2756
0.510475 32.744 -22.5211
0.514175 32.746 -22.7702
0.517900 32.749 -23.0230
0.521653 32.751 -23.2795
0.525434 32.753 -23.5397
0.529241 32.756 -23.8035
0.533076 32.758 -24.0711
0.536939 32.760 -24.3424
0.540830 32.762 -24.6175
0.544749 32.765 -24.8964
0.548696 32.767 -25.1790
0.552673 32.770 -25.4654
0.556677 32.772 -25.7557
0.560711 32.774 -26.0499
0.564774 32.777 -26.3480
0.568867 32.779 -26.6500
0.572989 32.782 -26.9560
0.577141 32.784 -27.2660
0.581324 32.787 -27.5801
0.585536 32.789 -27.8983
0.589779 32.792 -28.2207
0.594053 32.794 -28.5473
0.598358 32.797 -28.8783
0.602694 32.800 -29.2136
0.607061 32.802 -29.5533
0.611460 32.805 -29.8976
0.615891 32.808 -30.2465
0.620354 32.810 -30.6002
0.624849 32.813 -30.9587
0.629377 32.816 -31.3221
0.633938 32.818 -31.6907
0.638532 32.821 -32.0644
0.643159 32.824 -32.4436
0.647819 32.827 -32.8282
0.652514 32.829 -33.2186
0.657242 32.832 -33.6148
0.662005 32.835 -34.0171
0.666802 32.838 -34.4257
0.671634 32.841 -34.8409
0.676501 32.844 -35.2628
0.681403 32.847 -35.6918
0.686341 32.850 -36.1282
0.691314 32.853 -36.5722
0.696324 32.856 -37.0242
0.701370 32.859 -37.4847
0.706452 32.862 -37.9542
0.711571 32.864 -38.4331
0.716728 32.867 -38.9224
0.721921 32.869 -39.4227
0.727153 32.871 -39.9354
0.732422 32.873 -40.4618
0.737729 32.873 -41.0032
0.743075 32.873 -41.5611
0.748460 32.872 -42.1366
0.753883 32.871 -42.7304
0.759346 32.869 -43.3430
0.764849 32.867 -43.9747
0.770391 32.864 -44.6257
0.775974 32.860 -45.2960
0.781597 32.856 -45.9856
0.787261 32.852 -46.6944
0.792966 32.847 -47.4223
0.798712 32.842 -48.1692
0.804500 32.836 -48.9351
0.810329 32.830 -49.7198
0.816201 32.824 -50.5232
0.822116 32.817 -51.3452
0.828073 32.810 -52.1856
0.834074 32.802 -53.0443
0.840118 32.794 -53.9212
0.846206 32.786 -54.8161
0.852338 32.778 -55.7289
0.858514 32.769 -56.6596
0.864735 32.760 -57.6080
0.871001 32.751 -58.5741
0.877313 32.741 -59.5579
0.883670 32.732 -60.5593
0.890074 32.722 -61.5783
0.896524 32.712 -62.6150
0.903020 32.701 -63.6694
0.909564 32.691 -64.7418
0.916155 32.681 -65.8322
0.922794 32.670 -66.9410
0.929481 32.660 -68.0683
0.936216 32.649 -69.2147
0.943000 32.639 -70.3805
0.949834 32.628 -71.5662
0.956717 32.618 -72.7724
0.963649 32.607 -73.9997
0.970632 32.597 -75.2490
0.977666 32.587 -76.5211
0.984750 32.578 -77.8170
0.991886 32.568 -79.1378
0.999074 32.559 -80.4845
1.006314 32.550 -81.8587
1.013606 32.542 -83.2616
1.020951 32.534 -84.6948
1.028349 32.527 -86.1602
1.035801 32.520 -87.6594
1.043307 32.515 -89.1945
1.050867 32.511 -90.7676
1.058482 32.508 -92.3811
1.066152 32.509 -94.0371
1.073878 32.513 -95.7382
1.081660 32.524 -97.4866
1.089498 32.544 -99.2843
1.097393 32.576 -101.1324
1.105345 32.621 -103.0312
1.113355 32.680 -104.9791
1.121423 32.752 -106.9734
1.129549 32.834 -109.0097
1.137734 32.924 -111.0830
1.145979 33.023 -113.1876
1.154283 33.129 -115.3175
1.162647 33.241 -117.4663
1.171072 33.360 -119.6278
1.179558 33.484 -121.7959
1.188106 33.614 -123.9647
1.196715 33.750 -126.1287
1.205387 33.891 -128.2828
1.214122 34.038 -130.4222
1.222920 34.190 -132.5430
1.231782 34.346 -134.6414
1.240708 34.508 -136.7146
1.249699 34.674 -138.7601
1.258754 34.845 -140.7761
1.267876 35.021 -142.7612
1.277063 35.200 -144.7148
1.286318 35.384 -146.6362
1.295639 35.571 -148.5258
1.305027 35.762 -150.3837
1.314484 35.956 -152.2109
1.324009 36.153 -154.0083
1.333604 36.352 -155.7771
1.343268 36.555 -157.5188
1.353002 36.759 -159.2348
1.362806 36.966 -160.9270
1.372681 37.174 -162.5969
1.382628 37.383 -164.2464
1.392647 37.594 -165.8772
1.402739 37.805 -167.4907
1.412904 38.016 -169.0885
1.423142 38.228 -170.6715
1.433455 38.441 -172.2398
1.443843 38.653 -173.7930
1.454305 38.867 -175.3289
1.464844 39.082 -176.8444
1.475459 39.299 -178.3351
1.486150 39.520 -179.7966
1.496920 39.744 178.7746
1.507767 39.971 177.3805
1.518693 40.203 176.0218
1.529698 40.439 174.6984
1.540783 40.680 173.4089
1.551948 40.924 172.1520
1.563194 41.171 170.9255
1.574521 41.423 169.7272
1.585931 41.677 168.5549
1.597423 41.934 167.4061
1.608999 42.194 166.2785
1.620658 42.457 165.1697
1.632402 42.722 164.0773
1.644232 42.988 162.9991
1.656146 43.256 161.9327
1.668147 43.525 160.8760
1.680235 43.795 159.8268
1.692411 44.065 158.7831
1.704675 44.336 157.7430
1.717028 44.606 156.7047
1.729470 44.875 155.6661
1.742003 45.143 154.6260
1.754626 45.410 153.5827
1.767341 45.675 152.5352
1.780147 45.937 151.4828
1.793047 46.197 150.4252
1.806040 46.455 149.3632
1.819128 46.709 148.2985
1.832310 46.961 147.2341
1.845587 47.211 146.1736
1.858961 47.459 145.1205
1.872432 47.704 144.0778
1.886001 47.949 143.0474
1.899667 48.192 142.0303
1.913433 48.433 141.0267
1.927299 48.674 140.0362
1.941265 48.913 139.0581
1.955332 49.151 138.0916
1.969501 49.388 137.1356
1.983773 49.624 136.1887
1.998148 49.859 135.2497
2.012627 50.094 134.3173
2.027212 50.327 133.3901
2.041902 50.560 132.4667
2.056698 50.792 131.5457
2.071602 51.023 130.6258
2.086614 51.254 129.7056
2.101734 51.484 128.7838
2.116964 51.714 127.8591
2.132304 51.943 126.9308
2.147756 52.172 125.9980
2.163320 52.401 125.0606
2.178996 52.629 124.1191
2.194786 52.856 123.1748
2.210690 53.083 122.2296
2.226710 53.308 121.2856
2.242845 53.533 120.3448
2.259098 53.756 119.4087
2.275468 53.977 118.4779
2.291957 54.198 117.5529
2.308566 54.417 116.6336
2.325295 54.635 115.7197
2.342145 54.852 114.8105
2.359117 55.068 113.9055
2.376212 55.283 113.0038
2.393431 55.497 112.1044
2.410775 55.710 111.2065
2.428244 55.922 110.3091
2.445840 56.134 109.4112
2.463564 56.345 108.5116
2.481416 56.555 107.6096
2.499397 56.765 106.7042
2.517509 56.975 105.7948
2.535752 57.184 104.8813
2.554127 57.393 103.9638
2.572635 57.600 103.0432
2.591277 57.807 102.1205
2.610055 58.013 101.1971
2.628968 58.218 100.2741
2.648019 58.421 99.3521
2.667208 58.624 98.4319
2.686535 58.825 97.5136
2.706003 59.025 96.5973
2.725612 59.225 95.6828
2.745363 59.423 94.7699
2.765257 59.620 93.8581
2.785295 59.817 92.9468
2.805478 60.012 92.0356
2.825808 60.207 91.1238
2.846285 60.402 90.2106
2.866910 60.595 89.2953
2.887685 60.789 88.3776
2.908611 60.981 87.4568
2.929688 61.173 86.5331
2.950917 61.364 85.6066
2.972301 61.554 84.6778
2.993839 61.742 83.7474
3.015534 61.930 82.8160
3.037386 62.117 81.8844
3.059396 62.302 80.9529
3.081565 62.487 80.0219
3.103896 62.670 79.0915
3.126388 62.852 78.1618
3.149043 63.034 77.2326
3.171862 63.215 76.3038
3.194847 63.395 75.3749
3.217998 63.574 74.4456
3.241317 63.753 73.5152
3.264805 63.930 72.5833
3.288463 64.107 71.6493
3.312293 64.283 70.7130
3.336295 64.458 69.7744
3.360471 64.632 68.8335
3.384822 64.805 67.8908
3.409350 64.977 66.9469
3.434056 65.148 66.0024
3.458940 65.318 65.0576
3.484005 65.486 64.1131
3.509252 65.654 63.1691
3.534681 65.821 62.2256
3.560295 65.987 61.2827
3.586094 66.152 60.3402
3.612081 66.316 59.3976
3.638255 66.480 58.4543
3.664620 66.642 57.5099
3.691175 66.804 56.5638
3.717923 66.965 55.6157
3.744864 67.124 54.6657
3.772001 67.282 53.7142
3.799335 67.440 52.7617
3.826866 67.596 51.8087
3.854597 67.751 50.8560
3.882529 67.905 49.9038
3.910664 68.059 48.9525
3.939002 68.211 48.0022
3.967546 68.363 47.0528
3.996296 68.513 46.1039
4.025255 68.663 45.1548
4.054423 68.812 44.2049
4.083804 68.959 43.2537
4.113396 69.106 42.3011
4.143204 69.252 41.3473
4.173227 69.396 40.3928
4.203468 69.539 39.4381
4.233928 69.682 38.4840
4.264609 69.823 37.5309
4.295512 69.964 36.5792
4.326639 70.103 35.6290
4.357992 70.242 34.6800
4.389572 70.379 33.7317
4.421380 70.516 32.7836
4.453419 70.652 31.8349
4.485691 70.786 30.8856
4.518196 70.920 29.9358
4.550936 71.053 28.9858
4.583914 71.184 28.0363
4.617131 71.315 27.0880
4.650589 71.444 26.1413
4.684289 71.573 25.1965
4.718233 71.700 24.2536
4.752424 71.827 23.3123
4.786862 71.953 22.3719
4.821549 72.078 21.4319
4.856488 72.202 20.4921
4.891680 72.325 19.5526
4.927127 72.447 18.6136
4.962831 72.568 17.6758
4.998794 72.688 16.7397
5.035017 72.807 15.8058
5.071503 72.925 14.8741
5.108253 73.042 13.9448
5.145270 73.159 13.0171
5.182555 73.275 12.0908
5.220110 73.389 11.1654
5.257937 73.503 10.2410
5.296038 73.616 9.3177
5.334415 73.728 8.3960
5.373071 73.839 7.4764
5.412006 73.950 6.5591
5.451224 74.060 5.6443
5.490725 74.169 4.7318
5.530514 74.277 3.8213
5.570590 74.384 2.9124
5.610957 74.491 2.0049
5.651616 74.597 1.0988
5.692570 74.702 0.1944
5.733821 74.806 -0.7081
5.775370 74.910 -1.6083
5.817221 75.013 -2.5063
5.859375 75.115 -3.4022
5.901834 75.217 -4.2961
5.944602 75.318 -5.1885
5.987679 75.418 -6.0795
6.031068 75.518 -6.9691
6.074771 75.617 -7.8571
6.118792 75.716 -8.7434
6.163131 75.814 -9.6279
6.207792 75.911 -10.5108
6.252776 76.008 -11.3922
6.298086 76.104 -12.2722
6.343725 76.200 -13.1512
6.389694 76.295 -14.0293
6.435996 76.389 -14.9061
6.482634 76.483 -15.7819
6.529610 76.576 -16.6564
6.576926 76.669 -17.5297
6.624585 76.761 -18.4021
6.672590 76.852 -19.2738
6.720942 76.943 -20.1448
6.769645 77.033 -21.0152
6.818700 77.122 -21.8847
6.868111 77.211 -22.7533
6.917881 77.300 -23.6210
6.968010 77.387 -24.4877
7.018504 77.474 -25.3538
7.069362 77.560 -26.2192
7.120590 77.645 -27.0839
7.172189 77.730 -27.9478
7.224161 77.814 -28.8104
7.276511 77.897 -29.6716
7.329239 77.979 -30.5316
7.382350 78.061 -31.3904
7.435845 78.141 -32.2478
7.489729 78.221 -33.1039
7.544002 78.300 -33.9583
7.598669 78.379 -34.8107
7.653732 78.456 -35.6609
7.709194 78.533 -36.5087
7.765058 78.609 -37.3542
7.821327 78.684 -38.1973
7.878004 78.758 -39.0378
7.935091 78.831 -39.8755
7.992592 78.903 -40.7101
8.050510 78.975 -41.5411
8.108847 79.046 -42.3688
8.167607 79.116 -43.1931
8.226793 79.186 -44.0138
8.286408 79.255 -44.8308
8.346454 79.323 -45.6440
8.406936 79.390 -46.4531
8.467856 79.457 -47.2581
8.529218 79.523 -48.0591
8.591024 79.589 -48.8560
8.653278 79.654 -49.6489
8.715983 79.719 -50.4376
8.779143 79.783 -51.2223
8.842760 79.846 -52.0028
8.906839 79.909 -52.7793
8.971381 79.972 -53.5519
9.036392 80.034 -54.3206
9.101873 80.096 -55.0853
9.167829 80.157 -55.8464
9.234263 80.218 -56.6036
9.301178 80.278 -57.3574
9.368578 80.338 -58.1075
9.436467 80.398 -58.8541
9.504847 80.457 -59.5972
9.573723 80.516 -60.3369
9.643099 80.574 -61.0732
9.712976 80.632 -61.8063
9.783361 80.689 -62.5359
9.854255 80.746 -63.2622
9.925663 80.802 -63.9853
9.997588 80.858 -64.7050
10.070035 80.914 -65.4215
10.143007 80.969 -66.1348
10.216507 81.024 -66.8447
10.290540 81.078 -67.5515
10.365109 81.131 -68.2550
10.440219 81.185 -68.9554
10.515873 81.237 -69.6527
10.592076 81.289 -70.3470
10.668830 81.341 -71.0383
10.746141 81.393 -71.7268
10.824012 81.443 -72.4125
10.902447 81.494 -73.0955
10.981451 81.544 -73.7758
11.061027 81.593 -74.4537
11.141180 81.642 -75.1290
11.221913 81.690 -75.8020
11.303232 81.737 -76.4725
11.385140 81.784 -77.1407
11.467641 81.831 -77.8064
11.550741 81.876 -78.4697
11.634442 81.921 -79.1303
11.718750 81.965 -79.7882
11.803669 82.009 -80.4432
11.889203 82.051 -81.0951
11.975357 82.093 -81.7438
12.062136 82.135 -82.3890
12.149543 82.175 -83.0306
12.237583 82.215 -83.6685
12.326262 82.253 -84.3024
12.415583 82.292 -84.9323
12.505552 82.329 -85.5581
12.596172 82.366 -86.1799
12.687449 82.403 -86.7979
12.779387 82.439 -87.4120
12.871992 82.474 -88.0225
12.965268 82.509 -88.6298
13.059220 82.544 -89.2338
13.153852 82.578 -89.8351
13.249170 82.612 -90.4338
13.345179 82.645 -91.0301
13.441884 82.677 -91.6241
13.539289 82.709 -92.2158
13.637401 82.740 -92.8052
13.736223 82.771 -93.3920
13.835761 82.800 -93.9756
13.936021 82.829 -94.5558
14.037007 82.858 -95.1318
14.138725 82.885 -95.7029
14.241180 82.911 -96.2684
14.344377 82.937 -96.8275
14.448323 82.963 -97.3795
14.553021 82.988 -97.9240
14.658478 83.013 -98.4606
14.764700 83.039 -98.9894
14.871691 83.065 -99.5107
14.979457 83.091 -100.0255
15.088005 83.119 -100.5347
15.197339 83.147 -101.0401
15.307465 83.177 -101.5436
15.418389 83.209 -102.0474
15.530117 83.242 -102.5540
15.642655 83.276 -103.0659
15.756008 83.312 -103.5856
15.870182 83.349 -104.1152
15.985184 83.386 -104.6565
16.101019 83.423 -105.2107
16.217694 83.461 -105.7786
16.335214 83.497 -106.3597
16.453586 83.532 -106.9535
16.572815 83.565 -107.5582
16.692909 83.596 -108.1716
16.813872 83.625 -108.7908
16.935713 83.651 -109.4126
17.058436 83.674 -110.0335
17.182048 83.695 -110.6500
17.306556 83.713 -111.2589
17.431967 83.730 -111.8572
17.558286 83.744 -112.4425
17.685521 83.758 -113.0133
17.813677 83.771 -113.5687
17.942762 83.784 -114.1087
18.072783 83.797 -114.6342
18.203746 83.811 -115.1466
18.335658 83.826 -115.6483
18.468526 83.843 -116.1414
18.602356 83.861 -116.6288
18.737156 83.880 -117.1129
18.872934 83.901 -117.5959
19.009695 83.922 -118.0797
19.147447 83.944 -118.5652
19.286197 83.967 -119.0532
19.425953 83.989 -119.5434
19.566721 84.011 -120.0353
19.708510 84.033 -120.5278
19.851326 84.054 -121.0198
19.995177 84.074 -121.5096
20.140070 84.094 -121.9961
20.286013 84.113 -122.4781
20.433014 84.131 -122.9549
20.581080 84.149 -123.4259
20.730219 84.167 -123.8910
20.880439 84.185 -124.3505
21.031747 84.203 -124.8048
21.184152 84.221 -125.2548
21.337661 84.240 -125.7011
21.492282 84.258 -126.1448
21.648024 84.277 -126.5867
21.804895 84.295 -127.0275
21.962902 84.313 -127.4677
22.122054 84.332 -127.9078
22.282360 84.349 -128.3481
22.443827 84.367 -128.7887
22.606464 84.384 -129.2296
22.770280 84.400 -129.6705
22.935283 84.415 -130.1113
23.101481 84.430 -130.5514
23.268884 84.443 -130.9905
23.437500 84.456 -131.4282
23.607338 84.468 -131.8639
23.778406 84.479 -132.2972
23.950714 84.489 -132.7278
24.124271 84.498 -133.1554
24.299086 84.507 -133.5796
24.475167 84.514 -134.0001
24.652524 84.521 -134.4166
24.831166 84.528 -134.8287
25.011103 84.533 -135.2361
25.192344 84.539 -135.6382
25.374898 84.544 -136.0347
25.558775 84.548 -136.4253
25.743984 84.553 -136.8101
25.930536 84.558 -137.1893
26.118439 84.564 -137.5640
26.307704 84.570 -137.9353
26.498341 84.577 -138.3048
26.690359 84.585 -138.6742
26.883768 84.594 -139.0454
27.078579 84.603 -139.4198
27.274801 84.613 -139.7983
27.472446 84.622 -140.1814
27.671522 84.632 -140.5686
27.872042 84.641 -140.9591
28.074014 84.649 -141.3515
28.277450 84.657 -141.7442
28.482360 84.664 -142.1358
28.688755 84.670 -142.5251
28.896645 84.676 -142.9113
29.106042 84.682 -143.2939
29.316957 84.687 -143.6730
29.529400 84.692 -144.0483
29.743382 84.697 -144.4199
29.958915 84.702 -144.7876
30.176009 84.707 -145.1512
30.394677 84.712 -145.5103
30.614929 84.716 -145.8649
30.836778 84.721 -146.2153
31.060234 84.726 -146.5622
31.285309 84.731 -146.9065
31.512015 84.736 -147.2494
31.740364 84.741 -147.5919
31.970368 84.746 -147.9346
32.202039 84.751 -148.2771
32.435388 84.755 -148.6187
32.670428 84.758 -148.9579
32.907171 84.761 -149.2933
33.145630 84.764 -149.6240
33.385817 84.766 -149.9497
33.627745 84.768 -150.2715
33.871425 84.771 -150.5914
34.116871 84.774 -150.9116
34.364096 84.778 -151.2346
34.613113 84.782 -151.5617
34.863934 84.785 -151.8933
35.116572 84.787 -152.2285
35.371041 84.788 -152.5653
35.627354 84.788 -152.9017
35.885525 84.788 -153.2360
36.145566 84.787 -153.5673
36.407492 84.785 -153.8959
36.671316 84.783 -154.2225
36.937051 84.781 -154.5477
37.204712 84.779 -154.8716
37.474313 84.776 -155.1934
37.745867 84.772 -155.5111
38.019389 84.768 -155.8231
38.294893 84.764 -156.1277
38.572394 84.760 -156.4250
38.851905 84.757 -156.7163
39.133442 84.755 -157.0042
39.417019 84.754 -157.2916
39.702651 84.754 -157.5810
39.990353 84.754 -157.8734
40.280140 84.753 -158.1687
40.572026 84.753 -158.4655
40.866028 84.752 -158.7623
41.162160 84.751 -159.0579
41.460438 84.750 -159.3522
41.760877 84.749 -159.6458
42.063494 84.747 -159.9396
42.368303 84.746 -160.2343
42.675322 84.743 -160.5295
42.984565 84.740 -160.8242
43.296048 84.737 -161.1167
43.609789 84.732 -161.4050
43.925804 84.727 -161.6880
44.244108 84.722 -161.9657
44.564719 84.718 -162.2396
44.887654 84.713 -162.5120
45.212928 84.709 -162.7852
45.540560 84.706 -163.0607
45.870565 84.701 -163.3381
46.202962 84.696 -163.6161
46.537768 84.691 -163.8922
46.875000 84.685 -164.1645
47.214676 84.678 -164.4327
47.556813 84.672 -164.6981
47.901429 84.667 -164.9622
48.248542 84.661 -165.2265
48.598171 84.655 -165.4908
48.950334 84.648 -165.7539
49.305048 84.642 -166.0142
49.662333 84.635 -166.2710
50.022206 84.628 -166.5250
50.384688 84.621 -166.7779
50.749796 84.614 -167.0314
51.117550 84.607 -167.2863
51.487969 84.600 -167.5417
51.861072 84.591 -167.7961
52.236879 84.583 -168.0477
52.615409 84.574 -168.2959
52.996681 84.565 -168.5416
53.380717 84.557 -168.7873
53.767536 84.549 -169.0359
54.157158 84.541 -169.2898
54.549603 84.533 -169.5493
54.944892 84.525 -169.8132
55.343045 84.516 -170.0794
55.744084 84.507 -170.3469
56.148028 84.497 -170.6160
56.554900 84.486 -170.8868
56.964720 84.474 -171.1574
57.377510 84.461 -171.4217
57.793291 84.446 -171.6719
58.212085 84.431 -171.9023
58.633914 84.417 -172.1133
59.058799 84.406 -172.3109
59.486764 84.397 -172.5042
59.917829 84.391 -172.7006
60.352019 84.385 -172.9044
60.789354 84.380 -173.1167
61.229859 84.375 -173.3375
61.673556 84.368 -173.5654
62.120468 84.360 -173.7968
62.570618 84.349 -174.0259
63.024031 84.336 -174.2469
63.480729 84.323 -174.4570
63.940736 84.310 -174.6587
64.404077 84.299 -174.8585
64.870776 84.288 -175.0637
65.340856 84.277 -175.2789
65.814343 84.265 -175.5046
66.291261 84.252 -175.7371
66.771635 84.237 -175.9704
67.255489 84.221 -176.1981
67.742850 84.203 -176.4150
68.233743 84.185 -176.6187
68.728193 84.168 -176.8099
69.226226 84.152 -176.9915
69.727867 84.138 -177.1683
70.233144 84.126 -177.3464
70.742083 84.115 -177.5314
71.254709 84.105 -177.7275
71.771050 84.094 -177.9357
72.291132 84.082 -178.1533
72.814984 84.067 -178.3746
73.342631 84.049 -178.5924
73.874102 84.030 -178.8004
74.409424 84.010 -178.9947
74.948626 83.990 -179.1749
75.491734 83.971 -179.3444
76.038779 83.954 -179.5097
76.589787 83.939 -179.6790
77.144788 83.925 -179.8591
77.703811 83.911 179.9469
78.266885 83.896 179.7411
78.834039 83.879 179.5298
79.405303 83.861 179.3198
79.980706 83.841 179.1159
80.560280 83.820 178.9188
81.144053 83.798 178.7264
81.732056 83.777 178.5358
82.324320 83.755 178.3457
82.920876 83.732 178.1562
83.521755 83.709 177.9685
84.126988 83.685 177.7844
84.736607 83.660 177.6060
85.350643 83.636 177.4347
85.969129 83.611 177.2708
86.592097 83.588 177.1129
87.219579 83.565 176.9597
87.851608 83.542 176.8097
88.488217 83.521 176.6606
89.129439 83.499 176.5095
89.775308 83.478 176.3552
90.425856 83.455 176.1995
91.081119 83.431 176.0456
91.741131 83.406 175.8948
92.405925 83.381 175.7474
93.075536 83.355 175.6036
93.750000 83.329 175.4629
94.429351 83.304 175.3231
95.113625 83.278 175.1826
95.802858 83.252 175.0415
96.497085 83.224 174.9023
97.196342 83.194 174.7703
97.900667 83.161 174.6523
98.610096 83.125 174.5538
99.324665 83.088 174.4745
100.044413 83.049 174.4081
100.769376 83.009 174.3475
101.499592 82.966 174.2902
102.235100 82.921 174.2381
102.975938 82.874 174.1961
103.722144 82.827 174.1686
104.473757 82.780 174.1588
105.230817 82.734 174.1693
105.993363 82.691 174.2037
106.761435 82.651 174.2668
107.535072 82.615 174.3606
108.314315 82.583 174.4763
109.099206 82.554 174.5991
109.889783 82.527 174.7261
110.686090 82.498 174.8722
111.488167 82.470 175.0558
112.296056 82.448 175.2802
113.109800 82.434 175.5348
113.929440 82.432 175.8060
114.755020 82.444 176.0790
115.586582 82.471 176.3342
116.424170 82.512 176.5462
117.267827 82.562 176.6910
118.117598 82.617 176.7551
118.973527 82.670 176.7365
119.835658 82.716 176.6420
120.704037 82.750 176.4879
121.578708 82.773 176.2943
122.459718 82.785 176.0730
123.347111 82.789 175.8287
124.240935 82.786 175.5653
125.141236 82.778 175.2919
126.048061 82.766 175.0214
126.961458 82.752 174.7668
127.881473 82.737 174.5360
128.808154 82.722 174.3296
129.741551 82.708 174.1420
130.681712 82.694 173.9643
131.628686 82.679 173.7896
132.582521 82.663 173.6150
133.543269 82.645 173.4408
134.510979 82.625 173.2676
135.485701 82.605 173.0947
136.467486 82.584 172.9214
137.456386 82.561 172.7496
138.452451 82.536 172.5843
139.455735 82.510 172.4299
140.466288 82.483 172.2877
141.484165 82.455 172.1548
142.509418 82.427 172.0264
143.542100 82.400 171.8984
144.582265 82.373 171.7698
145.629968 82.345 171.6437
146.685262 82.317 171.5256
147.748204 82.289 171.4209
148.818849 82.260 171.3335
149.897251 82.233 171.2656
150.983469 82.207 171.2158
152.077557 82.183 171.1806
153.179574 82.159 171.1551
154.289576 82.137 171.1346
155.407622 82.113 171.1146
156.533770 82.089 171.0916
157.668078 82.064 171.0642
158.810606 82.037 171.0340
159.961413 82.010 171.0027
161.120559 81.984 170.9722
162.288105 81.959 170.9442
163.464112 81.936 170.9208
164.648640 81.913 170.9042
165.841752 81.891 170.8947
167.043510 81.870 170.8889
168.253976 81.848 170.8807
169.473213 81.827 170.8652
170.701286 81.805 170.8418
171.938258 81.783 170.8131
173.184194 81.760 170.7828
174.439158 81.738 170.7526
175.703216 81.716 170.7202
176.976434 81.695 170.6822
178.258878 81.673 170.6379
179.550615 81.651 170.5905
180.851713 81.628 170.5442
182.162239 81.604 170.5034
183.482262 81.580 170.4703
184.811850 81.556 170.4457
186.151073 81.531 170.4297
187.500000 81.505 170.4216
188.858702 81.478 170.4198
190.227250 81.451 170.4222
191.605715 81.424 170.4276
192.994169 81.396 170.4346
194.392685 81.370 170.4426
195.801334 81.344 170.4496
197.220191 81.319 170.4540
198.649330 81.295 170.4568
200.088825 81.270 170.4602
201.538751 81.245 170.4658
202.999184 81.219 170.4743
204.470200 81.193 170.4867
205.951875 81.166 170.5044
207.444287 81.139 170.5281
208.947514 81.111 170.5578
210.461634 81.082 170.5933
211.986726 81.054 170.6352
213.522869 81.026 170.6851
215.070144 80.999 170.7437
216.628631 80.974 170.8093
218.198411 80.949 170.8793
219.779567 80.925 170.9506
221.372180 80.901 171.0208
222.976334 80.877 171.0876
224.592112 80.853 171.1501
226.219600 80.830 171.2081
227.858880 80.808 171.2625
229.510039 80.787 171.3151
231.173164 80.768 171.3690
232.848340 80.750 171.4276
234.535655 80.733 171.4936
236.235197 80.718 171.5676
237.947054 80.704 171.6471
239.671317 80.688 171.7274
241.408074 80.671 171.8031
243.157416 80.650 171.8705
244.919435 80.627 171.9282
246.694223 80.602 171.9781
248.481871 80.576 172.0253
250.282473 80.550 172.0737
252.096123 80.525 172.1221
253.922915 80.501 172.1682
255.762945 80.479 172.2114
257.616309 80.457 172.2547
259.483103 80.435 172.3046
261.363424 80.414 172.3678
263.257372 80.392 172.4475
265.165043 80.372 172.5416
267.086538 80.351 172.6453
269.021957 80.330 172.7540
270.971401 80.309 172.8622
272.934972 80.286 172.9646
274.912771 80.263 173.0590
276.904902 80.239 173.1459
278.911469 80.215 173.2284
280.932577 80.191 173.3111
282.968330 80.169 173.3989
285.018835 80.147 173.4946
287.084199 80.125 173.5983
289.164530 80.103 173.7080
291.259935 80.082 173.8208
293.370525 80.061 173.9333
295.496408 80.041 174.0434
297.637697 80.021 174.1519
299.794503 80.003 174.2614
301.966937 79.984 174.3740
304.155114 79.965 174.4896
306.359147 79.946 174.6074
308.579152 79.927 174.7265
310.815244 79.907 174.8456
313.067539 79.888 174.9631
315.336156 79.869 175.0779
317.621211 79.850 175.1906
319.922826 79.832 175.3028
322.241118 79.815 175.4166
324.576210 79.798 175.5334
326.928223 79.781 175.6545
329.297280 79.764 175.7802
331.683504 79.746 175.9106
334.087019 79.728 176.0460
336.507952 79.709 176.1861
338.946427 79.691 176.3301
341.402572 79.673 176.4768
343.876516 79.655 176.6249
346.368387 79.639 176.7731
348.878315 79.622 176.9200
351.406431 79.605 177.0654
353.952867 79.587 177.2094
356.517756 79.570 177.3531
359.101230 79.552 177.4979
361.703426 79.534 177.6439
364.324478 79.517 177.7911
366.964523 79.500 177.9399
369.623699 79.484 178.0916
372.302145 79.468 178.2477
375.000000 79.452 178.4081
377.717405 79.436 178.5707
380.454501 79.421 178.7340
383.211431 79.406 178.8973
385.988339 79.391 179.0605
388.785369 79.376 179.2242
391.602668 79.361 179.3891
394.440383 79.346 179.5554
397.298660 79.330 179.7229
400.177650 79.315 179.8911
403.077502 79.300 -179.9398
405.998368 79.286 -179.7692
408.940400 79.272 -179.5962
411.903750 79.258 -179.4197
414.888575 79.245 -179.2399
417.895028 79.232 -179.0579
420.923268 79.220 -178.8749
423.973452 79.207 -178.6918
427.045738 79.194 -178.5077
430.140287 79.181 -178.3214
433.257261 79.167 -178.1317
436.396822 79.154 -177.9391
439.559133 79.141 -177.7444
442.744360 79.128 -177.5482
445.952668 79.116 -177.3510
449.184225 79.104 -177.1533
452.439199 79.092 -176.9554
455.717760 79.080 -176.7573
459.020079 79.069 -176.5581
462.346327 79.058 -176.3572
465.696680 79.047 -176.1546
469.071310 79.037 -175.9501
472.470394 79.026 -175.7433
475.894109 79.016 -175.5342
479.342634 79.005 -175.3229
482.816148 78.995 -175.1092
486.314833 78.985 -174.8934
489.838871 78.975 -174.6754
493.388445 78.965 -174.4554
496.963741 78.954 -174.2343
500.564945 78.944 -174.0118
504.192245 78.934 -173.7882
507.845830 78.925 -173.5630
511.525890 78.915 -173.3360
515.232618 78.906 -173.1068
518.966206 78.897 -172.8749
522.726849 78.889 -172.6403
526.514743 78.881 -172.4036
530.330086 78.872 -172.1654
534.173076 78.864 -171.9263
538.043915 78.856 -171.6862
541.942803 78.849 -171.4446
545.869944 78.841 -171.2010
549.825542 78.833 -170.9547
553.809805 78.826 -170.7052
557.822939 78.819 -170.4524
561.865154 78.812 -170.1964
565.936660 78.806 -169.9368
570.037671 78.799 -169.6731
574.168399 78.793 -169.4056
578.329060 78.787 -169.1349
582.519870 78.781 -168.8617
586.741049 78.776 -168.5870
590.992817 78.770 -168.3109
595.275394 78.765 -168.0328
599.589005 78.760 -167.7515
603.933874 78.755 -167.4658
608.310228 78.751 -167.1755
612.718295 78.747 -166.8814
617.158304 78.744 -166.5843
621.630488 78.742 -166.2848
626.135079 78.740 -165.9832
630.672311 78.738 -165.6792
635.242423 78.737 -165.3723
639.845651 78.737 -165.0619
644.482237 78.738 -164.7469
649.152421 78.738 -164.4273
653.856447 78.740 -164.1038
658.594560 78.741 -163.7778
663.367008 78.744 -163.4506
668.174039 78.747 -163.1226
673.015903 78.750 -162.7929
677.892854 78.754 -162.4604
682.805145 78.758 -162.1245
687.753032 78.763 -161.7850
692.736774 78.768 -161.4422
697.756631 78.773 -161.0966
702.812863 78.779 -160.7487
707.905735 78.785 -160.3991
713.035511 78.791 -160.0476
718.202461 78.799 -159.6937
723.406852 78.807 -159.3370
728.648956 78.817 -158.9771
733.929047 78.827 -158.6138
739.247399 78.838 -158.2476
744.604290 78.850 -157.8787
750.000000 78.863 -157.5073
755.434809 78.877 -157.1328
760.909001 78.891 -156.7544
766.422861 78.905 -156.3712
771.976677 78.921 -155.9833
777.570739 78.938 -155.5914
783.205337 78.955 -155.1964
788.880766 78.974 -154.7991
794.597321 78.993 -154.4009
800.355301 79.014 -154.0026
806.155005 79.036 -153.6050
811.996736 79.059 -153.2070
817.880799 79.083 -152.8075
823.807501 79.108 -152.4053
829.777150 79.135 -152.0002
835.790057 79.163 -151.5927
841.846536 79.192 -151.1829
847.946903 79.222 -150.7711
854.091476 79.254 -150.3576
860.280575 79.288 -149.9430
866.514523 79.322 -149.5278
872.793644 79.359 -149.1132
879.118267 79.396 -148.6998
885.488720 79.435 -148.2883
891.905336 79.475 -147.8785
898.368450 79.516 -147.4707
904.878398 79.560 -147.0653
911.435520 79.604 -146.6631
918.040157 79.651 -146.2650
924.692655 79.699 -145.8713
931.393359 79.748 -145.4824
938.142619 79.799 -145.0979
944.940787 79.851 -144.7183
951.788218 79.905 -144.3441
958.685268 79.960 -143.9755
965.632296 80.017 -143.6124
972.629666 80.075 -143.2549
979.677741 80.136 -142.9039
986.776890 80.198 -142.5613
993.927482 80.262 -142.2286
1001.129891 80.327 -141.9073
1008.384491 80.393 -141.5974
1015.691660 80.461 -141.2977
1023.051781 80.529 -141.0068
1030.465236 80.598 -140.7239
1037.932411 80.667 -140.4481
1045.453698 80.737 -140.1799
1053.029486 80.806 -139.9202
1060.660172 80.875 -139.6707
1068.346153 80.944 -139.4323
1076.087829 81.014 -139.2054
1083.885605 81.084 -138.9894
1091.739887 81.154 -138.7836
1099.651084 81.225 -138.5874
1107.619609 81.295 -138.4008
1115.645878 81.366 -138.2234
1123.730308 81.437 -138.0552
1131.873321 81.508 -137.8958
1140.075341 81.578 -137.7449
1148.336797 81.648 -137.6028
1156.658119 81.717 -137.4694
1165.039741 81.786 -137.3442
1173.482099 81.855 -137.2271
1181.985634 81.923 -137.1175
1190.550789 81.990 -137.0147
1199.178011 82.058 -136.9180
1207.867749 82.124 -136.8266
1216.620457 82.190 -136.7399
1225.436590 82.256 -136.6578
1234.316609 82.321 -136.5804
1243.260976 82.386 -136.5074
1252.270157 82.450 -136.4388
1261.344623 82.513 -136.3740
1270.484846 82.576 -136.3124
1279.691303 82.638 -136.2531
1288.964474 82.699 -136.1960
1298.304842 82.760 -136.1411
1307.712894 82.821 -136.0882
1317.189120 82.881 -136.0372
1326.734016 82.941 -135.9875
1336.348077 83.001 -135.9386
1346.031806 83.060 -135.8901
1355.785708 83.119 -135.8417
1365.610290 83.177 -135.7930
1375.506065 83.236 -135.7437
1385.473549 83.294 -135.6936
1395.513261 83.352 -135.6431
1405.625726 83.410 -135.5921
1415.811469 83.469 -135.5409
1426.071023 83.527 -135.4895
1436.404921 83.585 -135.4377
1446.813703 83.644 -135.3853
1457.297912 83.703 -135.3322
1467.858093 83.761 -135.2783
1478.494798 83.820 -135.2239
1489.208581 83.880 -135.1691
1500.000000 83.939 -135.1141
1510.869618 83.999 -135.0588
1521.818002 84.059 -135.0033
1532.845723 84.119 -134.9474
1543.953355 84.180 -134.8912
1555.141477 84.242 -134.8347
1566.410674 84.304 -134.7781
1577.761531 84.367 -134.7211
1589.194642 84.430 -134.6641
1600.710601 84.493 -134.6071
1612.310010 84.558 -134.5508
1623.993473 84.623 -134.4955
1635.761599 84.690 -134.4415
1647.615002 84.757 -134.3890
1659.554299 84.825 -134.3384
1671.580114 84.894 -134.2899
1683.693072 84.964 -134.2433
1695.893807 85.034 -134.1985
1708.182952 85.106 -134.1555
1720.561150 85.178 -134.1147
1733.029045 85.252 -134.0766
1745.587288 85.327 -134.0417
1758.236533 85.403 -134.0106
1770.977440 85.481 -133.9837
1783.810673 85.559 -133.9617
1796.736900 85.640 -133.9449
1809.756796 85.721 -133.9341
1822.871040 85.804 -133.9295
1836.080315 85.888 -133.9318
1849.385310 85.974 -133.9418
1862.786718 86.061 -133.9608
1876.285239 86.150 -133.9902
1889.881575 86.241 -134.0313
1903.576436 86.332 -134.0850
1917.370535 86.426 -134.1522
1931.264593 86.520 -134.2336
1945.259332 86.616 -134.3303
1959.355483 86.712 -134.4430
1973.553781 86.810 -134.5725
1987.854965 86.908 -134.7197
2002.259781 87.006 -134.8850
2016.768981 87.106 -135.0685
2031.383320 87.205 -135.2702
2046.103561 87.304 -135.4898
2060.930471 87.403 -135.7271
2075.864823 87.502 -135.9816
2090.907395 87.600 -136.2531
2106.058972 87.699 -136.5411
2121.320344 87.796 -136.8454
2136.692305 87.893 -137.1658
2152.175658 87.990 -137.5023
2167.771210 88.086 -137.8552
2183.479774 88.182 -138.2247
2199.302169 88.277 -138.6109
2215.239219 88.372 -139.0142
2231.291755 88.465 -139.4347
2247.460615 88.559 -139.8727
2263.746641 88.651 -140.3286
2280.150683 88.742 -140.8028
2296.673595 88.833 -141.2959
2313.316238 88.922 -141.8081
2330.079481 89.010 -142.3398
2346.964198 89.096 -142.8911
2363.971268 89.181 -143.4622
2381.101578 89.264 -144.0532
2398.356022 89.345 -144.6643
2415.735498 89.424 -145.2955
2433.240913 89.501 -145.9469
2450.873180 89.575 -146.6183
2468.633217 89.647 -147.3091
2486.521951 89.716 -148.0189
2504.540314 89.781 -148.7473
2522.689246 89.844 -149.4937
2540.969692 89.903 -150.2575
2559.382606 89.958 -151.0379
2577.928947 90.009 -151.8337
2596.609683 90.057 -152.6440
2615.425787 90.100 -153.4676
2634.378241 90.139 -154.3032
2653.468031 90.173 -155.1493
2672.696154 90.203 -156.0043
2692.063613 90.227 -156.8665
2711.571415 90.247 -157.7345
2731.220579 90.262 -158.6068
2751.012130 90.272 -159.4816
2770.947098 90.277 -160.3570
2791.026522 90.277 -161.2313
2811.251451 90.271 -162.1026
2831.622938 90.261 -162.9694
2852.142045 90.246 -163.8296
2872.809842 90.226 -164.6816
2893.627406 90.201 -165.5236
2914.595823 90.171 -166.3539
2935.716186 90.136 -167.1710
2956.989596 90.097 -167.9729
2978.417161 90.053 -168.7583
3000.000000 90.005 -169.5256
3021.739237 89.953 -170.2736
3043.636005 89.897 -171.0012
3065.691446 89.837 -171.7073
3087.906710 89.774 -172.3907
3110.282955 89.708 -173.0507
3132.821347 89.638 -173.6861
3155.523062 89.566 -174.2966
3178.389283 89.491 -174.8817
3201.421202 89.414 -175.4410
3224.620020 89.334 -175.9741
3247.986946 89.253 -176.4806
3271.523198 89.170 -176.9603
3295.230004 89.086 -177.4131
3319.108599 89.001 -177.8393
3343.160228 88.914 -178.2390
3367.386145 88.826 -178.6125
3391.787613 88.738 -178.9602
3416.365904 88.649 -179.2823
3441.122300 88.559 -179.5789
3466.058091 88.469 -179.8502
3491.174576 88.379 179.9036
3516.473066 88.289 179.6827
3541.954880 88.199 179.4872
3567.621345 88.109 179.3168
3593.473800 88.019 179.1716
3619.513592 87.930 179.0515
3645.742080 87.842 178.9564
3672.160630 87.754 178.8866
3698.770620 87.667 178.8420
3725.573436 87.581 178.8233
3752.570477 87.497 178.8306
3779.763150 87.414 178.8640
3807.152872 87.334 178.9232
3834.741071 87.256 179.0071
3862.529185 87.182 179.1136
3890.518664 87.111 179.2397
3918.710966 87.044 179.3812
3947.107561 86.981 179.5332
3975.709929 86.921 179.6907
4004.519563 86.866 179.8491
4033.537962 86.813 -179.9951
4062.766641 86.763 -179.8436
4092.207123 86.715 -179.6971
4121.860942 86.668 -179.5545
4151.729646 86.622 -179.4145
4181.814790 86.576 -179.2750
4212.117944 86.531 -179.1340
4242.640687 86.487 -178.9896
4273.384610 86.443 -178.8401
4304.351317 86.399 -178.6844
4335.542421 86.357 -178.5212
4366.959549 86.315 -178.3500
4398.604338 86.274 -178.1700
4430.478438 86.235 -177.9810
4462.583511 86.197 -177.7830
4494.921231 86.161 -177.5765
4527.493283 86.126 -177.3630
4560.301365 86.094 -177.1436
4593.347189 86.064 -176.9202
4626.632476 86.037 -176.6944
4660.158962 86.012 -176.4680
4693.928395 85.989 -176.2426
4727.942535 85.969 -176.0196
4762.203156 85.950 -175.8000
4796.712043 85.934 -175.5848
4831.470996 85.920 -175.3749
4866.481826 85.907 -175.1708
4901.746360 85.896 -174.9733
4937.266434 85.887 -174.7824
4973.043902 85.879 -174.5986
5009.080628 85.873 -174.4221
5045.378492 85.867 -174.2532
5081.939384 85.863 -174.0922
5118.765212 85.860 -173.9391
5155.857894 85.857 -173.7944
5193.219366 85.856 -173.6582
5230.851574 85.854 -173.5305
5268.756481 85.853 -173.4109
5306.936062 85.853 -173.2991
5345.392309 85.852 -173.1943
5384.127225 85.852 -173.0956
5423.142830 85.850 -173.0021
5462.441159 85.849 -172.9126
5502.024259 85.846 -172.8259
5541.894195 85.843 -172.7402
5582.053045 85.839 -172.6531
5622.502902 85.834 -172.5616
5663.245876 85.828 -172.4628
5704.284090 85.822 -172.3541
5745.619684 85.816 -172.2328
5787.254813 85.809 -172.0971
5829.191647 85.803 -171.9452
5871.432373 85.799 -171.7760
5913.979192 85.796 -171.5893
5956.834323 85.795 -171.3853
6000.000000 85.798 -171.1654
6043.478473 85.804 -170.9317
6087.272010 85.813 -170.6872
6131.382892 85.828 -170.4355
6175.813420 85.846 -170.1804
6220.565910 85.870 -169.9258
6265.642695 85.898 -169.6753
6311.046124 85.931 -169.4323
6356.778566 85.969 -169.1990
6402.842404 86.011 -168.9774
6449.240040 86.058 -168.7685
6495.973891 86.110 -168.5729
6543.046396 86.167 -168.3913
6590.460007 86.229 -168.2250
6638.217197 86.297 -168.0755
6686.320456 86.371 -167.9451
6734.772290 86.452 -167.8365
6783.575226 86.541 -167.7545
6832.731809 86.637 -167.7056
6882.244600 86.742 -167.6982
6932.116181 86.854 -167.7415
6982.349153 86.976 -167.8445
7032.946133 87.106 -168.0172
7083.909760 87.244 -168.2701
7135.242690 87.389 -168.6145
7186.947600 87.542 -169.0615
7239.027185 87.700 -169.6227
7291.484160 87.863 -170.3098
7344.321260 88.028 -171.1336
7397.541239 88.195 -172.1052
7451.146872 88.360 -173.2347
7505.140954 88.521 -174.5316
7559.526299 88.674 -176.0037
7614.305743 88.818 -177.6566
7669.482141 88.946 -179.4932
7725.058371 89.055 178.4883
7781.037328 89.141 176.2947
7837.421932 89.198 173.9391
7894.215122 89.221 171.4413
7951.419859 89.207 168.8276
8009.039125 89.153 166.1302
8067.075924 89.055 163.3857
8125.533282 88.912 160.6331
8184.414245 88.724 157.9124
8243.721885 88.492 155.2620
8303.459292 88.218 152.7177
8363.629581 87.905 150.3110
8424.235888 87.555 148.0696
8485.281374 87.172 146.0156
8546.769221 86.761 144.1671
8608.702634 86.325 142.5383
8671.084842 85.868 141.1404
8733.919097 85.393 139.9823
8797.208675 84.904 139.0709
8860.956876 84.406 138.4109
8925.167022 83.902 138.0045
8989.842461 83.395 137.8512
9054.986566 82.890 137.9468
9120.602731 82.390 138.2838
9186.694378 81.899 138.8507
9253.264952 81.421 139.6328
9320.317925 80.957 140.6126
9387.856790 80.510 141.7709
9455.885071 80.081 143.0880
9524.406312 79.672 144.5447
9593.424086 79.283 146.1230
9662.941992 78.915 147.8063
9732.963653 78.567 149.5790
9803.492719 78.240 151.4276
9874.532869 77.934 153.3405
9946.087805 77.649 155.3079
10018.161257 77.383 157.3214
10090.756983 77.137 159.3742
10163.878768 76.911 161.4601
10237.530423 76.704 163.5732
10311.715789 76.517 165.7071
10386.438732 76.349 167.8549
10461.703149 76.203 170.0081
10537.512962 76.077 172.1556
10613.872125 75.973 174.2825
10690.784618 75.893 176.3672
10768.254450 75.837 178.3796
10846.285661 75.805 -179.7220
10924.882318 75.797 -177.9930
11004.048518 75.811 -176.5025
11083.788390 75.838 -175.3282
11164.106090 75.867 -174.5417
11245.005805 75.874 -174.1753
11326.491752 75.828 -174.1656
11408.568180 75.693 -174.2682
11491.239368 75.437 -173.9498
11574.509626 75.057 -172.3262
11658.383294 74.614 -168.3865
11742.864745 74.240 -161.8304
11827.958384 74.076 -153.9020
11913.668646 74.172 -146.5906
12000.000000 74.478 -140.9819
12086.956947 74.904 -137.0232
12174.544019 75.384 -134.2336
12262.765784 75.881 -132.1735
12351.626840 76.384 -130.5602
12441.131819 76.893 -129.2473
12531.285389 77.412 -128.1789
12622.092249 77.946 -127.3541
12713.557132 78.495 -126.8025
12805.684808 79.062 -126.5699
12898.480079 79.642 -126.7083
12991.947783 80.230 -127.2689
13086.092792 80.816 -128.2968
13180.920015 81.389 -129.8246
13276.434395 81.934 -131.8678
13372.640911 82.437 -134.4205
13469.544580 82.882 -137.4528
13567.150452 83.256 -140.9077
13665.463617 83.546 -144.7019
13764.489200 83.744 -148.7279
13864.232362 83.847 -152.8634
13964.698305 83.854 -156.9814
14065.892266 83.774 -160.9627
14167.819519 83.616 -164.7065
14270.485380 83.396 -168.1389
14373.895200 83.129 -171.2167
14478.054370 82.834 -173.9290
14582.968320 82.527 -176.2944
14688.642520 82.221 -178.3580
14795.082478 81.929 179.8148
14902.293745 81.658 178.1440
15010.281908 81.413 176.5428
15119.052599 81.193 174.9243
15228.611486 80.994 173.2088
15338.964283 80.806 171.3309
15450.116741 80.621 169.2447
15562.074656 80.423 166.9283
15674.843864 80.200 164.3861
15788.430244 79.937 161.6489
15902.839718 79.622 158.7723
16018.078250 79.245 155.8317
16134.151848 78.800 152.9160
16251.066563 78.283 150.1199
16368.828491 77.697 147.5365
16487.443769 77.048 145.2502
16606.918584 76.342 143.3319
16727.259161 75.592 141.8342
16848.471777 74.808 140.7898
16970.562748 74.004 140.2115
17093.538442 73.192 140.0942
17217.405268 72.386 140.4169
17342.169684 71.597 141.1453
17467.838194 70.836 142.2347
17594.417350 70.111 143.6328
17721.913751 69.429 145.2821
17850.334044 68.797 147.1217
17979.684923 68.219 149.0886
18109.973131 67.697 151.1180
18241.205462 67.234 153.1432
18373.388756 66.830 155.0938
18506.529905 66.484 156.8955
18640.635849 66.191 158.4701
18775.713581 65.945 159.7383
18911.770141 65.738 160.6252
19048.812624 65.557 161.0668
19186.848172 65.386 161.0188
19325.883983 65.211 160.4716
19465.927305 65.019 159.4701
19606.985439 64.809 158.1367
19749.065738 64.596 156.6868
19892.175609 64.416 155.4206
20036.322514 64.312 154.6693
