* Measurement data measured by REW V5.31.3
* Source: Headset (2- CX31993 HIFI AUDIO), MICROPHONE (Master Volume), R, volume: 0.500
* Format: 256k Log Swept Sine, 1 sweep at -11.9 dBFS with no timing reference
* Dated: 08 4, 25 6:29:35 PM
* REW Settings:
*  C-weighting compensation: Off
*  Target level: 75.0 dB
* Note: ; 
* Measurement: Moondrop SpaceTravel 2 R
* Smoothing: 1/12 octave
* Frequency Step: 96 ppo
* Start Frequency: 0.36621094 Hz
*
* Freq(Hz) SPL(dB) Phase(degrees)
0.366211 59.687 -55.1915
0.368865 59.692 -55.2770
0.371538 59.701 -55.4047
0.374230 59.711 -55.5647
0.376942 59.722 -55.7480
0.379673 59.735 -55.9485
0.382424 59.747 -56.1618
0.385196 59.761 -56.3853
0.387987 59.774 -56.6177
0.390798 59.787 -56.8581
0.393630 59.801 -57.1061
0.396483 59.815 -57.3614
0.399356 59.829 -57.6241
0.402250 59.843 -57.8942
0.405165 59.857 -58.1716
0.408101 59.871 -58.4564
0.411058 59.886 -58.7487
0.414037 59.900 -59.0485
0.417037 59.915 -59.3558
0.420059 59.929 -59.6707
0.423103 59.944 -59.9932
0.426169 59.959 -60.3234
0.429257 59.974 -60.6614
0.432368 59.989 -61.0070
0.435501 60.004 -61.3605
0.438656 60.019 -61.7217
0.441835 60.035 -62.0908
0.445037 60.050 -62.4678
0.448262 60.066 -62.8525
0.451510 60.081 -63.2452
0.454782 60.097 -63.6457
0.458077 60.113 -64.0541
0.461397 60.129 -64.4704
0.464740 60.146 -64.8945
0.468108 60.162 -65.3264
0.471500 60.178 -65.7662
0.474917 60.195 -66.2138
0.478358 60.212 -66.6692
0.481825 60.228 -67.1323
0.485316 60.245 -67.6031
0.488833 60.262 -68.0815
0.492375 60.279 -68.5676
0.495943 60.297 -69.0611
0.499537 60.314 -69.5621
0.503157 60.332 -70.0706
0.506803 60.349 -70.5863
0.510475 60.367 -71.1093
0.514175 60.385 -71.6395
0.517900 60.403 -72.1767
0.521653 60.421 -72.7209
0.525434 60.440 -73.2719
0.529241 60.458 -73.8297
0.533076 60.477 -74.3941
0.536939 60.495 -74.9651
0.540830 60.514 -75.5424
0.544749 60.533 -76.1260
0.548696 60.552 -76.7158
0.552673 60.571 -77.3115
0.556677 60.591 -77.9131
0.560711 60.610 -78.5205
0.564774 60.630 -79.1334
0.568867 60.650 -79.7518
0.572989 60.670 -80.3754
0.577141 60.690 -81.0042
0.581324 60.710 -81.6380
0.585536 60.731 -82.2766
0.589779 60.751 -82.9198
0.594053 60.772 -83.5676
0.598358 60.793 -84.2199
0.602694 60.814 -84.8763
0.607061 60.835 -85.5368
0.611460 60.856 -86.2013
0.615891 60.878 -86.8696
0.620354 60.899 -87.5416
0.624849 60.921 -88.2171
0.629377 60.943 -88.8961
0.633938 60.965 -89.5784
0.638532 60.987 -90.2638
0.643159 61.010 -90.9524
0.647819 61.032 -91.6439
0.652514 61.055 -92.3383
0.657242 61.078 -93.0356
0.662005 61.101 -93.7356
0.666802 61.124 -94.4383
0.671634 61.148 -95.1437
0.676501 61.171 -95.8516
0.681403 61.195 -96.5621
0.686341 61.219 -97.2752
0.691314 61.243 -97.9909
0.696324 61.268 -98.7092
0.701370 61.292 -99.4302
0.706452 61.318 -100.1541
0.711571 61.344 -100.8809
0.716728 61.371 -101.6110
0.721921 61.399 -102.3447
0.727153 61.429 -103.0828
0.732422 61.463 -103.8257
0.737729 61.499 -104.5742
0.743075 61.538 -105.3290
0.748460 61.580 -106.0904
0.753883 61.623 -106.8586
0.759346 61.669 -107.6334
0.764849 61.716 -108.4146
0.770391 61.765 -109.2019
0.775974 61.815 -109.9949
0.781597 61.866 -110.7930
0.787261 61.918 -111.5960
0.792966 61.971 -112.4031
0.798712 62.026 -113.2141
0.804500 62.082 -114.0284
0.810329 62.139 -114.8456
0.816201 62.197 -115.6651
0.822116 62.256 -116.4866
0.828073 62.317 -117.3096
0.834074 62.379 -118.1336
0.840118 62.441 -118.9582
0.846206 62.505 -119.7830
0.852338 62.570 -120.6076
0.858514 62.636 -121.4317
0.864735 62.703 -122.2549
0.871001 62.771 -123.0768
0.877313 62.840 -123.8971
0.883670 62.910 -124.7156
0.890074 62.981 -125.5319
0.896524 63.054 -126.3458
0.903020 63.127 -127.1571
0.909564 63.201 -127.9655
0.916155 63.275 -128.7710
0.922794 63.351 -129.5732
0.929481 63.428 -130.3721
0.936216 63.505 -131.1676
0.943000 63.583 -131.9596
0.949834 63.662 -132.7480
0.956717 63.742 -133.5327
0.963649 63.822 -134.3138
0.970632 63.903 -135.0913
0.977666 63.985 -135.8652
0.984750 64.067 -136.6356
0.991886 64.150 -137.4025
0.999074 64.233 -138.1659
1.006314 64.317 -138.9262
1.013606 64.401 -139.6833
1.020951 64.485 -140.4375
1.028349 64.570 -141.1890
1.035801 64.655 -141.9379
1.043307 64.740 -142.6845
1.050867 64.825 -143.4291
1.058482 64.910 -144.1720
1.066152 64.995 -144.9135
1.073878 65.080 -145.6542
1.081660 65.166 -146.3945
1.089498 65.251 -147.1350
1.097393 65.336 -147.8764
1.105345 65.422 -148.6195
1.113355 65.509 -149.3648
1.121423 65.596 -150.1126
1.129549 65.684 -150.8633
1.137734 65.772 -151.6167
1.145979 65.862 -152.3727
1.154283 65.952 -153.1310
1.162647 66.043 -153.8914
1.171072 66.135 -154.6536
1.179558 66.227 -155.4173
1.188106 66.321 -156.1820
1.196715 66.415 -156.9475
1.205387 66.510 -157.7134
1.214122 66.606 -158.4794
1.222920 66.702 -159.2451
1.231782 66.799 -160.0103
1.240708 66.897 -160.7746
1.249699 66.995 -161.5376
1.258754 67.094 -162.2992
1.267876 67.194 -163.0590
1.277063 67.294 -163.8167
1.286318 67.394 -164.5719
1.295639 67.495 -165.3246
1.305027 67.596 -166.0743
1.314484 67.698 -166.8209
1.324009 67.800 -167.5641
1.333604 67.903 -168.3036
1.343268 68.005 -169.0394
1.353002 68.108 -169.7711
1.362806 68.211 -170.4986
1.372681 68.314 -171.2217
1.382628 68.418 -171.9402
1.392647 68.521 -172.6541
1.402739 68.624 -173.3632
1.412904 68.727 -174.0674
1.423142 68.830 -174.7668
1.433455 68.933 -175.4615
1.443843 69.036 -176.1517
1.454305 69.138 -176.8378
1.464844 69.240 -177.5203
1.475459 69.343 -178.1999
1.486150 69.445 -178.8771
1.496920 69.547 -179.5524
1.507767 69.649 179.7737
1.518693 69.751 179.1014
1.529698 69.853 178.4303
1.540783 69.956 177.7605
1.551948 70.058 177.0921
1.563194 70.160 176.4250
1.574521 70.263 175.7593
1.585931 70.365 175.0950
1.597423 70.467 174.4322
1.608999 70.570 173.7708
1.620658 70.672 173.1109
1.632402 70.775 172.4523
1.644232 70.877 171.7952
1.656146 70.980 171.1393
1.668147 71.082 170.4847
1.680235 71.185 169.8314
1.692411 71.287 169.1790
1.704675 71.389 168.5277
1.717028 71.492 167.8773
1.729470 71.594 167.2276
1.742003 71.696 166.5784
1.754626 71.798 165.9297
1.767341 71.900 165.2811
1.780147 72.002 164.6324
1.793047 72.104 163.9834
1.806040 72.206 163.3335
1.819128 72.307 162.6823
1.832310 72.408 162.0292
1.845587 72.510 161.3737
1.858961 72.610 160.7155
1.872432 72.711 160.0543
1.886001 72.811 159.3901
1.899667 72.911 158.7233
1.913433 73.011 158.0541
1.927299 73.110 157.3829
1.941265 73.209 156.7100
1.955332 73.308 156.0359
1.969501 73.406 155.3611
1.983773 73.504 154.6859
1.998148 73.602 154.0106
2.012627 73.700 153.3358
2.027212 73.797 152.6616
2.041902 73.894 151.9885
2.056698 73.991 151.3168
2.071602 74.087 150.6466
2.086614 74.183 149.9783
2.101734 74.279 149.3121
2.116964 74.375 148.6480
2.132304 74.471 147.9861
2.147756 74.566 147.3263
2.163320 74.661 146.6683
2.178996 74.756 146.0117
2.194786 74.851 145.3556
2.210690 74.945 144.6993
2.226710 75.039 144.0418
2.242845 75.132 143.3827
2.259098 75.225 142.7216
2.275468 75.317 142.0585
2.291957 75.409 141.3936
2.308566 75.500 140.7273
2.325295 75.591 140.0599
2.342145 75.681 139.3919
2.359117 75.771 138.7237
2.376212 75.860 138.0558
2.393431 75.949 137.3887
2.410775 76.038 136.7227
2.428244 76.126 136.0583
2.445840 76.213 135.3958
2.463564 76.301 134.7355
2.481416 76.387 134.0777
2.499397 76.474 133.4225
2.517509 76.560 132.7697
2.535752 76.646 132.1191
2.554127 76.731 131.4700
2.572635 76.816 130.8217
2.591277 76.900 130.1733
2.610055 76.984 129.5239
2.628968 77.067 128.8733
2.648019 77.150 128.2213
2.667208 77.231 127.5680
2.686535 77.313 126.9136
2.706003 77.393 126.2587
2.725612 77.473 125.6037
2.745363 77.552 124.9491
2.765257 77.631 124.2954
2.785295 77.709 123.6431
2.805478 77.787 122.9926
2.825808 77.864 122.3445
2.846285 77.941 121.6990
2.866910 78.018 121.0563
2.887685 78.093 120.4163
2.908611 78.169 119.7787
2.929688 78.244 119.1429
2.950917 78.318 118.5081
2.972301 78.391 117.8735
2.993839 78.464 117.2385
3.015534 78.537 116.6028
3.037386 78.608 115.9667
3.059396 78.679 115.3304
3.081565 78.749 114.6943
3.103896 78.818 114.0590
3.126388 78.887 113.4251
3.149043 78.956 112.7933
3.171862 79.023 112.1641
3.194847 79.091 111.5381
3.217998 79.157 110.9158
3.241317 79.224 110.2974
3.264805 79.290 109.6829
3.288463 79.355 109.0721
3.312293 79.420 108.4644
3.336295 79.484 107.8590
3.360471 79.547 107.2556
3.384822 79.610 106.6535
3.409350 79.673 106.0529
3.434056 79.734 105.4537
3.458940 79.795 104.8562
3.484005 79.856 104.2608
3.509252 79.916 103.6679
3.534681 79.975 103.0778
3.560295 80.034 102.4910
3.586094 80.093 101.9078
3.612081 80.151 101.3284
3.638255 80.209 100.7528
3.664620 80.267 100.1809
3.691175 80.324 99.6122
3.717923 80.380 99.0464
3.744864 80.437 98.4832
3.772001 80.492 97.9224
3.799335 80.548 97.3639
3.826866 80.602 96.8078
3.854597 80.657 96.2543
3.882529 80.711 95.7036
3.910664 80.765 95.1560
3.939002 80.818 94.6116
3.967546 80.871 94.0707
3.996296 80.924 93.5333
4.025255 80.977 92.9995
4.054423 81.030 92.4690
4.083804 81.082 91.9417
4.113396 81.135 91.4174
4.143204 81.186 90.8958
4.173227 81.238 90.3768
4.203468 81.289 89.8603
4.233928 81.340 89.3460
4.264609 81.391 88.8340
4.295512 81.442 88.3242
4.326639 81.492 87.8165
4.357992 81.543 87.3109
4.389572 81.593 86.8073
4.421380 81.643 86.3055
4.453419 81.693 85.8055
4.485691 81.743 85.3073
4.518196 81.792 84.8107
4.550936 81.842 84.3156
4.583914 81.891 83.8220
4.617131 81.940 83.3298
4.650589 81.988 82.8388
4.684289 82.037 82.3490
4.718233 82.085 81.8602
4.752424 82.132 81.3723
4.786862 82.180 80.8851
4.821549 82.227 80.3986
4.856488 82.273 79.9126
4.891680 82.320 79.4274
4.927127 82.366 78.9430
4.962831 82.411 78.4596
4.998794 82.456 77.9774
5.035017 82.501 77.4964
5.071503 82.545 77.0168
5.108253 82.588 76.5383
5.145270 82.631 76.0610
5.182555 82.673 75.5846
5.220110 82.714 75.1092
5.257937 82.755 74.6350
5.296038 82.795 74.1624
5.334415 82.834 73.6919
5.373071 82.873 73.2241
5.412006 82.911 72.7593
5.451224 82.948 72.2980
5.490725 82.985 71.8403
5.530514 83.020 71.3861
5.570590 83.055 70.9355
5.610957 83.089 70.4884
5.651616 83.122 70.0454
5.692570 83.154 69.6069
5.733821 83.186 69.1737
5.775370 83.217 68.7464
5.817221 83.248 68.3256
5.859375 83.278 67.9116
5.901834 83.307 67.5045
5.944602 83.336 67.1044
5.987679 83.365 66.7112
6.031068 83.393 66.3250
6.074771 83.420 65.9460
6.118792 83.448 65.5743
6.163131 83.476 65.2104
6.207792 83.504 64.8544
6.252776 83.532 64.5065
6.298086 83.560 64.1667
6.343725 83.588 63.8347
6.389694 83.617 63.5099
6.435996 83.647 63.1915
6.482634 83.677 62.8788
6.529610 83.708 62.5714
6.576926 83.739 62.2688
6.624585 83.772 61.9706
6.672590 83.806 61.6765
6.720942 83.841 61.3858
6.769645 83.877 61.0972
6.818700 83.914 60.8094
6.868111 83.952 60.5209
6.917881 83.992 60.2303
6.968010 84.032 59.9368
7.018504 84.074 59.6398
7.069362 84.117 59.3387
7.120590 84.160 59.0325
7.172189 84.205 58.7202
7.224161 84.250 58.4005
7.276511 84.295 58.0721
7.329239 84.341 57.7342
7.382350 84.387 57.3862
7.435845 84.433 57.0282
7.489729 84.478 56.6599
7.544002 84.524 56.2816
7.598669 84.568 55.8930
7.653732 84.612 55.4942
7.709194 84.654 55.0851
7.765058 84.695 54.6661
7.821327 84.735 54.2377
7.878004 84.773 53.8013
7.935091 84.809 53.3581
7.992592 84.843 52.9097
8.050510 84.874 52.4571
8.108847 84.903 52.0013
8.167607 84.930 51.5434
8.226793 84.954 51.0850
8.286408 84.976 50.6281
8.346454 84.996 50.1749
8.406936 85.013 49.7273
8.467856 85.027 49.2868
8.529218 85.040 48.8545
8.591024 85.050 48.4316
8.653278 85.059 48.0198
8.715983 85.065 47.6205
8.779143 85.071 47.2350
8.842760 85.076 46.8644
8.906839 85.079 46.5091
8.971381 85.083 46.1689
9.036392 85.086 45.8436
9.101873 85.089 45.5330
9.167829 85.093 45.2367
9.234263 85.098 44.9538
9.301178 85.105 44.6832
9.368578 85.112 44.4228
9.436467 85.122 44.1706
9.504847 85.133 43.9243
9.573723 85.146 43.6818
9.643099 85.160 43.4412
9.712976 85.177 43.2003
9.783361 85.196 42.9564
9.854255 85.216 42.7071
9.925663 85.238 42.4504
9.997588 85.261 42.1848
10.070035 85.284 41.9091
10.143007 85.308 41.6226
10.216507 85.333 41.3242
10.290540 85.356 41.0139
10.365109 85.380 40.6918
10.440219 85.402 40.3589
10.515873 85.423 40.0163
10.592076 85.443 39.6658
10.668830 85.460 39.3090
10.746141 85.476 38.9478
10.824012 85.489 38.5844
10.902447 85.500 38.2214
10.981451 85.510 37.8614
11.061027 85.517 37.5066
11.141180 85.522 37.1589
11.221913 85.526 36.8202
11.303232 85.529 36.4922
11.385140 85.531 36.1763
11.467641 85.533 35.8730
11.550741 85.534 35.5825
11.634442 85.536 35.3044
11.718750 85.539 35.0379
11.803669 85.542 34.7819
11.889203 85.548 34.5346
11.975357 85.554 34.2939
12.062136 85.563 34.0574
12.149543 85.573 33.8227
12.237583 85.585 33.5874
12.326262 85.599 33.3493
12.415583 85.614 33.1063
12.505552 85.631 32.8565
12.596172 85.648 32.5990
12.687449 85.666 32.3329
12.779387 85.684 32.0583
12.871992 85.702 31.7752
12.965268 85.719 31.4845
13.059220 85.736 31.1876
13.153852 85.752 30.8860
13.249170 85.767 30.5816
13.345179 85.780 30.2762
13.441884 85.793 29.9715
13.539289 85.806 29.6693
13.637401 85.817 29.3709
13.736223 85.828 29.0771
13.835761 85.840 28.7882
13.936021 85.851 28.5042
14.037007 85.863 28.2245
14.138725 85.876 27.9478
14.241180 85.890 27.6726
14.344377 85.904 27.3970
14.448323 85.920 27.1191
14.553021 85.937 26.8371
14.658478 85.954 26.5491
14.764700 85.972 26.2539
14.871691 85.990 25.9506
14.979457 86.008 25.6389
15.088005 86.025 25.3192
15.197339 86.041 24.9926
15.307465 86.055 24.6605
15.418389 86.068 24.3251
15.530117 86.080 23.9888
15.642655 86.089 23.6538
15.756008 86.097 23.3230
15.870182 86.104 22.9983
15.985184 86.109 22.6816
16.101019 86.114 22.3743
16.217694 86.118 22.0768
16.335214 86.122 21.7892
16.453586 86.127 21.5105
16.572815 86.132 21.2394
16.692909 86.138 20.9742
16.813872 86.145 20.7128
16.935713 86.153 20.4530
17.058436 86.161 20.1931
17.182048 86.170 19.9315
17.306556 86.180 19.6671
17.431967 86.189 19.3998
17.558286 86.198 19.1299
17.685521 86.206 18.8583
17.813677 86.213 18.5864
17.942762 86.220 18.3160
18.072783 86.225 18.0490
18.203746 86.230 17.7870
18.335658 86.234 17.5316
18.468526 86.237 17.2837
18.602356 86.241 17.0436
18.737156 86.245 16.8109
18.872934 86.249 16.5850
19.009695 86.254 16.3643
19.147447 86.260 16.1471
19.286197 86.267 15.9317
19.425953 86.274 15.7163
19.566721 86.282 15.4996
19.708510 86.291 15.2807
19.851326 86.300 15.0590
19.995177 86.309 14.8346
20.140070 86.317 14.6079
20.286013 86.325 14.3798
20.433014 86.333 14.1511
20.581080 86.340 13.9225
20.730219 86.348 13.6948
20.880439 86.355 13.4681
21.031747 86.362 13.2421
21.184152 86.369 13.0161
21.337661 86.377 12.7891
21.492282 86.384 12.5597
21.648024 86.392 12.3265
21.804895 86.400 12.0884
21.962902 86.408 11.8445
22.122054 86.415 11.5941
22.282360 86.421 11.3378
22.443827 86.426 11.0762
22.606464 86.430 10.8109
22.770280 86.431 10.5440
22.935283 86.432 10.2781
23.101481 86.430 10.0159
23.268884 86.426 9.7603
23.437500 86.422 9.5136
23.607338 86.416 9.2779
23.778406 86.411 9.0541
23.950714 86.405 8.8422
24.124271 86.400 8.6410
24.299086 86.397 8.4479
24.475167 86.395 8.2593
24.652524 86.395 8.0712
24.831166 86.397 7.8792
25.011103 86.401 7.6790
25.192344 86.405 7.4679
25.374898 86.409 7.2444
25.558775 86.413 7.0090
25.743984 86.415 6.7640
25.930536 86.415 6.5135
26.118439 86.413 6.2628
26.307704 86.408 6.0172
26.498341 86.402 5.7820
26.690359 86.395 5.5607
26.883768 86.388 5.3548
27.078579 86.382 5.1635
27.274801 86.377 4.9839
27.472446 86.374 4.8112
27.671522 86.374 4.6400
27.872042 86.375 4.4652
28.074014 86.377 4.2831
28.277450 86.380 4.0919
28.482360 86.382 3.8920
28.688755 86.384 3.6854
28.896645 86.384 3.4760
29.106042 86.382 3.2674
29.316957 86.380 3.0632
29.529400 86.376 2.8655
29.743382 86.372 2.6750
29.958915 86.369 2.4910
30.176009 86.365 2.3116
30.394677 86.362 2.1348
30.614929 86.359 1.9587
30.836778 86.355 1.7821
31.060234 86.352 1.6047
31.285309 86.348 1.4269
31.512015 86.344 1.2493
31.740364 86.339 1.0725
31.970368 86.334 0.8966
32.202039 86.330 0.7211
32.435388 86.325 0.5447
32.670428 86.320 0.3662
32.907171 86.315 0.1843
33.145630 86.310 -0.0018
33.385817 86.305 -0.1919
33.627745 86.299 -0.3851
33.871425 86.292 -0.5797
34.116871 86.285 -0.7736
34.364096 86.277 -0.9650
34.613113 86.269 -1.1526
34.863934 86.262 -1.3368
35.116572 86.256 -1.5190
35.371041 86.252 -1.7022
35.627354 86.249 -1.8903
35.885525 86.247 -2.0870
36.145566 86.246 -2.2952
36.407492 86.245 -2.5157
36.671316 86.244 -2.7469
36.937051 86.240 -2.9851
37.204712 86.235 -3.2253
37.474313 86.228 -3.4623
37.745867 86.220 -3.6918
38.019389 86.210 -3.9113
38.294893 86.200 -4.1202
38.572394 86.190 -4.3188
38.851905 86.179 -4.5079
39.133442 86.168 -4.6875
39.417019 86.156 -4.8564
39.702651 86.144 -5.0133
39.990353 86.132 -5.1564
40.280140 86.121 -5.2856
40.572026 86.110 -5.4025
40.866028 86.101 -5.5102
41.162160 86.094 -5.6137
41.460438 86.088 -5.7183
41.760877 86.084 -5.8287
42.063494 86.081 -5.9490
42.368303 86.079 -6.0818
42.675322 86.076 -6.2286
42.984565 86.073 -6.3898
43.296048 86.068 -6.5645
43.609789 86.062 -6.7501
43.925804 86.053 -6.9437
44.244108 86.043 -7.1411
44.564719 86.030 -7.3383
44.887654 86.016 -7.5321
45.212928 86.001 -7.7208
45.540560 85.986 -7.9038
45.870565 85.971 -8.0815
46.202962 85.955 -8.2544
46.537768 85.940 -8.4222
46.875000 85.925 -8.5841
47.214676 85.911 -8.7387
47.556813 85.897 -8.8858
47.901429 85.884 -9.0267
48.248542 85.873 -9.1643
48.598171 85.863 -9.3026
48.950334 85.854 -9.4438
49.305048 85.844 -9.5882
49.662333 85.834 -9.7324
50.022206 85.823 -9.8718
50.384688 85.812 -10.0022
50.749796 85.800 -10.1226
51.117550 85.790 -10.2355
51.487969 85.781 -10.3467
51.861072 85.773 -10.4624
52.236879 85.765 -10.5875
52.615409 85.757 -10.7234
52.996681 85.748 -10.8685
53.380717 85.737 -11.0188
53.767536 85.723 -11.1693
54.157158 85.708 -11.3152
54.549603 85.691 -11.4531
54.944892 85.674 -11.5811
55.343045 85.657 -11.6988
55.744084 85.640 -11.8066
56.148028 85.624 -11.9056
56.554900 85.611 -11.9990
56.964720 85.600 -12.0929
57.377510 85.593 -12.1971
57.793291 85.588 -12.3235
58.212085 85.583 -12.4805
58.633914 85.577 -12.6685
59.058799 85.568 -12.8779
59.486764 85.553 -13.0922
59.917829 85.535 -13.2954
60.352019 85.516 -13.4794
60.789354 85.496 -13.6462
61.229859 85.479 -13.8048
61.673556 85.462 -13.9645
62.120468 85.446 -14.1293
62.570618 85.430 -14.2981
63.024031 85.414 -14.4675
63.480729 85.397 -14.6352
63.940736 85.380 -14.8008
64.404077 85.362 -14.9636
64.870776 85.343 -15.1213
65.340856 85.324 -15.2712
65.814343 85.305 -15.4117
66.291261 85.286 -15.5438
66.771635 85.268 -15.6698
67.255489 85.252 -15.7931
67.742850 85.237 -15.9169
68.233743 85.223 -16.0459
68.728193 85.211 -16.1847
69.226226 85.199 -16.3368
69.727867 85.187 -16.5023
70.233144 85.175 -16.6783
70.742083 85.160 -16.8600
71.254709 85.145 -17.0418
71.771050 85.128 -17.2180
72.291132 85.111 -17.3840
72.814984 85.094 -17.5374
73.342631 85.077 -17.6782
73.874102 85.061 -17.8092
74.409424 85.046 -17.9332
74.948626 85.033 -18.0539
75.491734 85.020 -18.1762
76.038779 85.008 -18.3055
76.589787 84.995 -18.4451
77.144788 84.979 -18.5918
77.703811 84.961 -18.7361
78.266885 84.941 -18.8668
78.834039 84.920 -18.9786
79.405303 84.902 -19.0767
79.980706 84.886 -19.1722
80.560280 84.873 -19.2756
81.144053 84.861 -19.3900
81.732056 84.849 -19.5125
82.324320 84.837 -19.6381
82.920876 84.826 -19.7627
83.521755 84.813 -19.8838
84.126988 84.801 -19.9990
84.736607 84.787 -20.1061
85.350643 84.773 -20.2042
85.969129 84.758 -20.2935
86.592097 84.743 -20.3755
87.219579 84.727 -20.4531
87.851608 84.711 -20.5309
88.488217 84.695 -20.6134
89.129439 84.677 -20.7042
89.775308 84.659 -20.8050
90.425856 84.640 -20.9160
91.081119 84.621 -21.0384
91.741131 84.602 -21.1746
92.405925 84.583 -21.3275
93.075536 84.564 -21.4981
93.750000 84.545 -21.6825
94.429351 84.525 -21.8727
95.113625 84.505 -22.0601
95.802858 84.486 -22.2399
96.497085 84.469 -22.4123
97.196342 84.453 -22.5793
97.900667 84.437 -22.7394
98.610096 84.421 -22.8871
99.324665 84.405 -23.0178
100.044413 84.388 -23.1323
100.769376 84.371 -23.2352
101.499592 84.353 -23.3327
102.235100 84.334 -23.4301
102.975938 84.315 -23.5305
103.722144 84.294 -23.6343
104.473757 84.273 -23.7420
105.230817 84.254 -23.8556
105.993363 84.236 -23.9769
106.761435 84.221 -24.1072
107.535072 84.209 -24.2473
108.314315 84.198 -24.3945
109.099206 84.189 -24.5419
109.889783 84.178 -24.6815
110.686090 84.168 -24.8077
111.488167 84.155 -24.9172
112.296056 84.142 -25.0103
113.109800 84.127 -25.0925
113.929440 84.112 -25.1736
114.755020 84.097 -25.2650
115.586582 84.081 -25.3770
116.424170 84.065 -25.5143
117.267827 84.046 -25.6726
118.117598 84.026 -25.8393
118.973527 84.005 -26.0020
119.835658 83.984 -26.1548
120.704037 83.964 -26.2969
121.578708 83.945 -26.4283
122.459718 83.926 -26.5510
123.347111 83.908 -26.6676
124.240935 83.890 -26.7790
125.141236 83.873 -26.8878
126.048061 83.857 -26.9985
126.961458 83.845 -27.1156
127.881473 83.835 -27.2430
128.808154 83.828 -27.3826
129.741551 83.822 -27.5287
130.681712 83.818 -27.6691
131.628686 83.814 -27.7933
132.582521 83.811 -27.8978
133.543269 83.809 -27.9824
134.510979 83.807 -28.0516
135.485701 83.805 -28.1180
136.467486 83.799 -28.1942
137.456386 83.788 -28.2794
138.452451 83.771 -28.3657
139.455735 83.750 -28.4525
140.466288 83.726 -28.5449
141.484165 83.700 -28.6436
142.509418 83.675 -28.7483
143.542100 83.653 -28.8654
144.582265 83.633 -29.0028
145.629968 83.616 -29.1572
146.685262 83.601 -29.3160
147.748204 83.587 -29.4691
148.818849 83.575 -29.6118
149.897251 83.563 -29.7371
150.983469 83.551 -29.8373
152.077557 83.539 -29.9150
153.179574 83.527 -29.9832
154.289576 83.514 -30.0521
155.407622 83.499 -30.1219
156.533770 83.483 -30.1938
157.668078 83.468 -30.2809
158.810606 83.454 -30.4020
159.961413 83.439 -30.5584
161.120559 83.423 -30.7295
162.288105 83.407 -30.8997
163.464112 83.395 -31.0773
164.648640 83.384 -31.2732
165.841752 83.373 -31.4760
167.043510 83.360 -31.6605
168.253976 83.348 -31.8136
169.473213 83.339 -31.9473
170.701286 83.332 -32.0876
171.938258 83.323 -32.2419
173.184194 83.311 -32.3849
174.439158 83.298 -32.4910
175.703216 83.289 -32.5785
176.976434 83.284 -32.6992
178.258878 83.279 -32.8852
179.550615 83.267 -33.1171
180.851713 83.246 -33.3391
182.162239 83.221 -33.4985
183.482262 83.200 -33.5887
184.811850 83.190 -33.6625
186.151073 83.187 -33.7896
187.500000 83.180 -33.9890
188.858702 83.161 -34.2106
190.227250 83.129 -34.3779
191.605715 83.091 -34.4398
192.994169 83.059 -34.3990
194.392685 83.042 -34.3193
195.801334 83.044 -34.3103
197.220191 83.056 -34.4739
198.649330 83.061 -34.8406
200.088825 83.045 -35.3441
201.538751 83.002 -35.8540
202.999184 82.938 -36.2316
204.470200 82.862 -36.3683
205.951875 82.791 -36.2040
207.444287 82.742 -35.7510
208.947514 82.730 -35.1218
210.461634 82.761 -34.5137
211.986726 82.829 -34.1215
213.522869 82.921 -34.0443
215.070144 83.023 -34.2815
216.628631 83.124 -34.7930
218.198411 83.213 -35.5290
219.779567 83.277 -36.4060
221.372180 83.309 -37.2970
222.976334 83.313 -38.0791
224.592112 83.301 -38.7000
226.219600 83.283 -39.1968
227.858880 83.264 -39.6441
229.510039 83.244 -40.0829
231.173164 83.218 -40.4862
232.848340 83.189 -40.7821
234.535655 83.162 -40.9058
236.235197 83.145 -40.8417
237.947054 83.145 -40.6410
239.671317 83.162 -40.3936
241.408074 83.189 -40.1711
243.157416 83.212 -39.9867
244.919435 83.220 -39.7971
246.694223 83.203 -39.5433
248.481871 83.160 -39.1979
250.282473 83.094 -38.7904
252.096123 83.013 -38.3992
253.922915 82.927 -38.1219
255.762945 82.849 -38.0476
257.616309 82.792 -38.2309
259.483103 82.767 -38.6671
261.363424 82.781 -39.2787
263.257372 82.828 -39.9324
265.165043 82.896 -40.4919
267.086538 82.964 -40.8821
269.021957 83.011 -41.1210
270.971401 83.028 -41.3000
272.934972 83.016 -41.5193
274.912771 82.987 -41.8193
276.904902 82.954 -42.1603
278.911469 82.923 -42.4674
280.932577 82.894 -42.7050
282.968330 82.863 -42.9006
285.018835 82.829 -43.0988
287.084199 82.797 -43.3058
289.164530 82.770 -43.4883
291.259935 82.752 -43.6147
293.370525 82.741 -43.6839
295.496408 82.737 -43.7118
297.637697 82.740 -43.7056
299.794503 82.748 -43.6610
301.966937 82.756 -43.5747
304.155114 82.764 -43.4515
306.359147 82.771 -43.3088
308.579152 82.775 -43.1747
310.815244 82.779 -43.0795
313.067539 82.784 -43.0394
315.336156 82.794 -43.0408
317.621211 82.808 -43.0416
319.922826 82.823 -43.0008
322.241118 82.835 -42.9065
324.576210 82.842 -42.7750
326.928223 82.844 -42.6280
329.297280 82.849 -42.4752
331.683504 82.857 -42.3154
334.087019 82.868 -42.1493
336.507952 82.881 -41.9870
338.946427 82.893 -41.8436
341.402572 82.905 -41.7261
343.876516 82.915 -41.6321
346.368387 82.923 -41.5555
348.878315 82.928 -41.4886
351.406431 82.930 -41.4216
353.952867 82.928 -41.3493
356.517756 82.925 -41.2740
359.101230 82.925 -41.2008
361.703426 82.929 -41.1322
364.324478 82.933 -41.0664
366.964523 82.938 -40.9969
369.623699 82.941 -40.9113
372.302145 82.945 -40.7987
375.000000 82.951 -40.6580
377.717405 82.961 -40.4949
380.454501 82.973 -40.3181
383.211431 82.983 -40.1404
385.988339 82.991 -39.9767
388.785369 82.995 -39.8375
391.602668 82.996 -39.7261
394.440383 82.992 -39.6392
397.298660 82.986 -39.5635
400.177650 82.978 -39.4764
403.077502 82.973 -39.3574
405.998368 82.971 -39.2010
408.940400 82.973 -39.0193
411.903750 82.976 -38.8339
414.888575 82.979 -38.6621
417.895028 82.981 -38.5081
420.923268 82.981 -38.3645
423.973452 82.980 -38.2202
427.045738 82.980 -38.0644
430.140287 82.981 -37.8895
433.257261 82.982 -37.6949
436.396822 82.984 -37.4871
439.559133 82.985 -37.2728
442.744360 82.983 -37.0504
445.952668 82.979 -36.8149
449.184225 82.973 -36.5649
452.439199 82.963 -36.3060
455.717760 82.952 -36.0463
459.020079 82.942 -35.7893
462.346327 82.936 -35.5328
465.696680 82.933 -35.2754
469.071310 82.936 -35.0181
472.470394 82.942 -34.7600
475.894109 82.949 -34.4958
479.342634 82.956 -34.2230
482.816148 82.960 -33.9427
486.314833 82.961 -33.6507
489.838871 82.962 -33.3361
493.388445 82.961 -32.9922
496.963741 82.960 -32.6229
500.564945 82.958 -32.2404
504.192245 82.955 -31.8598
507.845830 82.952 -31.4937
511.525890 82.948 -31.1469
515.232618 82.945 -30.8142
518.966206 82.942 -30.4822
522.726849 82.941 -30.1372
526.514743 82.941 -29.7703
530.330086 82.942 -29.3784
534.173076 82.943 -28.9657
538.043915 82.944 -28.5424
541.942803 82.944 -28.1187
545.869944 82.944 -27.6997
549.825542 82.943 -27.2877
553.809805 82.943 -26.8843
557.822939 82.943 -26.4878
561.865154 82.945 -26.0928
565.936660 82.949 -25.6902
570.037671 82.953 -25.2712
574.168399 82.958 -24.8307
578.329060 82.962 -24.3694
582.519870 82.965 -23.8926
586.741049 82.966 -23.4010
590.992817 82.967 -22.8891
595.275394 82.968 -22.3522
599.589005 82.969 -21.7939
603.933874 82.971 -21.2261
608.310228 82.973 -20.6594
612.718295 82.974 -20.0964
617.158304 82.974 -19.5309
621.630488 82.973 -18.9575
626.135079 82.972 -18.3795
630.672311 82.971 -17.8047
635.242423 82.969 -17.2370
639.845651 82.966 -16.6724
644.482237 82.961 -16.1005
649.152421 82.955 -15.5109
653.856447 82.950 -14.8997
658.594560 82.945 -14.2733
663.367008 82.943 -13.6411
668.174039 82.942 -13.0081
673.015903 82.942 -12.3715
677.892854 82.942 -11.7220
682.805145 82.944 -11.0504
687.753032 82.945 -10.3492
692.736774 82.946 -9.6133
697.756631 82.944 -8.8441
702.812863 82.940 -8.0509
707.905735 82.935 -7.2440
713.035511 82.932 -6.4298
718.202461 82.930 -5.6088
723.406852 82.929 -4.7765
728.648956 82.930 -3.9289
733.929047 82.933 -3.0681
739.247399 82.936 -2.2018
744.604290 82.942 -1.3387
750.000000 82.949 -0.4852
755.434809 82.957 0.3599
760.909001 82.966 1.2051
766.422861 82.977 2.0628
771.976677 82.990 2.9437
777.570739 83.004 3.8539
783.205337 83.020 4.7944
788.880766 83.036 5.7626
794.597321 83.053 6.7539
800.355301 83.070 7.7621
806.155005 83.085 8.7821
811.996736 83.099 9.8124
817.880799 83.111 10.8547
823.807501 83.124 11.9060
829.777150 83.138 12.9543
835.790057 83.156 13.9822
841.846536 83.179 14.9698
847.946903 83.206 15.8960
854.091476 83.235 16.7421
860.280575 83.262 17.4991
866.514523 83.285 18.1702
872.793644 83.304 18.7636
879.118267 83.319 19.2859
885.488720 83.332 19.7379
891.905336 83.345 20.1177
898.368450 83.359 20.4296
904.878398 83.377 20.6899
911.435520 83.400 20.9233
918.040157 83.426 21.1522
924.692655 83.455 21.3898
931.393359 83.485 21.6387
938.142619 83.518 21.8938
944.940787 83.552 22.1451
951.788218 83.587 22.3804
958.685268 83.621 22.5914
965.632296 83.654 22.7790
972.629666 83.688 22.9518
979.677741 83.723 23.1196
986.776890 83.761 23.2863
993.927482 83.802 23.4496
1001.129891 83.845 23.6069
1008.384491 83.890 23.7585
1015.691660 83.936 23.9072
1023.051781 83.982 24.0552
1030.465236 84.029 24.2034
1037.932411 84.076 24.3495
1045.453698 84.125 24.4888
1053.029486 84.175 24.6163
1060.660172 84.225 24.7319
1068.346153 84.274 24.8396
1076.087829 84.322 24.9425
1083.885605 84.370 25.0419
1091.739887 84.416 25.1383
1099.651084 84.462 25.2312
1107.619609 84.508 25.3196
1115.645878 84.555 25.4021
1123.730308 84.602 25.4752
1131.873321 84.651 25.5328
1140.075341 84.701 25.5707
1148.336797 84.753 25.5918
1156.658119 84.805 25.6063
1165.039741 84.856 25.6249
1173.482099 84.908 25.6515
1181.985634 84.960 25.6802
1190.550789 85.012 25.7010
1199.178011 85.066 25.7062
1207.867749 85.122 25.6926
1216.620457 85.177 25.6613
1225.436590 85.232 25.6151
1234.316609 85.286 25.5575
1243.260976 85.338 25.4936
1252.270157 85.390 25.4293
1261.344623 85.440 25.3691
1270.484846 85.490 25.3137
1279.691303 85.539 25.2601
1288.964474 85.587 25.2056
1298.304842 85.635 25.1500
1307.712894 85.682 25.0934
1317.189120 85.728 25.0350
1326.734016 85.772 24.9739
1336.348077 85.816 24.9081
1346.031806 85.858 24.8370
1355.785708 85.898 24.7606
1365.610290 85.938 24.6789
1375.506065 85.978 24.5922
1385.473549 86.018 24.5013
1395.513261 86.059 24.4082
1405.625726 86.100 24.3163
1415.811469 86.142 24.2299
1426.071023 86.184 24.1518
1436.404921 86.227 24.0853
1446.813703 86.270 24.0321
1457.297912 86.311 23.9893
1467.858093 86.352 23.9502
1478.494798 86.392 23.9071
1489.208581 86.432 23.8531
1500.000000 86.472 23.7844
1510.869618 86.511 23.7035
1521.818002 86.551 23.6178
1532.845723 86.591 23.5334
1543.953355 86.632 23.4510
1555.141477 86.672 23.3684
1566.410674 86.714 23.2833
1577.761531 86.757 23.1934
1589.194642 86.803 23.0948
1600.710601 86.851 22.9866
1612.310010 86.901 22.8749
1623.993473 86.952 22.7695
1635.761599 87.005 22.6749
1647.615002 87.060 22.5853
1659.554299 87.117 22.4903
1671.580114 87.173 22.3824
1683.693072 87.226 22.2625
1695.893807 87.277 22.1364
1708.182952 87.325 22.0089
1720.561150 87.371 21.8820
1733.029045 87.418 21.7560
1745.587288 87.466 21.6311
1758.236533 87.517 21.5060
1770.977440 87.569 21.3790
1783.810673 87.622 21.2498
1796.736900 87.676 21.1177
1809.756796 87.730 20.9814
1822.871040 87.785 20.8396
1836.080315 87.841 20.6917
1849.385310 87.899 20.5359
1862.786718 87.957 20.3716
1876.285239 88.015 20.1998
1889.881575 88.073 20.0223
1903.576436 88.130 19.8398
1917.370535 88.187 19.6519
1931.264593 88.244 19.4570
1945.259332 88.301 19.2535
1959.355483 88.358 19.0416
1973.553781 88.416 18.8232
1987.854965 88.476 18.5980
2002.259781 88.536 18.3615
2016.768981 88.598 18.1112
2031.383320 88.661 17.8506
2046.103561 88.726 17.5867
2060.930471 88.791 17.3280
2075.864823 88.856 17.0776
2090.907395 88.922 16.8268
2106.058972 88.988 16.5611
2121.320344 89.055 16.2747
2136.692305 89.122 15.9741
2152.175658 89.186 15.6702
2167.771210 89.246 15.3688
2183.479774 89.303 15.0688
2199.302169 89.357 14.7635
2215.239219 89.411 14.4438
2231.291755 89.467 14.1069
2247.460615 89.529 13.7618
2263.746641 89.596 13.4259
2280.150683 89.670 13.1140
2296.673595 89.749 12.8300
2313.316238 89.831 12.5685
2330.079481 89.916 12.3196
2346.964198 90.003 12.0704
2363.971268 90.094 11.8059
2381.101578 90.190 11.5106
2398.356022 90.294 11.1711
2415.735498 90.407 10.7769
2433.240913 90.528 10.3175
2450.873180 90.653 9.7828
2468.633217 90.780 9.1643
2486.521951 90.905 8.4595
2504.540314 91.027 7.6724
2522.689246 91.142 6.8127
2540.969692 91.249 5.8949
2559.382606 91.347 4.9323
2577.928947 91.436 3.9352
2596.609683 91.518 2.9109
2615.425787 91.592 1.8671
2634.378241 91.661 0.8095
2653.468031 91.723 -0.2593
2672.696154 91.781 -1.3387
2692.063613 91.833 -2.4270
2711.571415 91.879 -3.5211
2731.220579 91.921 -4.6182
2751.012130 91.959 -5.7182
2770.947098 91.994 -6.8247
2791.026522 92.027 -7.9418
2811.251451 92.055 -9.0712
2831.622938 92.079 -10.2111
2852.142045 92.096 -11.3557
2872.809842 92.104 -12.4989
2893.627406 92.106 -13.6366
2914.595823 92.102 -14.7686
2935.716186 92.093 -15.8977
2956.989596 92.080 -17.0264
2978.417161 92.064 -18.1542
3000.000000 92.046 -19.2794
3021.739237 92.025 -20.3994
3043.636005 91.999 -21.5122
3065.691446 91.968 -22.6184
3087.906710 91.930 -23.7176
3110.282955 91.887 -24.8049
3132.821347 91.840 -25.8747
3155.523062 91.789 -26.9262
3178.389283 91.735 -27.9626
3201.421202 91.679 -28.9862
3224.620020 91.620 -29.9948
3247.986946 91.559 -30.9849
3271.523198 91.494 -31.9561
3295.230004 91.426 -32.9082
3319.108599 91.355 -33.8396
3343.160228 91.281 -34.7460
3367.386145 91.203 -35.6216
3391.787613 91.122 -36.4620
3416.365904 91.038 -37.2654
3441.122300 90.951 -38.0322
3466.058091 90.863 -38.7645
3491.174576 90.776 -39.4648
3516.473066 90.691 -40.1354
3541.954880 90.610 -40.7782
3567.621345 90.533 -41.3965
3593.473800 90.460 -41.9977
3619.513592 90.390 -42.5923
3645.742080 90.324 -43.1890
3672.160630 90.260 -43.7908
3698.770620 90.197 -44.3962
3725.573436 90.137 -45.0038
3752.570477 90.079 -45.6152
3779.763150 90.023 -46.2339
3807.152872 89.969 -46.8623
3834.741071 89.916 -47.5007
3862.529185 89.864 -48.1466
3890.518664 89.812 -48.7958
3918.710966 89.761 -49.4462
3947.107561 89.709 -50.0994
3975.709929 89.658 -50.7599
4004.519563 89.604 -51.4343
4033.537962 89.549 -52.1285
4062.766641 89.490 -52.8434
4092.207123 89.427 -53.5741
4121.860942 89.360 -54.3123
4151.729646 89.289 -55.0455
4181.814790 89.214 -55.7565
4212.117944 89.137 -56.4257
4242.640687 89.058 -57.0397
4273.384610 88.981 -57.5917
4304.351317 88.907 -58.0748
4335.542421 88.838 -58.4752
4366.959549 88.774 -58.7631
4398.604338 88.714 -58.8820
4430.478438 88.658 -58.7401
4462.583511 88.607 -58.2113
4494.921231 88.564 -57.1570
4527.493283 88.534 -55.4688
4560.301365 88.515 -53.1094
4593.347189 88.504 -50.1294
4626.632476 88.493 -46.6466
4660.158962 88.478 -42.8018
4693.928395 88.454 -38.7190
4727.942535 88.421 -34.4896
4762.203156 88.375 -30.1713
4796.712043 88.317 -25.7943
4831.470996 88.246 -21.3701
4866.481826 88.161 -16.9005
4901.746360 88.061 -12.3804
4937.266434 87.946 -7.7994
4973.043902 87.814 -3.1403
5009.080628 87.666 1.6195
5045.378492 87.502 6.5024
5081.939384 87.322 11.5283
5118.765212 87.129 16.7150
5155.857894 86.922 22.0776
5193.219366 86.704 27.6277
5230.851574 86.474 33.3765
5268.756481 86.233 39.3402
5306.936062 85.985 45.5395
5345.392309 85.733 51.9914
5384.127225 85.482 58.7042
5423.142830 85.236 65.6758
5462.441159 84.995 72.8969
5502.024259 84.762 80.3580
5541.894195 84.539 88.0482
5582.053045 84.327 95.9540
5622.502902 84.129 104.0586
5663.245876 83.946 112.3421
5704.284090 83.780 120.7809
5745.619684 83.629 129.3498
5787.254813 83.493 138.0309
5829.191647 83.370 146.8159
5871.432373 83.260 155.7029
5913.979192 83.162 164.6893
5956.834323 83.076 173.7700
6000.000000 83.000 -177.0617
6043.478473 82.935 -167.8095
6087.272010 82.880 -158.4733
6131.382892 82.833 -149.0514
6175.813420 82.794 -139.5431
6220.565910 82.762 -129.9485
6265.642695 82.738 -120.2660
6311.046124 82.721 -110.4948
6356.778566 82.711 -100.6356
6402.842404 82.708 -90.6888
6449.240040 82.712 -80.6508
6495.973891 82.721 -70.5185
6543.046396 82.737 -60.2908
6590.460007 82.758 -49.9697
6638.217197 82.785 -39.5625
6686.320456 82.817 -29.0768
6734.772290 82.854 -18.5099
6783.575226 82.896 -7.8524
6832.731809 82.942 2.9075
6882.244600 82.992 13.7819
6932.116181 83.047 24.7822
6982.349153 83.108 35.9197
7032.946133 83.178 47.2059
7083.909760 83.258 58.6477
7135.242690 83.351 70.2453
7186.947600 83.461 81.9910
7239.027185 83.588 93.8661
7291.484160 83.735 105.8358
7344.321260 83.903 117.8502
7397.541239 84.091 129.8487
7451.146872 84.299 141.7616
7505.140954 84.523 153.5061
7559.526299 84.757 164.9888
7614.305743 84.994 176.1178
7669.482141 85.223 -173.1807
7725.058371 85.429 -162.9451
7781.037328 85.600 -153.1630
7837.421932 85.719 -143.7659
7894.215122 85.777 -134.6386
7951.419859 85.765 -125.6368
8009.039125 85.680 -116.6029
8067.075924 85.520 -107.3779
8125.533282 85.291 -97.8145
8184.414245 84.999 -87.7881
8243.721885 84.652 -77.2057
8303.459292 84.260 -66.0073
8363.629581 83.834 -54.1625
8424.235888 83.382 -41.6669
8485.281374 82.912 -28.5354
8546.769221 82.431 -14.7972
8608.702634 81.945 -0.4930
8671.084842 81.459 14.3307
8733.919097 80.975 29.6298
8797.208675 80.498 45.3701
8860.956876 80.029 61.5291
8925.167022 79.568 78.0889
8989.842461 79.119 95.0304
9054.986566 78.680 112.3397
9120.602731 78.255 130.0160
9186.694378 77.844 148.0623
9253.264952 77.447 166.4761
9320.317925 77.068 -174.7538
9387.856790 76.705 -155.6469
9455.885071 76.360 -136.2252
9524.406312 76.032 -116.5114
9593.424086 75.719 -96.5323
9662.941992 75.421 -76.3093
9732.963653 75.138 -55.8489
9803.492719 74.870 -35.1360
9874.532869 74.616 -14.1400
9946.087805 74.379 7.1648
10018.161257 74.160 28.7787
10090.756983 73.959 50.6862
10163.878768 73.776 72.8782
10237.530423 73.611 95.3674
10311.715789 73.465 118.1745
10386.438732 73.339 141.2991
10461.703149 73.235 164.7209
10537.512962 73.151 -171.5798
10613.872125 73.090 -147.6135
10690.784618 73.051 -123.3982
10768.254450 73.034 -98.9648
10846.285661 73.038 -74.3462
10924.882318 73.062 -49.5599
11004.048518 73.105 -24.6099
11083.788390 73.168 0.5017
11164.106090 73.249 25.7700
11245.005805 73.348 51.1836
11326.491752 73.463 76.7250
11408.568180 73.593 102.3652
11491.239368 73.734 128.0514
11574.509626 73.883 153.7367
11658.383294 74.038 179.4211
11742.864745 74.195 -154.8611
11827.958384 74.352 -129.0897
11913.668646 74.509 -103.2645
12000.000000 74.663 -77.3663
12086.956947 74.816 -51.3269
12174.544019 74.970 -25.0516
12262.765784 75.130 1.5486
12351.626840 75.303 28.5685
12441.131819 75.502 56.1719
12531.285389 75.739 84.7423
12622.092249 76.033 115.1610
12713.557132 76.402 149.1708
12805.684808 76.860 -171.2710
12898.480079 77.413 -128.8040
12991.947783 78.055 -92.2720
13086.092792 78.765 -65.3800
13180.920015 79.508 -46.0811
13276.434395 80.238 -32.0017
13372.640911 80.904 -21.5752
13469.544580 81.456 -13.7568
13567.150452 81.845 -7.7537
13665.463617 82.030 -2.8683
13764.489200 81.983 1.5756
13864.232362 81.699 6.2439
13964.698305 81.195 11.7628
14065.892266 80.504 18.6888
14167.819519 79.672 27.4956
14270.485380 78.748 38.5616
14373.895200 77.782 52.1373
14478.054370 76.820 68.2847
14582.968320 75.903 86.8179
14688.642520 75.062 107.2812
14795.082478 74.322 129.0278
14902.293745 73.696 151.4141
15010.281908 73.190 173.9932
15119.052599 72.807 -163.4360
15228.611486 72.543 -140.8994
15338.964283 72.398 -118.3186
15450.116741 72.372 -95.5532
15562.074656 72.470 -72.4436
15674.843864 72.698 -48.8904
15788.430244 73.060 -24.9751
15902.839718 73.558 -1.1067
16018.078250 74.184 21.9199
16134.151848 74.916 43.1013
16251.066563 75.720 61.6013
16368.828491 76.551 77.0217
16487.443769 77.353 89.3889
16606.918584 78.065 99.0056
16727.259161 78.621 106.3296
16848.471777 78.964 111.9236
16970.562748 79.045 116.4407
17093.538442 78.838 120.6033
17217.405268 78.345 125.1428
17342.169684 77.589 130.7336
17467.838194 76.612 137.9651
17594.417350 75.461 147.3518
17721.913751 74.186 159.3569
17850.334044 72.833 174.3857
17979.684923 71.448 -167.3120
18109.973131 70.066 -145.8486
18241.205462 68.720 -121.8494
18373.388756 67.433 -96.2642
18506.529905 66.219 -69.9312
18640.635849 65.089 -43.3181
18775.713581 64.049 -16.5859
18911.770141 63.099 10.2368
19048.812624 62.236 37.1797
19186.848172 61.457 64.3118
19325.883983 60.756 91.5537
19465.927305 60.133 118.2183
19606.985439 59.594 142.6660
19749.065738 59.154 162.7720
19892.175609 58.838 176.8955
20036.322514 58.672 -175.8408
