* Measurement data measured by REW V5.31.3
* Source: Headset (2- CX31993 HIFI AUDIO), MICROPHONE (Master Volume), R, volume: 0.300
* Format: 256k Log Swept Sine, 1 sweep at -11.9 dBFS with no timing reference
* Dated: 09 24, 25 1:42:16 PM
* REW Settings:
*  C-weighting compensation: Off
*  Target level: 75.0 dB
* Note: ; 
* Measurement: Moondrop Lan2 Ref R
* Smoothing: 1/12 octave
* Frequency Step: 96 ppo
* Start Frequency: 0.36621094 Hz
*
* Freq(Hz) SPL(dB) Phase(degrees)
0.366211 29.654 -6.5818
0.368865 29.658 -6.6306
0.371538 29.663 -6.7035
0.374230 29.670 -6.7948
0.376942 29.678 -6.8995
0.379673 29.686 -7.0141
0.382424 29.695 -7.1361
0.385196 29.703 -7.2642
0.387987 29.712 -7.3974
0.390798 29.721 -7.5354
0.393630 29.731 -7.6778
0.396483 29.740 -7.8247
0.399356 29.749 -7.9760
0.402250 29.758 -8.1317
0.405165 29.768 -8.2917
0.408101 29.777 -8.4562
0.411058 29.787 -8.6252
0.414037 29.797 -8.7986
0.417037 29.806 -8.9766
0.420059 29.816 -9.1591
0.423103 29.826 -9.3462
0.426169 29.836 -9.5380
0.429257 29.846 -9.7344
0.432368 29.856 -9.9354
0.435501 29.866 -10.1412
0.438656 29.876 -10.3517
0.441835 29.886 -10.5670
0.445037 29.897 -10.7870
0.448262 29.907 -11.0118
0.451510 29.918 -11.2414
0.454782 29.928 -11.4758
0.458077 29.939 -11.7151
0.461397 29.950 -11.9591
0.464740 29.961 -12.2081
0.468108 29.971 -12.4618
0.471500 29.982 -12.7204
0.474917 29.993 -12.9839
0.478358 30.005 -13.2522
0.481825 30.016 -13.5252
0.485316 30.027 -13.8031
0.488833 30.038 -14.0858
0.492375 30.050 -14.3732
0.495943 30.061 -14.6654
0.499537 30.073 -14.9622
0.503157 30.085 -15.2637
0.506803 30.097 -15.5698
0.510475 30.108 -15.8805
0.514175 30.120 -16.1957
0.517900 30.132 -16.5153
0.521653 30.145 -16.8393
0.525434 30.157 -17.1676
0.529241 30.169 -17.5001
0.533076 30.182 -17.8368
0.536939 30.194 -18.1776
0.540830 30.207 -18.5222
0.544749 30.219 -18.8708
0.548696 30.232 -19.2231
0.552673 30.245 -19.5790
0.556677 30.258 -19.9383
0.560711 30.271 -20.3011
0.564774 30.284 -20.6670
0.568867 30.297 -21.0360
0.572989 30.311 -21.4079
0.577141 30.324 -21.7825
0.581324 30.338 -22.1597
0.585536 30.351 -22.5392
0.589779 30.365 -22.9209
0.594053 30.379 -23.3046
0.598358 30.393 -23.6901
0.602694 30.407 -24.0771
0.607061 30.421 -24.4654
0.611460 30.435 -24.8548
0.615891 30.449 -25.2451
0.620354 30.464 -25.6359
0.624849 30.478 -26.0271
0.629377 30.493 -26.4184
0.633938 30.508 -26.8094
0.638532 30.523 -27.2000
0.643159 30.538 -27.5898
0.647819 30.553 -27.9784
0.652514 30.568 -28.3657
0.657242 30.583 -28.7513
0.662005 30.599 -29.1349
0.666802 30.614 -29.5161
0.671634 30.630 -29.8947
0.676501 30.645 -30.2704
0.681403 30.661 -30.6428
0.686341 30.677 -31.0119
0.691314 30.693 -31.3777
0.696324 30.709 -31.7403
0.701370 30.726 -32.1007
0.706452 30.742 -32.4608
0.711571 30.758 -32.8237
0.716728 30.773 -33.1949
0.721921 30.788 -33.5825
0.727153 30.802 -33.9973
0.732422 30.815 -34.4509
0.737729 30.826 -34.9516
0.743075 30.835 -35.5005
0.748460 30.842 -36.0934
0.753883 30.847 -36.7250
0.759346 30.851 -37.3901
0.764849 30.853 -38.0849
0.770391 30.853 -38.8066
0.775974 30.852 -39.5536
0.781597 30.849 -40.3247
0.787261 30.845 -41.1190
0.792966 30.840 -41.9360
0.798712 30.833 -42.7753
0.804500 30.825 -43.6365
0.810329 30.817 -44.5191
0.816201 30.807 -45.4229
0.822116 30.796 -46.3476
0.828073 30.784 -47.2926
0.834074 30.772 -48.2578
0.840118 30.758 -49.2428
0.846206 30.745 -50.2472
0.852338 30.730 -51.2708
0.858514 30.716 -52.3132
0.864735 30.701 -53.3742
0.871001 30.686 -54.4536
0.877313 30.671 -55.5511
0.883670 30.656 -56.6666
0.890074 30.641 -57.8000
0.896524 30.627 -58.9512
0.903020 30.613 -60.1202
0.909564 30.600 -61.3071
0.916155 30.588 -62.5121
0.922794 30.577 -63.7354
0.929481 30.567 -64.9773
0.936216 30.558 -66.2382
0.943000 30.551 -67.5186
0.949834 30.546 -68.8191
0.956717 30.543 -70.1404
0.963649 30.541 -71.4835
0.970632 30.543 -72.8491
0.977666 30.547 -74.2385
0.984750 30.553 -75.6529
0.991886 30.563 -77.0936
0.999074 30.576 -78.5621
1.006314 30.593 -80.0601
1.013606 30.614 -81.5894
1.020951 30.639 -83.1520
1.028349 30.668 -84.7499
1.035801 30.702 -86.3855
1.043307 30.742 -88.0611
1.050867 30.786 -89.7794
1.058482 30.837 -91.5429
1.066152 30.894 -93.3544
1.073878 30.957 -95.2164
1.081660 31.026 -97.1311
1.089498 31.103 -99.1002
1.097393 31.187 -101.1239
1.105345 31.278 -103.2006
1.113355 31.376 -105.3269
1.121423 31.481 -107.4973
1.129549 31.594 -109.7048
1.137734 31.714 -111.9415
1.145979 31.841 -114.1992
1.154283 31.975 -116.4693
1.162647 32.115 -118.7439
1.171072 32.262 -121.0148
1.179558 32.416 -123.2749
1.188106 32.576 -125.5177
1.196715 32.743 -127.7372
1.205387 32.915 -129.9284
1.214122 33.094 -132.0873
1.222920 33.278 -134.2103
1.231782 33.467 -136.2951
1.240708 33.662 -138.3399
1.249699 33.862 -140.3437
1.258754 34.066 -142.3061
1.267876 34.276 -144.2273
1.277063 34.489 -146.1081
1.286318 34.707 -147.9494
1.295639 34.928 -149.7529
1.305027 35.152 -151.5203
1.314484 35.380 -153.2535
1.324009 35.611 -154.9548
1.333604 35.844 -156.6264
1.343268 36.079 -158.2708
1.353002 36.315 -159.8902
1.362806 36.553 -161.4872
1.372681 36.792 -163.0641
1.382628 37.031 -164.6232
1.392647 37.271 -166.1668
1.402739 37.510 -167.6968
1.412904 37.749 -169.2149
1.423142 37.986 -170.7223
1.433455 38.223 -172.2192
1.443843 38.459 -173.7050
1.454305 38.694 -175.1774
1.464844 38.929 -176.6327
1.475459 39.165 -178.0659
1.486150 39.403 -179.4722
1.496920 39.643 179.1523
1.507767 39.885 177.8100
1.518693 40.131 176.5018
1.529698 40.379 175.2273
1.540783 40.631 173.9854
1.551948 40.885 172.7744
1.563194 41.142 171.5922
1.574521 41.401 170.4366
1.585931 41.662 169.3051
1.597423 41.926 168.1955
1.608999 42.192 167.1051
1.620658 42.459 166.0316
1.632402 42.727 164.9725
1.644232 42.997 163.9256
1.656146 43.268 162.8885
1.668147 43.540 161.8592
1.680235 43.812 160.8353
1.692411 44.084 159.8150
1.704675 44.356 158.7961
1.717028 44.627 157.7769
1.729470 44.898 156.7556
1.742003 45.168 155.7306
1.754626 45.436 154.7004
1.767341 45.703 153.6639
1.780147 45.967 152.6205
1.793047 46.230 151.5701
1.806040 46.490 150.5134
1.819128 46.748 149.4523
1.832310 47.003 148.3900
1.845587 47.257 147.3302
1.858961 47.508 146.2769
1.872432 47.758 145.2332
1.886001 48.005 144.2011
1.899667 48.252 143.1818
1.913433 48.496 142.1755
1.927299 48.740 141.1819
1.941265 48.982 140.2004
1.955332 49.222 139.2302
1.969501 49.462 138.2700
1.983773 49.700 137.3187
1.998148 49.937 136.3749
2.012627 50.174 135.4374
2.027212 50.409 134.5047
2.041902 50.643 133.5754
2.056698 50.877 132.6482
2.071602 51.110 131.7215
2.086614 51.342 130.7940
2.101734 51.574 129.8644
2.116964 51.806 128.9315
2.132304 52.037 127.9942
2.147756 52.268 127.0519
2.163320 52.498 126.1044
2.178996 52.728 125.1523
2.194786 52.957 124.1967
2.210690 53.186 123.2396
2.226710 53.413 122.2833
2.242845 53.639 121.3298
2.259098 53.864 120.3807
2.275468 54.088 119.4368
2.291957 54.310 118.4985
2.308566 54.531 117.5658
2.325295 54.751 116.6385
2.342145 54.970 115.7160
2.359117 55.187 114.7978
2.376212 55.404 113.8829
2.393431 55.619 112.9706
2.410775 55.834 112.0600
2.428244 56.048 111.1500
2.445840 56.261 110.2396
2.463564 56.473 109.3278
2.481416 56.685 108.4137
2.499397 56.897 107.4964
2.517509 57.108 106.5753
2.535752 57.319 105.6503
2.554127 57.529 104.7213
2.572635 57.738 103.7892
2.591277 57.946 102.8552
2.610055 58.154 101.9204
2.628968 58.360 100.9860
2.648019 58.565 100.0529
2.667208 58.769 99.1215
2.686535 58.971 98.1922
2.706003 59.173 97.2651
2.725612 59.373 96.3401
2.745363 59.573 95.4170
2.765257 59.771 94.4954
2.785295 59.969 93.5749
2.805478 60.166 92.6548
2.825808 60.363 91.7345
2.846285 60.558 90.8135
2.866910 60.753 89.8910
2.887685 60.948 88.9665
2.908611 61.142 88.0397
2.929688 61.335 87.1104
2.950917 61.527 86.1788
2.972301 61.718 85.2454
2.993839 61.908 84.3109
3.015534 62.097 83.3758
3.037386 62.285 82.4409
3.059396 62.472 81.5064
3.081565 62.658 80.5729
3.103896 62.843 79.6404
3.126388 63.027 78.7090
3.149043 63.210 77.7787
3.171862 63.392 76.8492
3.194847 63.574 75.9202
3.217998 63.754 74.9914
3.241317 63.935 74.0622
3.264805 64.114 73.1322
3.288463 64.293 72.2010
3.312293 64.471 71.2682
3.336295 64.647 70.3337
3.360471 64.823 69.3979
3.384822 64.998 68.4610
3.409350 65.172 67.5236
3.434056 65.345 66.5860
3.458940 65.516 65.6489
3.484005 65.687 64.7124
3.509252 65.857 63.7769
3.534681 66.026 62.8424
3.560295 66.194 61.9089
3.586094 66.362 60.9763
3.612081 66.529 60.0441
3.638255 66.695 59.1120
3.664620 66.860 58.1795
3.691175 67.025 57.2461
3.717923 67.188 56.3116
3.744864 67.351 55.3761
3.772001 67.512 54.4399
3.799335 67.673 53.5034
3.826866 67.833 52.5671
3.854597 67.991 51.6313
3.882529 68.149 50.6964
3.910664 68.306 49.7625
3.939002 68.462 48.8298
3.967546 68.618 47.8980
3.996296 68.773 46.9670
4.025255 68.927 46.0361
4.054423 69.080 45.1050
4.083804 69.232 44.1732
4.113396 69.384 43.2407
4.143204 69.534 42.3076
4.173227 69.684 41.3742
4.203468 69.833 40.4410
4.233928 69.980 39.5083
4.264609 70.127 38.5765
4.295512 70.274 37.6458
4.326639 70.419 36.7161
4.357992 70.564 35.7872
4.389572 70.708 34.8588
4.421380 70.851 33.9303
4.453419 70.993 33.0013
4.485691 71.135 32.0717
4.518196 71.275 31.1417
4.550936 71.415 30.2115
4.583914 71.553 29.2815
4.617131 71.691 28.3520
4.650589 71.828 27.4235
4.684289 71.965 26.4958
4.718233 72.100 25.5690
4.752424 72.235 24.6426
4.786862 72.369 23.7164
4.821549 72.502 22.7897
4.856488 72.634 21.8625
4.891680 72.766 20.9349
4.927127 72.896 20.0072
4.962831 73.025 19.0798
4.998794 73.154 18.1530
5.035017 73.282 17.2271
5.071503 73.409 16.3020
5.108253 73.535 15.3777
5.145270 73.660 14.4537
5.182555 73.785 13.5295
5.220110 73.908 12.6050
5.257937 74.031 11.6802
5.296038 74.152 10.7555
5.334415 74.273 9.8312
5.373071 74.393 8.9077
5.412006 74.512 7.9853
5.451224 74.630 7.0640
5.490725 74.747 6.1436
5.530514 74.863 5.2238
5.570590 74.978 4.3040
5.610957 75.093 3.3844
5.651616 75.206 2.4651
5.692570 75.318 1.5464
5.733821 75.430 0.6289
5.775370 75.540 -0.2871
5.817221 75.650 -1.2015
5.859375 75.758 -2.1146
5.901834 75.866 -3.0265
5.944602 75.973 -3.9376
5.987679 76.078 -4.8479
6.031068 76.183 -5.7572
6.074771 76.287 -6.6652
6.118792 76.389 -7.5712
6.163131 76.491 -8.4753
6.207792 76.592 -9.3772
6.252776 76.692 -10.2772
6.298086 76.792 -11.1756
6.343725 76.890 -12.0724
6.389694 76.987 -12.9677
6.435996 77.083 -13.8610
6.482634 77.179 -14.7521
6.529610 77.273 -15.6406
6.576926 77.367 -16.5266
6.624585 77.460 -17.4102
6.672590 77.552 -18.2915
6.720942 77.643 -19.1708
6.769645 77.733 -20.0477
6.818700 77.822 -20.9224
6.868111 77.911 -21.7944
6.917881 77.999 -22.6636
6.968010 78.086 -23.5300
7.018504 78.172 -24.3938
7.069362 78.257 -25.2552
7.120590 78.342 -26.1143
7.172189 78.426 -26.9707
7.224161 78.509 -27.8245
7.276511 78.592 -28.6756
7.329239 78.674 -29.5239
7.382350 78.755 -30.3697
7.435845 78.835 -31.2130
7.489729 78.915 -32.0538
7.544002 78.994 -32.8923
7.598669 79.072 -33.7281
7.653732 79.150 -34.5614
7.709194 79.227 -35.3922
7.765058 79.303 -36.2206
7.821327 79.379 -37.0466
7.878004 79.454 -37.8705
7.935091 79.529 -38.6919
7.992592 79.602 -39.5110
8.050510 79.676 -40.3276
8.108847 79.748 -41.1420
8.167607 79.820 -41.9542
8.226793 79.891 -42.7642
8.286408 79.962 -43.5718
8.346454 80.031 -44.3772
8.406936 80.101 -45.1802
8.467856 80.169 -45.9808
8.529218 80.237 -46.7792
8.591024 80.304 -47.5752
8.653278 80.371 -48.3688
8.715983 80.437 -49.1599
8.779143 80.502 -49.9484
8.842760 80.567 -50.7343
8.906839 80.631 -51.5176
8.971381 80.694 -52.2983
9.036392 80.756 -53.0762
9.101873 80.818 -53.8511
9.167829 80.880 -54.6230
9.234263 80.940 -55.3920
9.301178 81.000 -56.1578
9.368578 81.060 -56.9207
9.436467 81.118 -57.6801
9.504847 81.176 -58.4362
9.573723 81.234 -59.1890
9.643099 81.291 -59.9382
9.712976 81.347 -60.6842
9.783361 81.403 -61.4266
9.854255 81.459 -62.1656
9.925663 81.514 -62.9011
9.997588 81.568 -63.6331
10.070035 81.622 -64.3617
10.143007 81.676 -65.0870
10.216507 81.729 -65.8091
10.290540 81.782 -66.5279
10.365109 81.835 -67.2437
10.440219 81.887 -67.9564
10.515873 81.938 -68.6663
10.592076 81.990 -69.3735
10.668830 82.041 -70.0780
10.746141 82.091 -70.7800
10.824012 82.142 -71.4796
10.902447 82.191 -72.1769
10.981451 82.241 -72.8720
11.061027 82.290 -73.5649
11.141180 82.338 -74.2556
11.221913 82.387 -74.9441
11.303232 82.434 -75.6304
11.385140 82.481 -76.3145
11.467641 82.528 -76.9961
11.550741 82.574 -77.6753
11.634442 82.620 -78.3518
11.718750 82.664 -79.0255
11.803669 82.709 -79.6963
11.889203 82.753 -80.3639
11.975357 82.796 -81.0282
12.062136 82.839 -81.6890
12.149543 82.881 -82.3461
12.237583 82.923 -82.9996
12.326262 82.965 -83.6493
12.415583 83.006 -84.2953
12.505552 83.047 -84.9377
12.596172 83.088 -85.5765
12.687449 83.128 -86.2120
12.779387 83.169 -86.8445
12.871992 83.209 -87.4741
12.965268 83.249 -88.1014
13.059220 83.289 -88.7268
13.153852 83.329 -89.3506
13.249170 83.368 -89.9733
13.345179 83.408 -90.5951
13.441884 83.447 -91.2166
13.539289 83.486 -91.8378
13.637401 83.524 -92.4592
13.736223 83.562 -93.0807
13.835761 83.600 -93.7024
13.936021 83.637 -94.3242
14.037007 83.673 -94.9458
14.138725 83.708 -95.5670
14.241180 83.743 -96.1873
14.344377 83.776 -96.8062
14.448323 83.809 -97.4233
14.553021 83.841 -98.0381
14.658478 83.872 -98.6499
14.764700 83.902 -99.2583
14.871691 83.932 -99.8629
14.979457 83.960 -100.4633
15.088005 83.988 -101.0593
15.197339 84.016 -101.6509
15.307465 84.043 -102.2379
15.418389 84.069 -102.8206
15.530117 84.095 -103.3990
15.642655 84.121 -103.9736
15.756008 84.146 -104.5445
15.870182 84.171 -105.1121
15.985184 84.196 -105.6766
16.101019 84.220 -106.2382
16.217694 84.244 -106.7969
16.335214 84.268 -107.3528
16.453586 84.291 -107.9056
16.572815 84.313 -108.4552
16.692909 84.335 -109.0010
16.813872 84.357 -109.5427
16.935713 84.378 -110.0799
17.058436 84.398 -110.6119
17.182048 84.418 -111.1387
17.306556 84.438 -111.6599
17.431967 84.458 -112.1754
17.558286 84.478 -112.6855
17.685521 84.498 -113.1907
17.813677 84.519 -113.6916
17.942762 84.540 -114.1890
18.072783 84.561 -114.6841
18.203746 84.583 -115.1777
18.335658 84.605 -115.6713
18.468526 84.628 -116.1656
18.602356 84.650 -116.6616
18.737156 84.673 -117.1599
18.872934 84.695 -117.6608
19.009695 84.717 -118.1640
19.147447 84.739 -118.6691
19.286197 84.759 -119.1754
19.425953 84.779 -119.6815
19.566721 84.798 -120.1863
19.708510 84.816 -120.6882
19.851326 84.833 -121.1859
19.995177 84.849 -121.6781
20.140070 84.864 -122.1641
20.286013 84.880 -122.6434
20.433014 84.895 -123.1162
20.581080 84.911 -123.5830
20.730219 84.927 -124.0449
20.880439 84.943 -124.5037
21.031747 84.960 -124.9609
21.184152 84.978 -125.4186
21.337661 84.996 -125.8785
21.492282 85.014 -126.3419
21.648024 85.032 -126.8096
21.804895 85.050 -127.2815
21.962902 85.066 -127.7570
22.122054 85.082 -128.2344
22.282360 85.095 -128.7117
22.443827 85.108 -129.1862
22.606464 85.119 -129.6553
22.770280 85.128 -130.1166
22.935283 85.137 -130.5683
23.101481 85.145 -131.0093
23.268884 85.154 -131.4398
23.437500 85.163 -131.8610
23.607338 85.173 -132.2750
23.778406 85.184 -132.6847
23.950714 85.197 -133.0936
24.124271 85.210 -133.5048
24.299086 85.225 -133.9210
24.475167 85.239 -134.3440
24.652524 85.254 -134.7742
24.831166 85.267 -135.2111
25.011103 85.279 -135.6528
25.192344 85.290 -136.0964
25.374898 85.299 -136.5389
25.558775 85.307 -136.9774
25.743984 85.313 -137.4090
25.930536 85.319 -137.8321
26.118439 85.324 -138.2460
26.307704 85.329 -138.6511
26.498341 85.335 -139.0486
26.690359 85.341 -139.4403
26.883768 85.347 -139.8282
27.078579 85.355 -140.2144
27.274801 85.362 -140.6003
27.472446 85.370 -140.9869
27.671522 85.378 -141.3746
27.872042 85.386 -141.7635
28.074014 85.394 -142.1531
28.277450 85.401 -142.5432
28.482360 85.408 -142.9330
28.688755 85.414 -143.3223
28.896645 85.419 -143.7104
29.106042 85.424 -144.0970
29.316957 85.429 -144.4816
29.529400 85.433 -144.8633
29.743382 85.436 -145.2415
29.958915 85.438 -145.6154
30.176009 85.440 -145.9844
30.394677 85.442 -146.3484
30.614929 85.444 -146.7074
30.836778 85.445 -147.0620
31.060234 85.447 -147.4130
31.285309 85.449 -147.7617
31.512015 85.452 -148.1094
31.740364 85.454 -148.4572
31.970368 85.456 -148.8060
32.202039 85.459 -149.1563
32.435388 85.460 -149.5081
32.670428 85.462 -149.8607
32.907171 85.462 -150.2128
33.145630 85.462 -150.5630
33.385817 85.461 -150.9095
33.627745 85.460 -151.2510
33.871425 85.459 -151.5870
34.116871 85.458 -151.9177
34.364096 85.458 -152.2445
34.613113 85.458 -152.5698
34.863934 85.460 -152.8962
35.116572 85.462 -153.2260
35.371041 85.465 -153.5607
35.627354 85.468 -153.9008
35.885525 85.470 -154.2453
36.145566 85.472 -154.5927
36.407492 85.473 -154.9410
36.671316 85.473 -155.2891
36.937051 85.473 -155.6361
37.204712 85.473 -155.9821
37.474313 85.472 -156.3271
37.745867 85.470 -156.6705
38.019389 85.468 -157.0112
38.294893 85.464 -157.3470
38.572394 85.460 -157.6760
38.851905 85.455 -157.9966
39.133442 85.451 -158.3085
39.417019 85.446 -158.6133
39.702651 85.443 -158.9132
39.990353 85.440 -159.2111
40.280140 85.437 -159.5087
40.572026 85.434 -159.8069
40.866028 85.431 -160.1051
41.162160 85.427 -160.4022
41.460438 85.424 -160.6974
41.760877 85.420 -160.9912
42.063494 85.417 -161.2849
42.368303 85.413 -161.5800
42.675322 85.410 -161.8777
42.984565 85.405 -162.1776
43.296048 85.401 -162.4779
43.609789 85.395 -162.7762
43.925804 85.389 -163.0704
44.244108 85.383 -163.3593
44.564719 85.377 -163.6442
44.887654 85.372 -163.9275
45.212928 85.368 -164.2125
45.540560 85.364 -164.5015
45.870565 85.360 -164.7955
46.202962 85.355 -165.0929
46.537768 85.349 -165.3903
46.875000 85.341 -165.6832
47.214676 85.333 -165.9679
47.556813 85.324 -166.2422
47.901429 85.315 -166.5066
48.248542 85.307 -166.7638
48.598171 85.300 -167.0178
48.950334 85.293 -167.2727
49.305048 85.287 -167.5309
49.662333 85.280 -167.7935
50.022206 85.273 -168.0594
50.384688 85.265 -168.3269
50.749796 85.255 -168.5940
51.117550 85.245 -168.8592
51.487969 85.235 -169.1218
51.861072 85.224 -169.3823
52.236879 85.213 -169.6414
52.615409 85.203 -169.9004
52.996681 85.192 -170.1599
53.380717 85.182 -170.4199
53.767536 85.172 -170.6798
54.157158 85.162 -170.9390
54.549603 85.153 -171.1973
54.944892 85.145 -171.4553
55.343045 85.137 -171.7142
55.744084 85.130 -171.9761
56.148028 85.124 -172.2430
56.554900 85.117 -172.5161
56.964720 85.109 -172.7950
57.377510 85.099 -173.0760
57.793291 85.086 -173.3525
58.212085 85.071 -173.6162
58.633914 85.053 -173.8610
59.058799 85.035 -174.0850
59.486764 85.017 -174.2916
59.917829 85.000 -174.4877
60.352019 84.984 -174.6806
60.789354 84.969 -174.8765
61.229859 84.954 -175.0798
61.673556 84.939 -175.2933
62.120468 84.923 -175.5176
62.570618 84.906 -175.7509
63.024031 84.887 -175.9888
63.480729 84.867 -176.2261
63.940736 84.846 -176.4590
64.404077 84.826 -176.6857
64.870776 84.807 -176.9069
65.340856 84.789 -177.1246
65.814343 84.773 -177.3404
66.291261 84.758 -177.5553
66.771635 84.745 -177.7687
67.255489 84.732 -177.9789
67.742850 84.720 -178.1847
68.233743 84.708 -178.3866
68.728193 84.697 -178.5869
69.226226 84.686 -178.7885
69.727867 84.673 -178.9929
70.233144 84.659 -179.2003
70.742083 84.643 -179.4105
71.254709 84.624 -179.6228
71.771050 84.604 -179.8365
72.291132 84.580 179.9491
72.814984 84.556 179.7338
73.342631 84.530 179.5157
73.874102 84.504 179.2917
74.409424 84.478 179.0598
74.948626 84.451 178.8198
75.491734 84.424 178.5750
76.038779 84.396 178.3326
76.589787 84.368 178.1038
77.144788 84.340 177.8994
77.703811 84.315 177.7234
78.266885 84.295 177.5697
78.834039 84.279 177.4264
79.405303 84.266 177.2831
79.980706 84.254 177.1360
80.560280 84.242 176.9852
81.144053 84.228 176.8333
81.732056 84.212 176.6828
82.324320 84.194 176.5364
82.920876 84.174 176.3950
83.521755 84.152 176.2558
84.126988 84.129 176.1118
84.736607 84.107 175.9545
85.350643 84.083 175.7776
85.969129 84.058 175.5812
86.592097 84.030 175.3725
87.219579 83.999 175.1629
87.851608 83.965 174.9634
88.488217 83.931 174.7815
89.129439 83.896 174.6196
89.775308 83.862 174.4758
90.425856 83.828 174.3463
91.081119 83.793 174.2277
91.741131 83.758 174.1191
92.405925 83.722 174.0206
93.075536 83.684 173.9323
93.750000 83.646 173.8533
94.429351 83.607 173.7819
95.113625 83.567 173.7172
95.802858 83.526 173.6620
96.497085 83.485 173.6226
97.196342 83.445 173.6047
97.900667 83.406 173.6113
98.610096 83.370 173.6445
99.324665 83.335 173.7086
100.044413 83.303 173.8090
100.769376 83.274 173.9470
101.499592 83.251 174.1171
102.235100 83.235 174.3071
102.975938 83.225 174.5005
103.722144 83.221 174.6805
104.473757 83.221 174.8352
105.230817 83.226 174.9587
105.993363 83.233 175.0497
106.761435 83.242 175.1083
107.535072 83.254 175.1332
108.314315 83.269 175.1201
109.099206 83.285 175.0626
109.889783 83.301 174.9589
110.686090 83.316 174.8141
111.488167 83.328 174.6373
112.296056 83.337 174.4384
113.109800 83.343 174.2266
113.929440 83.346 174.0109
114.755020 83.347 173.7996
115.586582 83.347 173.5988
116.424170 83.345 173.4101
117.267827 83.343 173.2277
118.117598 83.340 173.0409
118.973527 83.334 172.8425
119.835658 83.323 172.6343
120.704037 83.306 172.4257
121.578708 83.283 172.2286
122.459718 83.256 172.0490
123.347111 83.227 171.8850
124.240935 83.198 171.7308
125.141236 83.169 171.5818
126.048061 83.141 171.4370
126.961458 83.114 171.2980
127.881473 83.087 171.1671
128.808154 83.061 171.0455
129.741551 83.036 170.9336
130.681712 83.012 170.8295
131.628686 82.989 170.7312
132.582521 82.967 170.6364
133.543269 82.946 170.5431
134.510979 82.925 170.4500
135.485701 82.903 170.3572
136.467486 82.881 170.2671
137.456386 82.856 170.1836
138.452451 82.830 170.1096
139.455735 82.804 170.0444
140.466288 82.776 169.9853
141.484165 82.749 169.9288
142.509418 82.721 169.8721
143.542100 82.695 169.8132
144.582265 82.668 169.7511
145.629968 82.642 169.6858
146.685262 82.616 169.6182
147.748204 82.590 169.5496
148.818849 82.564 169.4822
149.897251 82.538 169.4186
150.983469 82.514 169.3603
152.077557 82.491 169.3057
153.179574 82.469 169.2512
154.289576 82.446 169.1948
155.407622 82.423 169.1376
156.533770 82.398 169.0845
157.668078 82.371 169.0405
158.810606 82.343 169.0068
159.961413 82.315 168.9805
161.120559 82.287 168.9574
162.288105 82.260 168.9345
163.464112 82.232 168.9099
164.648640 82.204 168.8838
165.841752 82.175 168.8590
167.043510 82.145 168.8391
168.253976 82.117 168.8236
169.473213 82.090 168.8085
170.701286 82.065 168.7901
171.938258 82.042 168.7700
173.184194 82.018 168.7516
174.439158 81.994 168.7362
175.703216 81.968 168.7240
176.976434 81.942 168.7158
178.258878 81.914 168.7128
179.550615 81.886 168.7160
180.851713 81.858 168.7252
182.162239 81.831 168.7386
183.482262 81.805 168.7533
184.811850 81.778 168.7655
186.151073 81.749 168.7744
187.500000 81.720 168.7836
188.858702 81.690 168.7983
190.227250 81.659 168.8218
191.605715 81.629 168.8535
192.994169 81.601 168.8901
194.392685 81.574 168.9271
195.801334 81.548 168.9599
197.220191 81.523 168.9869
198.649330 81.498 169.0110
200.088825 81.474 169.0363
201.538751 81.449 169.0655
202.999184 81.423 169.1011
204.470200 81.396 169.1451
205.951875 81.369 169.1989
207.444287 81.340 169.2612
208.947514 81.312 169.3291
210.461634 81.283 169.4002
211.986726 81.255 169.4752
213.522869 81.228 169.5566
215.070144 81.203 169.6462
216.628631 81.180 169.7426
218.198411 81.159 169.8423
219.779567 81.139 169.9427
221.372180 81.121 170.0414
222.976334 81.104 170.1356
224.592112 81.088 170.2228
226.219600 81.072 170.3011
227.858880 81.058 170.3700
229.510039 81.044 170.4298
231.173164 81.029 170.4826
232.848340 81.014 170.5311
234.535655 80.997 170.5776
236.235197 80.980 170.6218
237.947054 80.962 170.6619
239.671317 80.943 170.6957
241.408074 80.924 170.7222
243.157416 80.905 170.7426
244.919435 80.885 170.7603
246.694223 80.864 170.7788
248.481871 80.842 170.8021
250.282473 80.819 170.8340
252.096123 80.797 170.8771
253.922915 80.774 170.9329
255.762945 80.751 171.0009
257.616309 80.728 171.0776
259.483103 80.704 171.1581
261.363424 80.681 171.2386
263.257372 80.658 171.3171
265.165043 80.635 171.3934
267.086538 80.611 171.4690
269.021957 80.587 171.5458
270.971401 80.563 171.6251
272.934972 80.540 171.7069
274.912771 80.517 171.7903
276.904902 80.494 171.8754
278.911469 80.471 171.9638
280.932577 80.449 172.0559
282.968330 80.426 172.1500
285.018835 80.403 172.2438
287.084199 80.381 172.3375
289.164530 80.359 172.4346
291.259935 80.337 172.5392
293.370525 80.315 172.6541
295.496408 80.293 172.7784
297.637697 80.270 172.9091
299.794503 80.246 173.0420
301.966937 80.224 173.1742
304.155114 80.201 173.3023
306.359147 80.179 173.4229
308.579152 80.158 173.5348
310.815244 80.137 173.6417
313.067539 80.116 173.7504
315.336156 80.095 173.8668
317.621211 80.075 173.9927
319.922826 80.055 174.1261
322.241118 80.036 174.2638
324.576210 80.016 174.4029
326.928223 79.996 174.5411
329.297280 79.976 174.6777
331.683504 79.956 174.8144
334.087019 79.938 174.9528
336.507952 79.920 175.0935
338.946427 79.902 175.2358
341.402572 79.885 175.3790
343.876516 79.868 175.5229
346.368387 79.851 175.6672
348.878315 79.833 175.8124
351.406431 79.816 175.9597
353.952867 79.799 176.1101
356.517756 79.781 176.2634
359.101230 79.763 176.4183
361.703426 79.745 176.5738
364.324478 79.727 176.7295
366.964523 79.710 176.8862
369.623699 79.693 177.0450
372.302145 79.677 177.2069
375.000000 79.661 177.3714
377.717405 79.646 177.5371
380.454501 79.631 177.7030
383.211431 79.616 177.8688
385.988339 79.601 178.0353
388.785369 79.587 178.2032
391.602668 79.572 178.3736
394.440383 79.556 178.5463
397.298660 79.541 178.7206
400.177650 79.525 178.8957
403.077502 79.510 179.0713
405.998368 79.495 179.2479
408.940400 79.480 179.4268
411.903750 79.466 179.6091
414.888575 79.453 179.7953
417.895028 79.439 179.9841
420.923268 79.426 -179.8258
423.973452 79.413 -179.6356
427.045738 79.400 -179.4456
430.140287 79.387 -179.2556
433.257261 79.373 -179.0647
436.396822 79.360 -178.8726
439.559133 79.346 -178.6793
442.744360 79.334 -178.4847
445.952668 79.321 -178.2883
449.184225 79.309 -178.0891
452.439199 79.297 -177.8865
455.717760 79.286 -177.6806
459.020079 79.274 -177.4727
462.346327 79.263 -177.2637
465.696680 79.251 -177.0541
469.071310 79.239 -176.8436
472.470394 79.228 -176.6318
475.894109 79.217 -176.4182
479.342634 79.207 -176.2026
482.816148 79.197 -175.9851
486.314833 79.187 -175.7659
489.838871 79.177 -175.5452
493.388445 79.168 -175.3231
496.963741 79.158 -175.0994
500.564945 79.149 -174.8741
504.192245 79.140 -174.6473
507.845830 79.132 -174.4188
511.525890 79.123 -174.1888
515.232618 79.115 -173.9575
518.966206 79.108 -173.7249
522.726849 79.100 -173.4908
526.514743 79.092 -173.2549
530.330086 79.085 -173.0167
534.173076 79.077 -172.7760
538.043915 79.069 -172.5327
541.942803 79.062 -172.2870
545.869944 79.055 -172.0389
549.825542 79.049 -171.7891
553.809805 79.042 -171.5380
557.822939 79.036 -171.2855
561.865154 79.031 -171.0317
565.936660 79.025 -170.7759
570.037671 79.020 -170.5178
574.168399 79.016 -170.2571
578.329060 79.012 -169.9943
582.519870 79.008 -169.7299
586.741049 79.004 -169.4643
590.992817 79.000 -169.1978
595.275394 78.996 -168.9302
599.589005 78.992 -168.6612
603.933874 78.989 -168.3900
608.310228 78.985 -168.1160
612.718295 78.983 -167.8391
617.158304 78.980 -167.5593
621.630488 78.978 -167.2764
626.135079 78.976 -166.9896
630.672311 78.974 -166.6989
635.242423 78.973 -166.4048
639.845651 78.972 -166.1083
644.482237 78.971 -165.8099
649.152421 78.970 -165.5095
653.856447 78.969 -165.2063
658.594560 78.968 -164.8998
663.367008 78.968 -164.5892
668.174039 78.968 -164.2742
673.015903 78.969 -163.9548
677.892854 78.970 -163.6317
682.805145 78.973 -163.3054
687.753032 78.975 -162.9763
692.736774 78.979 -162.6447
697.756631 78.983 -162.3102
702.812863 78.987 -161.9724
707.905735 78.993 -161.6304
713.035511 78.999 -161.2844
718.202461 79.006 -160.9348
723.406852 79.013 -160.5819
728.648956 79.021 -160.2263
733.929047 79.029 -159.8679
739.247399 79.038 -159.5059
744.604290 79.048 -159.1396
750.000000 79.058 -158.7686
755.434809 79.070 -158.3930
760.909001 79.083 -158.0135
766.422861 79.096 -157.6306
771.976677 79.111 -157.2443
777.570739 79.127 -156.8547
783.205337 79.143 -156.4615
788.880766 79.160 -156.0648
794.597321 79.179 -155.6659
800.355301 79.198 -155.2664
806.155005 79.219 -154.8673
811.996736 79.242 -154.4684
817.880799 79.265 -154.0688
823.807501 79.289 -153.6676
829.777150 79.315 -153.2640
835.790057 79.341 -152.8578
841.846536 79.369 -152.4493
847.946903 79.398 -152.0389
854.091476 79.429 -151.6279
860.280575 79.461 -151.2170
866.514523 79.494 -150.8068
872.793644 79.529 -150.3975
879.118267 79.565 -149.9899
885.488720 79.603 -149.5845
891.905336 79.643 -149.1819
898.368450 79.684 -148.7819
904.878398 79.726 -148.3843
911.435520 79.769 -147.9893
918.040157 79.814 -147.5970
924.692655 79.861 -147.2079
931.393359 79.909 -146.8227
938.142619 79.959 -146.4418
944.940787 80.010 -146.0652
951.788218 80.062 -145.6935
958.685268 80.116 -145.3274
965.632296 80.172 -144.9678
972.629666 80.228 -144.6154
979.677741 80.286 -144.2706
986.776890 80.345 -143.9333
993.927482 80.405 -143.6035
1001.129891 80.467 -143.2812
1008.384491 80.530 -142.9681
1015.691660 80.595 -142.6661
1023.051781 80.661 -142.3762
1030.465236 80.728 -142.0988
1037.932411 80.797 -141.8330
1045.453698 80.865 -141.5781
1053.029486 80.935 -141.3328
1060.660172 81.005 -141.0957
1068.346153 81.074 -140.8661
1076.087829 81.144 -140.6439
1083.885605 81.213 -140.4301
1091.739887 81.282 -140.2257
1099.651084 81.351 -140.0319
1107.619609 81.419 -139.8483
1115.645878 81.488 -139.6743
1123.730308 81.556 -139.5098
1131.873321 81.624 -139.3543
1140.075341 81.693 -139.2076
1148.336797 81.760 -139.0692
1156.658119 81.828 -138.9388
1165.039741 81.895 -138.8163
1173.482099 81.961 -138.7017
1181.985634 82.027 -138.5944
1190.550789 82.092 -138.4941
1199.178011 82.157 -138.4000
1207.867749 82.221 -138.3112
1216.620457 82.285 -138.2267
1225.436590 82.348 -138.1462
1234.316609 82.410 -138.0693
1243.260976 82.472 -137.9962
1252.270157 82.534 -137.9270
1261.344623 82.595 -137.8618
1270.484846 82.655 -137.8003
1279.691303 82.715 -137.7419
1288.964474 82.775 -137.6860
1298.304842 82.834 -137.6316
1307.712894 82.893 -137.5782
1317.189120 82.951 -137.5255
1326.734016 83.009 -137.4736
1336.348077 83.066 -137.4227
1346.031806 83.122 -137.3727
1355.785708 83.178 -137.3229
1365.610290 83.234 -137.2727
1375.506065 83.290 -137.2220
1385.473549 83.346 -137.1707
1395.513261 83.401 -137.1190
1405.625726 83.457 -137.0672
1415.811469 83.513 -137.0153
1426.071023 83.568 -136.9628
1436.404921 83.624 -136.9095
1446.813703 83.680 -136.8552
1457.297912 83.736 -136.7999
1467.858093 83.792 -136.7440
1478.494798 83.848 -136.6875
1489.208581 83.904 -136.6305
1500.000000 83.961 -136.5728
1510.869618 84.018 -136.5143
1521.818002 84.075 -136.4551
1532.845723 84.132 -136.3956
1543.953355 84.191 -136.3358
1555.141477 84.249 -136.2762
1566.410674 84.308 -136.2167
1577.761531 84.368 -136.1574
1589.194642 84.428 -136.0982
1600.710601 84.489 -136.0389
1612.310010 84.550 -135.9799
1623.993473 84.612 -135.9212
1635.761599 84.674 -135.8635
1647.615002 84.738 -135.8068
1659.554299 84.802 -135.7513
1671.580114 84.867 -135.6971
1683.693072 84.933 -135.6444
1695.893807 84.999 -135.5934
1708.182952 85.067 -135.5448
1720.561150 85.135 -135.4987
1733.029045 85.204 -135.4555
1745.587288 85.275 -135.4154
1758.236533 85.346 -135.3785
1770.977440 85.419 -135.3450
1783.810673 85.492 -135.3152
1796.736900 85.567 -135.2892
1809.756796 85.643 -135.2675
1822.871040 85.720 -135.2506
1836.080315 85.798 -135.2391
1849.385310 85.877 -135.2338
1862.786718 85.958 -135.2352
1876.285239 86.040 -135.2439
1889.881575 86.124 -135.2604
1903.576436 86.208 -135.2853
1917.370535 86.295 -135.3196
1931.264593 86.382 -135.3641
1945.259332 86.471 -135.4197
1959.355483 86.562 -135.4875
1973.553781 86.653 -135.5684
1987.854965 86.745 -135.6631
2002.259781 86.839 -135.7723
2016.768981 86.933 -135.8970
2031.383320 87.028 -136.0377
2046.103561 87.123 -136.1952
2060.930471 87.219 -136.3699
2075.864823 87.315 -136.5619
2090.907395 87.411 -136.7711
2106.058972 87.508 -136.9975
2121.320344 87.604 -137.2407
2136.692305 87.700 -137.5009
2152.175658 87.795 -137.7777
2167.771210 87.890 -138.0712
2183.479774 87.985 -138.3812
2199.302169 88.079 -138.7078
2215.239219 88.173 -139.0508
2231.291755 88.265 -139.4103
2247.460615 88.358 -139.7859
2263.746641 88.449 -140.1776
2280.150683 88.539 -140.5851
2296.673595 88.629 -141.0085
2313.316238 88.718 -141.4483
2330.079481 88.805 -141.9048
2346.964198 88.892 -142.3784
2363.971268 88.977 -142.8691
2381.101578 89.062 -143.3768
2398.356022 89.144 -143.9015
2415.735498 89.226 -144.4435
2433.240913 89.306 -145.0030
2450.873180 89.384 -145.5803
2468.633217 89.460 -146.1757
2486.521951 89.534 -146.7889
2504.540314 89.607 -147.4200
2522.689246 89.677 -148.0687
2540.969692 89.744 -148.7349
2559.382606 89.809 -149.4182
2577.928947 89.871 -150.1185
2596.609683 89.930 -150.8358
2615.425787 89.986 -151.5696
2634.378241 90.038 -152.3195
2653.468031 90.087 -153.0847
2672.696154 90.132 -153.8641
2692.063613 90.173 -154.6564
2711.571415 90.210 -155.4600
2731.220579 90.242 -156.2734
2751.012130 90.269 -157.0950
2770.947098 90.293 -157.9227
2791.026522 90.311 -158.7550
2811.251451 90.325 -159.5901
2831.622938 90.334 -160.4261
2852.142045 90.338 -161.2616
2872.809842 90.337 -162.0947
2893.627406 90.332 -162.9241
2914.595823 90.322 -163.7479
2935.716186 90.307 -164.5645
2956.989596 90.288 -165.3724
2978.417161 90.264 -166.1697
3000.000000 90.236 -166.9550
3021.739237 90.203 -167.7267
3043.636005 90.167 -168.4834
3065.691446 90.126 -169.2239
3087.906710 90.082 -169.9469
3110.282955 90.034 -170.6511
3132.821347 89.982 -171.3356
3155.523062 89.928 -171.9996
3178.389283 89.870 -172.6423
3201.421202 89.809 -173.2631
3224.620020 89.746 -173.8611
3247.986946 89.680 -174.4357
3271.523198 89.612 -174.9861
3295.230004 89.542 -175.5118
3319.108599 89.470 -176.0125
3343.160228 89.397 -176.4878
3367.386145 89.322 -176.9377
3391.787613 89.246 -177.3622
3416.365904 89.169 -177.7609
3441.122300 89.091 -178.1337
3466.058091 89.012 -178.4805
3491.174576 88.933 -178.8010
3516.473066 88.854 -179.0953
3541.954880 88.774 -179.3634
3567.621345 88.696 -179.6050
3593.473800 88.617 -179.8206
3619.513592 88.540 179.9897
3645.742080 88.465 179.8245
3672.160630 88.391 179.6823
3698.770620 88.319 179.5608
3725.573436 88.249 179.4570
3752.570477 88.182 179.3678
3779.763150 88.117 179.2902
3807.152872 88.054 179.2216
3834.741071 87.993 179.1599
3862.529185 87.934 179.1040
3890.518664 87.876 179.0535
3918.710966 87.820 179.0089
3947.107561 87.765 178.9706
3975.709929 87.711 178.9388
4004.519563 87.658 178.9133
4033.537962 87.607 178.8934
4062.766641 87.557 178.8781
4092.207123 87.508 178.8663
4121.860942 87.460 178.8569
4151.729646 87.414 178.8493
4181.814790 87.368 178.8428
4212.117944 87.323 178.8372
4242.640687 87.279 178.8323
4273.384610 87.236 178.8284
4304.351317 87.193 178.8256
4335.542421 87.150 178.8239
4366.959549 87.108 178.8237
4398.604338 87.066 178.8248
4430.478438 87.024 178.8276
4462.583511 86.983 178.8318
4494.921231 86.942 178.8375
4527.493283 86.901 178.8447
4560.301365 86.861 178.8535
4593.347189 86.821 178.8638
4626.632476 86.781 178.8758
4660.158962 86.741 178.8898
4693.928395 86.701 178.9060
4727.942535 86.661 178.9245
4762.203156 86.621 178.9456
4796.712043 86.581 178.9696
4831.470996 86.541 178.9970
4866.481826 86.502 179.0281
4901.746360 86.462 179.0632
4937.266434 86.423 179.1022
4973.043902 86.383 179.1449
5009.080628 86.344 179.1915
5045.378492 86.305 179.2422
5081.939384 86.266 179.2974
5118.765212 86.228 179.3573
5155.857894 86.189 179.4224
5193.219366 86.150 179.4932
5230.851574 86.112 179.5702
5268.756481 86.073 179.6539
5306.936062 86.035 179.7450
5345.392309 85.996 179.8443
5384.127225 85.957 179.9530
5423.142830 85.919 -179.9276
5462.441159 85.880 -179.7960
5502.024259 85.842 -179.6505
5541.894195 85.804 -179.4895
5582.053045 85.767 -179.3115
5622.502902 85.731 -179.1153
5663.245876 85.696 -178.8999
5704.284090 85.662 -178.6646
5745.619684 85.631 -178.4093
5787.254813 85.602 -178.1343
5829.191647 85.576 -177.8403
5871.432373 85.553 -177.5289
5913.979192 85.535 -177.2015
5956.834323 85.520 -176.8602
6000.000000 85.509 -176.5067
6043.478473 85.503 -176.1427
6087.272010 85.501 -175.7698
6131.382892 85.504 -175.3898
6175.813420 85.513 -175.0044
6220.565910 85.527 -174.6151
6265.642695 85.547 -174.2238
6311.046124 85.573 -173.8329
6356.778566 85.605 -173.4453
6402.842404 85.645 -173.0642
6449.240040 85.693 -172.6938
6495.973891 85.748 -172.3390
6543.046396 85.811 -172.0051
6590.460007 85.883 -171.6978
6638.217197 85.963 -171.4222
6686.320456 86.051 -171.1834
6734.772290 86.148 -170.9862
6783.575226 86.253 -170.8354
6832.731809 86.367 -170.7365
6882.244600 86.489 -170.6958
6932.116181 86.620 -170.7203
6982.349153 86.760 -170.8182
7032.946133 86.909 -170.9994
7083.909760 87.068 -171.2760
7135.242690 87.236 -171.6626
7186.947600 87.412 -172.1755
7239.027185 87.595 -172.8328
7291.484160 87.783 -173.6530
7344.321260 87.974 -174.6542
7397.541239 88.164 -175.8530
7451.146872 88.349 -177.2627
7505.140954 88.524 -178.8923
7559.526299 88.684 179.2544
7614.305743 88.822 177.1805
7669.482141 88.932 174.8970
7725.058371 89.009 172.4230
7781.037328 89.047 169.7866
7837.421932 89.040 167.0234
7894.215122 88.986 164.1761
7951.419859 88.882 161.2920
8009.039125 88.727 158.4208
8067.075924 88.521 155.6117
8125.533282 88.267 152.9114
8184.414245 87.968 150.3616
8243.721885 87.629 147.9974
8303.459292 87.254 145.8462
8363.629581 86.850 143.9274
8424.235888 86.422 142.2522
8485.281374 85.976 140.8249
8546.769221 85.516 139.6432
8608.702634 85.049 138.7000
8671.084842 84.576 137.9839
8733.919097 84.103 137.4819
8797.208675 83.630 137.1805
8860.956876 83.160 137.0677
8925.167022 82.694 137.1331
8989.842461 82.233 137.3690
9054.986566 81.776 137.7703
9120.602731 81.325 138.3342
9186.694378 80.881 139.0596
9253.264952 80.444 139.9459
9320.317925 80.015 140.9919
9387.856790 79.597 142.1944
9455.885071 79.191 143.5474
9524.406312 78.799 145.0419
9593.424086 78.423 146.6664
9662.941992 78.065 148.4078
9732.963653 77.726 150.2522
9803.492719 77.406 152.1858
9874.532869 77.106 154.1958
9946.087805 76.826 156.2711
10018.161257 76.565 158.4019
10090.756983 76.323 160.5801
10163.878768 76.101 162.7992
10237.530423 75.898 165.0530
10311.715789 75.714 167.3359
10386.438732 75.550 169.6414
10461.703149 75.407 171.9625
10537.512962 75.284 174.2903
10613.872125 75.183 176.6143
10690.784618 75.104 178.9197
10768.254450 75.050 -178.8139
10846.285661 75.022 -176.6166
10924.882318 75.020 -174.5308
11004.048518 75.045 -172.6143
11083.788390 75.095 -170.9408
11164.106090 75.162 -169.5934
11245.005805 75.233 -168.6451
11326.491752 75.284 -168.1204
11408.568180 75.282 -167.9282
11491.239368 75.188 -167.7637
11574.509626 74.971 -166.9985
11658.383294 74.642 -164.6821
11742.864745 74.279 -159.9845
11827.958384 74.022 -153.1783
11913.668646 73.979 -145.8678
12000.000000 74.164 -139.6230
12086.956947 74.512 -134.9366
12174.544019 74.952 -131.5413
12262.765784 75.435 -129.0071
12351.626840 75.937 -127.0056
12441.131819 76.453 -125.3458
12531.285389 76.986 -123.9418
12622.092249 77.538 -122.7739
12713.557132 78.113 -121.8624
12805.684808 78.713 -121.2505
12898.480079 79.336 -120.9929
12991.947783 79.977 -121.1497
13086.092792 80.631 -121.7798
13180.920015 81.284 -122.9357
13276.434395 81.925 -124.6564
13372.640911 82.536 -126.9624
13469.544580 83.101 -129.8491
13567.150452 83.600 -133.2825
13665.463617 84.019 -137.1951
13764.489200 84.343 -141.4876
13864.232362 84.563 -146.0351
13964.698305 84.673 -150.6959
14065.892266 84.677 -155.3257
14167.819519 84.583 -159.7907
14270.485380 84.403 -163.9811
14373.895200 84.155 -167.8193
14478.054370 83.857 -171.2642
14582.968320 83.530 -174.3112
14688.642520 83.190 -176.9890
14795.082478 82.854 -179.3543
14902.293745 82.532 178.5161
15010.281908 82.231 176.5337
15119.052599 81.953 174.6071
15228.611486 81.695 172.6508
15338.964283 81.451 170.5934
15450.116741 81.211 168.3830
15562.074656 80.961 165.9922
15674.843864 80.689 163.4204
15788.430244 80.381 160.6944
15902.839718 80.024 157.8657
16018.078250 79.610 155.0054
16134.151848 79.132 152.1970
16251.066563 78.587 149.5294
16368.828491 77.979 147.0887
16487.443769 77.312 144.9524
16606.918584 76.595 143.1838
16727.259161 75.837 141.8296
16848.471777 75.050 140.9174
16970.562748 74.245 140.4567
17093.538442 73.436 140.4398
17217.405268 72.634 140.8445
17342.169684 71.849 141.6368
17467.838194 71.091 142.7740
17594.417350 70.368 144.2070
17721.913751 69.687 145.8821
17850.334044 69.051 147.7436
17979.684923 68.465 149.7357
18109.973131 67.930 151.8032
18241.205462 67.448 153.8899
18373.388756 67.018 155.9370
18506.529905 66.639 157.8823
18640.635849 66.309 159.6613
18775.713581 66.022 161.2093
18911.770141 65.770 162.4655
19048.812624 65.542 163.3780
19186.848172 65.328 163.9113
19325.883983 65.116 164.0557
19465.927305 64.897 163.8384
19606.985439 64.674 163.3353
19749.065738 64.462 162.6786
19892.175609 64.291 162.0535
20036.322514 64.193 161.6661
