* Measurement data measured by REW V5.31.3
* Source: Headset (2- CX31993 HIFI AUDIO), MICROPHONE (Master Volume), R, volume: 0.300
* Format: 256k Log Swept Sine, 1 sweep at -11.9 dBFS with no timing reference
* Dated: 09 29, 25 2:40:45 PM
* REW Settings:
*  C-weighting compensation: Off
*  Target level: 75.0 dB
* Note: ; 
* Measurement: Moondrop Lan 500 L
* Smoothing: 1/12 octave
* Frequency Step: 96 ppo
* Start Frequency: 0.36621094 Hz
*
* Freq(Hz) SPL(dB) Phase(degrees)
0.366211 46.618 -32.5365
0.368865 46.620 -32.5953
0.371538 46.623 -32.6831
0.374230 46.626 -32.7929
0.376942 46.629 -32.9186
0.379673 46.633 -33.0558
0.382424 46.637 -33.2016
0.385196 46.641 -33.3543
0.387987 46.646 -33.5126
0.390798 46.650 -33.6762
0.393630 46.654 -33.8448
0.396483 46.658 -34.0181
0.399356 46.663 -34.1961
0.402250 46.667 -34.3789
0.405165 46.671 -34.5664
0.408101 46.676 -34.7586
0.411058 46.680 -34.9557
0.414037 46.685 -35.1576
0.417037 46.689 -35.3643
0.420059 46.694 -35.5759
0.423103 46.698 -35.7925
0.426169 46.703 -36.0139
0.429257 46.708 -36.2404
0.432368 46.712 -36.4718
0.435501 46.717 -36.7083
0.438656 46.722 -36.9498
0.441835 46.727 -37.1964
0.445037 46.732 -37.4481
0.448262 46.736 -37.7049
0.451510 46.741 -37.9669
0.454782 46.746 -38.2340
0.458077 46.751 -38.5062
0.461397 46.756 -38.7837
0.464740 46.761 -39.0663
0.468108 46.766 -39.3542
0.471500 46.771 -39.6474
0.474917 46.777 -39.9457
0.478358 46.782 -40.2494
0.481825 46.787 -40.5583
0.485316 46.792 -40.8725
0.488833 46.798 -41.1920
0.492375 46.803 -41.5167
0.495943 46.808 -41.8468
0.499537 46.814 -42.1823
0.503157 46.819 -42.5230
0.506803 46.825 -42.8691
0.510475 46.830 -43.2205
0.514175 46.836 -43.5773
0.517900 46.841 -43.9394
0.521653 46.847 -44.3069
0.525434 46.853 -44.6798
0.529241 46.859 -45.0580
0.533076 46.864 -45.4416
0.536939 46.870 -45.8307
0.540830 46.876 -46.2251
0.544749 46.882 -46.6249
0.548696 46.888 -47.0302
0.552673 46.894 -47.4409
0.556677 46.900 -47.8571
0.560711 46.906 -48.2787
0.564774 46.912 -48.7059
0.568867 46.918 -49.1385
0.572989 46.925 -49.5767
0.577141 46.931 -50.0205
0.581324 46.937 -50.4698
0.585536 46.943 -50.9248
0.589779 46.950 -51.3855
0.594053 46.956 -51.8518
0.598358 46.963 -52.3240
0.602694 46.969 -52.8019
0.607061 46.976 -53.2857
0.611460 46.983 -53.7755
0.615891 46.989 -54.2712
0.620354 46.996 -54.7731
0.624849 47.003 -55.2811
0.629377 47.010 -55.7953
0.633938 47.017 -56.3159
0.638532 47.023 -56.8430
0.643159 47.030 -57.3767
0.647819 47.037 -57.9171
0.652514 47.045 -58.4643
0.657242 47.052 -59.0185
0.662005 47.059 -59.5800
0.666802 47.066 -60.1487
0.671634 47.073 -60.7250
0.676501 47.081 -61.3090
0.681403 47.088 -61.9010
0.686341 47.096 -62.5012
0.691314 47.103 -63.1099
0.696324 47.111 -63.7273
0.701370 47.119 -64.3538
0.706452 47.127 -64.9898
0.711571 47.135 -65.6357
0.716728 47.145 -66.2920
0.721921 47.155 -66.9593
0.727153 47.167 -67.6384
0.732422 47.181 -68.3301
0.737729 47.196 -69.0350
0.743075 47.214 -69.7540
0.748460 47.234 -70.4875
0.753883 47.254 -71.2356
0.759346 47.276 -71.9983
0.764849 47.298 -72.7756
0.770391 47.321 -73.5670
0.775974 47.344 -74.3724
0.781597 47.368 -75.1914
0.787261 47.392 -76.0235
0.792966 47.417 -76.8685
0.798712 47.442 -77.7258
0.804500 47.468 -78.5951
0.810329 47.494 -79.4759
0.816201 47.520 -80.3678
0.822116 47.548 -81.2704
0.828073 47.575 -82.1833
0.834074 47.604 -83.1060
0.840118 47.633 -84.0381
0.846206 47.663 -84.9794
0.852338 47.693 -85.9293
0.858514 47.724 -86.8875
0.864735 47.756 -87.8537
0.871001 47.789 -88.8275
0.877313 47.822 -89.8088
0.883670 47.857 -90.7971
0.890074 47.892 -91.7924
0.896524 47.928 -92.7943
0.903020 47.966 -93.8027
0.909564 48.004 -94.8175
0.916155 48.043 -95.8387
0.922794 48.083 -96.8660
0.929481 48.125 -97.8997
0.936216 48.168 -98.9396
0.943000 48.211 -99.9858
0.949834 48.257 -101.0385
0.956717 48.303 -102.0979
0.963649 48.351 -103.1641
0.970632 48.400 -104.2374
0.977666 48.451 -105.3182
0.984750 48.504 -106.4068
0.991886 48.557 -107.5035
0.999074 48.613 -108.6089
1.006314 48.670 -109.7234
1.013606 48.729 -110.8476
1.020951 48.790 -111.9821
1.028349 48.853 -113.1275
1.035801 48.918 -114.2846
1.043307 48.985 -115.4539
1.050867 49.054 -116.6364
1.058482 49.125 -117.8327
1.066152 49.199 -119.0436
1.073878 49.274 -120.2697
1.081660 49.353 -121.5114
1.089498 49.434 -122.7690
1.097393 49.517 -124.0421
1.105345 49.604 -125.3299
1.113355 49.694 -126.6310
1.121423 49.786 -127.9436
1.129549 49.882 -129.2660
1.137734 49.981 -130.5963
1.145979 50.083 -131.9327
1.154283 50.188 -133.2735
1.162647 50.296 -134.6171
1.171072 50.407 -135.9620
1.179558 50.522 -137.3070
1.188106 50.639 -138.6507
1.196715 50.759 -139.9920
1.205387 50.882 -141.3300
1.214122 51.008 -142.6638
1.222920 51.136 -143.9926
1.231782 51.268 -145.3158
1.240708 51.402 -146.6329
1.249699 51.538 -147.9435
1.258754 51.677 -149.2473
1.267876 51.818 -150.5441
1.277063 51.962 -151.8338
1.286318 52.107 -153.1166
1.295639 52.255 -154.3925
1.305027 52.405 -155.6617
1.314484 52.556 -156.9245
1.324009 52.710 -158.1813
1.333604 52.865 -159.4326
1.343268 53.021 -160.6787
1.353002 53.179 -161.9204
1.362806 53.338 -163.1582
1.372681 53.499 -164.3927
1.382628 53.660 -165.6246
1.392647 53.822 -166.8546
1.402739 53.985 -168.0833
1.412904 54.148 -169.3112
1.423142 54.312 -170.5387
1.433455 54.476 -171.7659
1.443843 54.641 -172.9924
1.454305 54.806 -174.2170
1.464844 54.973 -175.4380
1.475459 55.141 -176.6530
1.486150 55.310 -177.8592
1.496920 55.481 -179.0544
1.507767 55.654 179.7630
1.518693 55.830 178.5941
1.529698 56.007 177.4393
1.540783 56.187 176.2987
1.551948 56.369 175.1720
1.563194 56.553 174.0587
1.574521 56.739 172.9580
1.585931 56.926 171.8691
1.597423 57.116 170.7910
1.608999 57.307 169.7227
1.620658 57.500 168.6630
1.632402 57.694 167.6108
1.644232 57.889 166.5648
1.656146 58.086 165.5238
1.668147 58.283 164.4865
1.680235 58.482 163.4516
1.692411 58.681 162.4178
1.704675 58.881 161.3837
1.717028 59.081 160.3481
1.729470 59.282 159.3097
1.742003 59.483 158.2672
1.754626 59.684 157.2195
1.767341 59.884 156.1656
1.780147 60.084 155.1047
1.793047 60.284 154.0365
1.806040 60.484 152.9613
1.819128 60.683 151.8800
1.832310 60.882 150.7946
1.845587 61.080 149.7076
1.858961 61.279 148.6219
1.872432 61.477 147.5398
1.886001 61.676 146.4633
1.899667 61.875 145.3936
1.913433 62.074 144.3315
1.927299 62.273 143.2772
1.941265 62.472 142.2308
1.955332 62.672 141.1920
1.969501 62.872 140.1603
1.983773 63.072 139.1352
1.998148 63.272 138.1159
2.012627 63.472 137.1017
2.027212 63.673 136.0916
2.041902 63.873 135.0845
2.056698 64.073 134.0796
2.071602 64.274 133.0757
2.086614 64.474 132.0716
2.101734 64.674 131.0663
2.116964 64.875 130.0587
2.132304 65.075 129.0477
2.147756 65.274 128.0327
2.163320 65.474 127.0132
2.178996 65.673 125.9894
2.194786 65.873 124.9619
2.210690 66.071 123.9321
2.226710 66.270 122.9017
2.242845 66.467 121.8724
2.259098 66.665 120.8455
2.275468 66.862 119.8220
2.291957 67.059 118.8025
2.308566 67.255 117.7872
2.325295 67.451 116.7763
2.342145 67.646 115.7694
2.359117 67.841 114.7663
2.376212 68.035 113.7663
2.393431 68.230 112.7689
2.410775 68.423 111.7733
2.428244 68.617 110.7786
2.445840 68.810 109.7839
2.463564 69.003 108.7883
2.481416 69.196 107.7908
2.499397 69.388 106.7906
2.517509 69.580 105.7868
2.535752 69.771 104.7789
2.554127 69.963 103.7669
2.572635 70.153 102.7511
2.591277 70.343 101.7323
2.610055 70.533 100.7115
2.628968 70.722 99.6898
2.648019 70.910 98.6682
2.667208 71.097 97.6473
2.686535 71.284 96.6277
2.706003 71.470 95.6098
2.725612 71.656 94.5936
2.745363 71.840 93.5791
2.765257 72.024 92.5660
2.785295 72.208 91.5541
2.805478 72.391 90.5427
2.825808 72.573 89.5314
2.846285 72.755 88.5194
2.866910 72.937 87.5059
2.887685 73.118 86.4902
2.908611 73.298 85.4717
2.929688 73.478 84.4498
2.950917 73.657 83.4245
2.972301 73.835 82.3960
2.993839 74.013 81.3649
3.015534 74.189 80.3319
3.037386 74.365 79.2979
3.059396 74.540 78.2635
3.081565 74.714 77.2294
3.103896 74.887 76.1961
3.126388 75.059 75.1638
3.149043 75.230 74.1328
3.171862 75.401 73.1029
3.194847 75.571 72.0740
3.217998 75.741 71.0455
3.241317 75.909 70.0169
3.264805 76.077 68.9874
3.288463 76.245 67.9561
3.312293 76.411 66.9225
3.336295 76.576 65.8860
3.360471 76.741 64.8466
3.384822 76.904 63.8048
3.409350 77.067 62.7612
3.434056 77.228 61.7168
3.458940 77.389 60.6722
3.484005 77.548 59.6284
3.509252 77.707 58.5858
3.534681 77.865 57.5447
3.560295 78.021 56.5056
3.586094 78.177 55.4680
3.612081 78.333 54.4318
3.638255 78.487 53.3960
3.664620 78.641 52.3599
3.691175 78.793 51.3224
3.717923 78.944 50.2830
3.744864 79.095 49.2417
3.772001 79.244 48.1987
3.799335 79.392 47.1549
3.826866 79.539 46.1111
3.854597 79.685 45.0682
3.882529 79.831 44.0270
3.910664 79.975 42.9881
3.939002 80.118 41.9519
3.967546 80.261 40.9183
3.996296 80.402 39.8868
4.025255 80.543 38.8568
4.054423 80.682 37.8272
4.083804 80.821 36.7972
4.113396 80.958 35.7665
4.143204 81.094 34.7352
4.173227 81.230 33.7039
4.203468 81.364 32.6735
4.233928 81.497 31.6447
4.264609 81.629 30.6185
4.295512 81.761 29.5953
4.326639 81.891 28.5756
4.357992 82.021 27.5590
4.389572 82.150 26.5452
4.421380 82.277 25.5331
4.453419 82.404 24.5221
4.485691 82.530 23.5117
4.518196 82.654 22.5020
4.550936 82.778 21.4934
4.583914 82.901 20.4866
4.617131 83.023 19.4823
4.650589 83.144 18.4812
4.684289 83.264 17.4838
4.718233 83.383 16.4899
4.752424 83.502 15.4994
4.786862 83.620 14.5115
4.821549 83.736 13.5258
4.856488 83.852 12.5416
4.891680 83.967 11.5591
4.927127 84.082 10.5784
4.962831 84.195 9.6000
4.998794 84.308 8.6245
5.035017 84.419 7.6524
5.071503 84.531 6.6837
5.108253 84.641 5.7184
5.145270 84.751 4.7562
5.182555 84.860 3.7963
5.220110 84.968 2.8385
5.257937 85.075 1.8826
5.296038 85.182 0.9288
5.334415 85.288 -0.0226
5.373071 85.393 -0.9714
5.412006 85.498 -1.9172
5.451224 85.602 -2.8601
5.490725 85.705 -3.8002
5.530514 85.808 -4.7378
5.570590 85.910 -5.6735
5.610957 86.011 -6.6073
5.651616 86.112 -7.5393
5.692570 86.212 -8.4692
5.733821 86.311 -9.3970
5.775370 86.410 -10.3224
5.817221 86.508 -11.2454
5.859375 86.605 -12.1660
5.901834 86.702 -13.0848
5.944602 86.798 -14.0020
5.987679 86.893 -14.9176
6.031068 86.987 -15.8316
6.074771 87.081 -16.7438
6.118792 87.174 -17.6541
6.163131 87.267 -18.5621
6.207792 87.359 -19.4681
6.252776 87.450 -20.3722
6.298086 87.540 -21.2747
6.343725 87.630 -22.1757
6.389694 87.718 -23.0752
6.435996 87.807 -23.9729
6.482634 87.894 -24.8685
6.529610 87.980 -25.7618
6.576926 88.066 -26.6530
6.624585 88.151 -27.5419
6.672590 88.235 -28.4290
6.720942 88.319 -29.3143
6.769645 88.401 -30.1975
6.818700 88.483 -31.0785
6.868111 88.564 -31.9569
6.917881 88.644 -32.8326
6.968010 88.723 -33.7056
7.018504 88.802 -34.5759
7.069362 88.880 -35.4438
7.120590 88.957 -36.3092
7.172189 89.033 -37.1719
7.224161 89.108 -38.0315
7.276511 89.183 -38.8880
7.329239 89.257 -39.7412
7.382350 89.330 -40.5914
7.435845 89.402 -41.4385
7.489729 89.474 -42.2825
7.544002 89.545 -43.1234
7.598669 89.615 -43.9611
7.653732 89.685 -44.7953
7.709194 89.754 -45.6262
7.765058 89.823 -46.4539
7.821327 89.890 -47.2783
7.878004 89.957 -48.0996
7.935091 90.024 -48.9178
7.992592 90.090 -49.7328
8.050510 90.155 -50.5446
8.108847 90.220 -51.3533
8.167607 90.284 -52.1591
8.226793 90.348 -52.9620
8.286408 90.411 -53.7621
8.346454 90.474 -54.5593
8.406936 90.536 -55.3539
8.467856 90.597 -56.1459
8.529218 90.658 -56.9352
8.591024 90.719 -57.7221
8.653278 90.778 -58.5066
8.715983 90.838 -59.2887
8.779143 90.897 -60.0684
8.842760 90.955 -60.8458
8.906839 91.012 -61.6209
8.971381 91.069 -62.3939
9.036392 91.126 -63.1646
9.101873 91.182 -63.9329
9.167829 91.237 -64.6990
9.234263 91.292 -65.4629
9.301178 91.346 -66.2245
9.368578 91.400 -66.9838
9.436467 91.452 -67.7408
9.504847 91.505 -68.4953
9.573723 91.556 -69.2473
9.643099 91.608 -69.9969
9.712976 91.658 -70.7440
9.783361 91.708 -71.4885
9.854255 91.757 -72.2305
9.925663 91.806 -72.9697
9.997588 91.854 -73.7063
10.070035 91.901 -74.4402
10.143007 91.948 -75.1715
10.216507 91.995 -75.9000
10.290540 92.041 -76.6258
10.365109 92.086 -77.3489
10.440219 92.131 -78.0692
10.515873 92.175 -78.7869
10.592076 92.219 -79.5018
10.668830 92.262 -80.2140
10.746141 92.304 -80.9235
10.824012 92.347 -81.6304
10.902447 92.388 -82.3345
10.981451 92.429 -83.0359
11.061027 92.470 -83.7345
11.141180 92.510 -84.4305
11.221913 92.550 -85.1237
11.303232 92.589 -85.8141
11.385140 92.627 -86.5016
11.467641 92.666 -87.1864
11.550741 92.703 -87.8683
11.634442 92.741 -88.5474
11.718750 92.777 -89.2236
11.803669 92.814 -89.8969
11.889203 92.850 -90.5674
11.975357 92.885 -91.2351
12.062136 92.921 -91.9001
12.149543 92.955 -92.5624
12.237583 92.990 -93.2222
12.326262 93.024 -93.8795
12.415583 93.058 -94.5345
12.505552 93.092 -95.1875
12.596172 93.125 -95.8384
12.687449 93.158 -96.4874
12.779387 93.190 -97.1348
12.871992 93.223 -97.7805
12.965268 93.254 -98.4247
13.059220 93.286 -99.0675
13.153852 93.317 -99.7089
13.249170 93.347 -100.3488
13.345179 93.377 -100.9871
13.441884 93.406 -101.6237
13.539289 93.435 -102.2584
13.637401 93.463 -102.8909
13.736223 93.490 -103.5209
13.835761 93.517 -104.1481
13.936021 93.543 -104.7721
14.037007 93.568 -105.3925
14.138725 93.593 -106.0090
14.241180 93.617 -106.6212
14.344377 93.641 -107.2288
14.448323 93.664 -107.8317
14.553021 93.687 -108.4296
14.658478 93.710 -109.0227
14.764700 93.732 -109.6110
14.871691 93.755 -110.1946
14.979457 93.777 -110.7740
15.088005 93.799 -111.3497
15.197339 93.822 -111.9220
15.307465 93.844 -112.4916
15.418389 93.867 -113.0591
15.530117 93.889 -113.6253
15.642655 93.912 -114.1907
15.756008 93.935 -114.7558
15.870182 93.958 -115.3212
15.985184 93.980 -115.8871
16.101019 94.002 -116.4538
16.217694 94.024 -117.0212
16.335214 94.045 -117.5893
16.453586 94.065 -118.1576
16.572815 94.085 -118.7257
16.692909 94.103 -119.2930
16.813872 94.121 -119.8587
16.935713 94.138 -120.4221
17.058436 94.154 -120.9825
17.182048 94.170 -121.5392
17.306556 94.184 -122.0914
17.431967 94.198 -122.6387
17.558286 94.211 -123.1807
17.685521 94.224 -123.7172
17.813677 94.236 -124.2482
17.942762 94.248 -124.7740
18.072783 94.260 -125.2949
18.203746 94.272 -125.8114
18.335658 94.284 -126.3240
18.468526 94.297 -126.8335
18.602356 94.309 -127.3405
18.737156 94.321 -127.8456
18.872934 94.333 -128.3494
19.009695 94.345 -128.8522
19.147447 94.357 -129.3546
19.286197 94.369 -129.8566
19.425953 94.380 -130.3583
19.566721 94.391 -130.8595
19.708510 94.401 -131.3602
19.851326 94.411 -131.8599
19.995177 94.421 -132.3585
20.140070 94.430 -132.8555
20.286013 94.438 -133.3506
20.433014 94.446 -133.8436
20.581080 94.454 -134.3340
20.730219 94.461 -134.8218
20.880439 94.468 -135.3066
21.031747 94.474 -135.7886
21.184152 94.480 -136.2675
21.337661 94.486 -136.7436
21.492282 94.491 -137.2169
21.648024 94.497 -137.6876
21.804895 94.502 -138.1559
21.962902 94.507 -138.6221
22.122054 94.512 -139.0865
22.282360 94.517 -139.5493
22.443827 94.522 -140.0106
22.606464 94.526 -140.4708
22.770280 94.531 -140.9298
22.935283 94.535 -141.3875
23.101481 94.538 -141.8438
23.268884 94.542 -142.2982
23.437500 94.544 -142.7505
23.607338 94.547 -143.2004
23.778406 94.549 -143.6475
23.950714 94.551 -144.0914
24.124271 94.553 -144.5321
24.299086 94.555 -144.9697
24.475167 94.556 -145.4042
24.652524 94.558 -145.8363
24.831166 94.559 -146.2662
25.011103 94.561 -146.6946
25.192344 94.562 -147.1218
25.374898 94.563 -147.5481
25.558775 94.564 -147.9735
25.743984 94.565 -148.3979
25.930536 94.565 -148.8209
26.118439 94.565 -149.2419
26.307704 94.564 -149.6604
26.498341 94.563 -150.0759
26.690359 94.561 -150.4880
26.883768 94.559 -150.8965
27.078579 94.557 -151.3016
27.274801 94.555 -151.7035
27.472446 94.553 -152.1026
27.671522 94.550 -152.4995
27.872042 94.548 -152.8945
28.074014 94.545 -153.2880
28.277450 94.542 -153.6802
28.482360 94.539 -154.0712
28.688755 94.535 -154.4608
28.896645 94.532 -154.8489
29.106042 94.527 -155.2354
29.316957 94.523 -155.6202
29.529400 94.518 -156.0033
29.743382 94.513 -156.3848
29.958915 94.508 -156.7648
30.176009 94.502 -157.1433
30.394677 94.496 -157.5204
30.614929 94.490 -157.8960
30.836778 94.484 -158.2698
31.060234 94.477 -158.6418
31.285309 94.470 -159.0120
31.512015 94.463 -159.3802
31.740364 94.456 -159.7465
31.970368 94.448 -160.1111
32.202039 94.441 -160.4742
32.435388 94.433 -160.8360
32.670428 94.425 -161.1967
32.907171 94.418 -161.5563
33.145630 94.410 -161.9148
33.385817 94.401 -162.2723
33.627745 94.393 -162.6285
33.871425 94.384 -162.9834
34.116871 94.375 -163.3366
34.364096 94.366 -163.6877
34.613113 94.356 -164.0363
34.863934 94.346 -164.3820
35.116572 94.336 -164.7244
35.371041 94.325 -165.0634
35.627354 94.315 -165.3990
35.885525 94.304 -165.7316
36.145566 94.293 -166.0616
36.407492 94.282 -166.3894
36.671316 94.271 -166.7155
36.937051 94.260 -167.0400
37.204712 94.248 -167.3629
37.474313 94.236 -167.6840
37.745867 94.224 -168.0031
38.019389 94.211 -168.3201
38.294893 94.198 -168.6350
38.572394 94.185 -168.9482
38.851905 94.172 -169.2601
39.133442 94.159 -169.5710
39.417019 94.145 -169.8815
39.702651 94.132 -170.1919
39.990353 94.118 -170.5021
40.280140 94.104 -170.8115
40.572026 94.089 -171.1196
40.866028 94.074 -171.4257
41.162160 94.059 -171.7291
41.460438 94.044 -172.0301
41.760877 94.029 -172.3290
42.063494 94.014 -172.6268
42.368303 93.999 -172.9241
42.675322 93.985 -173.2208
42.984565 93.969 -173.5156
43.296048 93.954 -173.8072
43.609789 93.938 -174.0940
43.925804 93.923 -174.3757
44.244108 93.907 -174.6528
44.564719 93.892 -174.9269
44.887654 93.877 -175.1984
45.212928 93.862 -175.4669
45.540560 93.846 -175.7306
45.870565 93.831 -175.9877
46.202962 93.816 -176.2390
46.537768 93.802 -176.4883
46.875000 93.790 -176.7429
47.214676 93.778 -177.0100
47.556813 93.766 -177.2937
47.901429 93.751 -177.5916
48.248542 93.732 -177.8951
48.598171 93.710 -178.1929
48.950334 93.684 -178.4749
49.305048 93.658 -178.7368
49.662333 93.631 -178.9810
50.022206 93.606 -179.2141
50.384688 93.583 -179.4439
50.749796 93.560 -179.6753
51.117550 93.538 -179.9097
51.487969 93.515 179.8541
51.861072 93.493 179.6171
52.236879 93.471 179.3799
52.615409 93.449 179.1420
52.996681 93.427 178.9032
53.380717 93.405 178.6642
53.767536 93.382 178.4268
54.157158 93.359 178.1922
54.549603 93.337 177.9613
54.944892 93.314 177.7336
55.343045 93.292 177.5078
55.744084 93.270 177.2828
56.148028 93.249 177.0585
56.554900 93.227 176.8349
56.964720 93.204 176.6125
57.377510 93.182 176.3918
57.793291 93.160 176.1728
58.212085 93.137 175.9557
58.633914 93.114 175.7408
59.058799 93.091 175.5283
59.486764 93.068 175.3184
59.917829 93.044 175.1113
60.352019 93.021 174.9072
60.789354 92.997 174.7059
61.229859 92.973 174.5073
61.673556 92.949 174.3117
62.120468 92.924 174.1191
62.570618 92.899 173.9294
63.024031 92.874 173.7417
63.480729 92.849 173.5551
63.940736 92.823 173.3690
64.404077 92.797 173.1829
64.870776 92.771 172.9962
65.340856 92.745 172.8077
65.814343 92.718 172.6163
66.291261 92.691 172.4211
66.771635 92.663 172.2218
67.255489 92.635 172.0189
67.742850 92.605 171.8145
68.233743 92.575 171.6135
68.728193 92.543 171.4233
69.226226 92.511 171.2511
69.727867 92.481 171.0988
70.233144 92.453 170.9608
70.742083 92.429 170.8269
71.254709 92.407 170.6884
71.771050 92.385 170.5426
72.291132 92.364 170.3922
72.814984 92.342 170.2410
73.342631 92.319 170.0916
73.874102 92.295 169.9451
74.409424 92.270 169.8022
74.948626 92.244 169.6628
75.491734 92.217 169.5262
76.038779 92.190 169.3904
76.589787 92.162 169.2543
77.144788 92.133 169.1174
77.703811 92.103 168.9799
78.266885 92.074 168.8424
78.834039 92.044 168.7054
79.405303 92.014 168.5689
79.980706 91.985 168.4333
80.560280 91.955 168.2986
81.144053 91.926 168.1653
81.732056 91.897 168.0342
82.324320 91.868 167.9064
82.920876 91.839 167.7827
83.521755 91.810 167.6632
84.126988 91.780 167.5480
84.736607 91.751 167.4368
85.350643 91.721 167.3296
85.969129 91.691 167.2260
86.592097 91.661 167.1256
87.219579 91.631 167.0277
87.851608 91.601 166.9318
88.488217 91.571 166.8367
89.129439 91.542 166.7410
89.775308 91.513 166.6434
90.425856 91.484 166.5441
91.081119 91.455 166.4443
91.741131 91.426 166.3464
92.405925 91.397 166.2512
93.075536 91.368 166.1579
93.750000 91.340 166.0654
94.429351 91.311 165.9738
95.113625 91.281 165.8845
95.802858 91.249 165.7986
96.497085 91.216 165.7174
97.196342 91.182 165.6418
97.900667 91.147 165.5711
98.610096 91.112 165.5026
99.324665 91.077 165.4323
100.044413 91.041 165.3577
100.769376 91.006 165.2791
101.499592 90.972 165.1991
102.235100 90.938 165.1217
102.975938 90.904 165.0510
103.722144 90.871 164.9904
104.473757 90.839 164.9409
105.230817 90.807 164.9013
105.993363 90.776 164.8690
106.761435 90.743 164.8408
107.535072 90.710 164.8134
108.314315 90.675 164.7833
109.099206 90.638 164.7502
109.889783 90.601 164.7158
110.686090 90.564 164.6835
111.488167 90.527 164.6582
112.296056 90.490 164.6465
113.109800 90.454 164.6559
113.929440 90.417 164.6936
114.755020 90.378 164.7645
115.586582 90.338 164.8708
116.424170 90.295 165.0101
117.267827 90.250 165.1729
118.117598 90.206 165.3425
118.973527 90.163 165.4935
119.835658 90.123 165.5938
120.704037 90.083 165.6233
121.578708 90.043 165.5947
122.459718 90.000 165.5441
123.347111 89.958 165.5070
124.240935 89.917 165.5061
125.141236 89.879 165.5552
126.048061 89.843 165.6624
126.961458 89.808 165.8304
127.881473 89.775 166.0550
128.808154 89.744 166.3268
129.741551 89.715 166.6384
130.681712 89.692 166.9819
131.628686 89.677 167.3484
132.582521 89.673 167.7285
133.543269 89.681 168.1096
134.510979 89.701 168.4801
135.485701 89.734 168.8228
136.467486 89.778 169.1165
137.456386 89.828 169.3386
138.452451 89.882 169.4666
139.455735 89.935 169.4874
140.466288 89.982 169.4002
141.484165 90.020 169.2217
142.509418 90.048 168.9769
143.542100 90.066 168.6873
144.582265 90.074 168.3741
145.629968 90.073 168.0570
146.685262 90.063 167.7549
147.748204 90.046 167.4801
148.818849 90.025 167.2343
149.897251 90.000 167.0153
150.983469 89.973 166.8166
152.077557 89.944 166.6356
153.179574 89.914 166.4747
154.289576 89.883 166.3351
155.407622 89.852 166.2175
156.533770 89.821 166.1186
157.668078 89.790 166.0344
158.810606 89.759 165.9624
159.961413 89.728 165.8994
161.120559 89.697 165.8433
162.288105 89.665 165.7936
163.464112 89.634 165.7497
164.648640 89.603 165.7132
165.841752 89.573 165.6844
167.043510 89.542 165.6630
168.253976 89.513 165.6487
169.473213 89.483 165.6404
170.701286 89.453 165.6367
171.938258 89.424 165.6370
173.184194 89.395 165.6408
174.439158 89.366 165.6487
175.703216 89.337 165.6628
176.976434 89.310 165.6832
178.258878 89.283 165.7095
179.550615 89.256 165.7411
180.851713 89.230 165.7759
182.162239 89.204 165.8126
183.482262 89.178 165.8503
184.811850 89.152 165.8877
186.151073 89.126 165.9247
187.500000 89.101 165.9623
188.858702 89.076 166.0009
190.227250 89.051 166.0405
191.605715 89.026 166.0818
192.994169 89.001 166.1247
194.392685 88.976 166.1692
195.801334 88.950 166.2162
197.220191 88.925 166.2655
198.649330 88.899 166.3151
200.088825 88.874 166.3651
201.538751 88.849 166.4161
202.999184 88.825 166.4683
204.470200 88.801 166.5228
205.951875 88.778 166.5819
207.444287 88.756 166.6451
208.947514 88.733 166.7114
210.461634 88.711 166.7803
211.986726 88.689 166.8510
213.522869 88.667 166.9217
215.070144 88.644 166.9924
216.628631 88.622 167.0642
218.198411 88.599 167.1372
219.779567 88.576 167.2104
221.372180 88.554 167.2841
222.976334 88.531 167.3585
224.592112 88.509 167.4338
226.219600 88.486 167.5098
227.858880 88.464 167.5867
229.510039 88.442 167.6664
231.173164 88.420 167.7501
232.848340 88.398 167.8376
234.535655 88.377 167.9279
236.235197 88.356 168.0200
237.947054 88.335 168.1143
239.671317 88.313 168.2112
241.408074 88.292 168.3094
243.157416 88.272 168.4067
244.919435 88.251 168.5027
246.694223 88.230 168.6006
248.481871 88.209 168.7041
250.282473 88.187 168.8144
252.096123 88.167 168.9272
253.922915 88.146 169.0367
255.762945 88.124 169.1454
257.616309 88.101 169.2648
259.483103 88.078 169.4063
261.363424 88.057 169.5696
263.257372 88.039 169.7386
265.165043 88.024 169.8899
267.086538 88.009 170.0133
269.021957 87.993 170.1205
270.971401 87.974 170.2346
272.934972 87.955 170.3751
274.912771 87.939 170.5478
276.904902 87.930 170.7385
278.911469 87.927 170.9219
280.932577 87.931 171.0781
282.968330 87.936 171.1985
285.018835 87.941 171.2833
287.084199 87.941 171.3405
289.164530 87.938 171.3836
291.259935 87.931 171.4247
293.370525 87.921 171.4694
295.496408 87.909 171.5189
297.637697 87.896 171.5740
299.794503 87.882 171.6366
301.966937 87.867 171.7084
304.155114 87.852 171.7891
306.359147 87.836 171.8769
308.579152 87.820 171.9711
310.815244 87.803 172.0720
313.067539 87.785 172.1801
315.336156 87.767 172.2926
317.621211 87.749 172.4051
319.922826 87.731 172.5123
322.241118 87.712 172.6118
324.576210 87.694 172.7044
326.928223 87.676 172.7946
329.297280 87.659 172.8877
331.683504 87.644 172.9887
334.087019 87.629 173.0998
336.507952 87.616 173.2202
338.946427 87.604 173.3461
341.402572 87.591 173.4731
343.876516 87.578 173.5977
346.368387 87.565 173.7188
348.878315 87.552 173.8374
351.406431 87.538 173.9559
353.952867 87.525 174.0757
356.517756 87.512 174.1976
359.101230 87.499 174.3213
361.703426 87.485 174.4465
364.324478 87.472 174.5732
366.964523 87.459 174.7011
369.623699 87.446 174.8298
372.302145 87.433 174.9590
375.000000 87.420 175.0884
377.717405 87.408 175.2181
380.454501 87.396 175.3483
383.211431 87.384 175.4792
385.988339 87.372 175.6116
388.785369 87.361 175.7458
391.602668 87.350 175.8818
394.440383 87.338 176.0195
397.298660 87.327 176.1584
400.177650 87.316 176.2983
403.077502 87.305 176.4389
405.998368 87.294 176.5803
408.940400 87.284 176.7227
411.903750 87.273 176.8657
414.888575 87.263 177.0092
417.895028 87.252 177.1529
420.923268 87.242 177.2971
423.973452 87.232 177.4419
427.045738 87.222 177.5877
430.140287 87.213 177.7345
433.257261 87.203 177.8824
436.396822 87.193 178.0314
439.559133 87.184 178.1813
442.744360 87.174 178.3323
445.952668 87.165 178.4840
449.184225 87.156 178.6365
452.439199 87.146 178.7899
455.717760 87.137 178.9445
459.020079 87.128 179.1005
462.346327 87.120 179.2577
465.696680 87.111 179.4159
469.071310 87.102 179.5751
472.470394 87.094 179.7352
475.894109 87.086 179.8962
479.342634 87.078 -179.9418
482.816148 87.070 -179.7791
486.314833 87.062 -179.6153
489.838871 87.054 -179.4505
493.388445 87.046 -179.2844
496.963741 87.039 -179.1169
500.564945 87.031 -178.9479
504.192245 87.024 -178.7773
507.845830 87.017 -178.6053
511.525890 87.010 -178.4319
515.232618 87.003 -178.2572
518.966206 86.996 -178.0811
522.726849 86.989 -177.9040
526.514743 86.983 -177.7259
530.330086 86.976 -177.5468
534.173076 86.970 -177.3666
538.043915 86.964 -177.1848
541.942803 86.957 -177.0013
545.869944 86.951 -176.8162
549.825542 86.946 -176.6294
553.809805 86.940 -176.4412
557.822939 86.935 -176.2513
561.865154 86.929 -176.0599
565.936660 86.924 -175.8668
570.037671 86.919 -175.6720
574.168399 86.914 -175.4754
578.329060 86.910 -175.2768
582.519870 86.905 -175.0763
586.741049 86.901 -174.8742
590.992817 86.897 -174.6707
595.275394 86.893 -174.4659
599.589005 86.890 -174.2595
603.933874 86.886 -174.0514
608.310228 86.883 -173.8410
612.718295 86.880 -173.6283
617.158304 86.878 -173.4133
621.630488 86.875 -173.1961
626.135079 86.873 -172.9766
630.672311 86.871 -172.7546
635.242423 86.869 -172.5302
639.845651 86.867 -172.3033
644.482237 86.866 -172.0740
649.152421 86.865 -171.8423
653.856447 86.865 -171.6083
658.594560 86.864 -171.3723
663.367008 86.864 -171.1344
668.174039 86.865 -170.8944
673.015903 86.866 -170.6523
677.892854 86.867 -170.4077
682.805145 86.869 -170.1607
687.753032 86.871 -169.9111
692.736774 86.873 -169.6589
697.756631 86.876 -169.4041
702.812863 86.880 -169.1464
707.905735 86.884 -168.8860
713.035511 86.888 -168.6228
718.202461 86.893 -168.3570
723.406852 86.898 -168.0887
728.648956 86.904 -167.8179
733.929047 86.910 -167.5447
739.247399 86.918 -167.2690
744.604290 86.925 -166.9910
750.000000 86.934 -166.7108
755.434809 86.943 -166.4285
760.909001 86.953 -166.1443
766.422861 86.964 -165.8582
771.976677 86.976 -165.5704
777.570739 86.988 -165.2809
783.205337 87.001 -164.9899
788.880766 87.015 -164.6974
794.597321 87.030 -164.4034
800.355301 87.046 -164.1082
806.155005 87.062 -163.8116
811.996736 87.080 -163.5143
817.880799 87.098 -163.2162
823.807501 87.117 -162.9180
829.777150 87.137 -162.6194
835.790057 87.158 -162.3206
841.846536 87.180 -162.0215
847.946903 87.203 -161.7223
854.091476 87.227 -161.4229
860.280575 87.252 -161.1235
866.514523 87.278 -160.8243
872.793644 87.305 -160.5254
879.118267 87.333 -160.2271
885.488720 87.362 -159.9295
891.905336 87.392 -159.6328
898.368450 87.424 -159.3372
904.878398 87.456 -159.0428
911.435520 87.490 -158.7500
918.040157 87.525 -158.4594
924.692655 87.561 -158.1716
931.393359 87.599 -157.8874
938.142619 87.637 -157.6072
944.940787 87.677 -157.3315
951.788218 87.719 -157.0608
958.685268 87.761 -156.7952
965.632296 87.805 -156.5353
972.629666 87.850 -156.2816
979.677741 87.896 -156.0347
986.776890 87.943 -155.7950
993.927482 87.991 -155.5630
1001.129891 88.041 -155.3390
1008.384491 88.091 -155.1232
1015.691660 88.141 -154.9160
1023.051781 88.193 -154.7174
1030.465236 88.245 -154.5280
1037.932411 88.298 -154.3478
1045.453698 88.352 -154.1774
1053.029486 88.405 -154.0166
1060.660172 88.460 -153.8657
1068.346153 88.514 -153.7247
1076.087829 88.569 -153.5936
1083.885605 88.623 -153.4726
1091.739887 88.678 -153.3615
1099.651084 88.733 -153.2601
1107.619609 88.788 -153.1683
1115.645878 88.842 -153.0858
1123.730308 88.897 -153.0122
1131.873321 88.951 -152.9473
1140.075341 89.004 -152.8909
1148.336797 89.057 -152.8425
1156.658119 89.109 -152.8019
1165.039741 89.161 -152.7687
1173.482099 89.213 -152.7428
1181.985634 89.263 -152.7237
1190.550789 89.313 -152.7110
1199.178011 89.362 -152.7043
1207.867749 89.411 -152.7030
1216.620457 89.459 -152.7068
1225.436590 89.506 -152.7155
1234.316609 89.552 -152.7285
1243.260976 89.597 -152.7455
1252.270157 89.642 -152.7663
1261.344623 89.686 -152.7903
1270.484846 89.729 -152.8173
1279.691303 89.771 -152.8467
1288.964474 89.812 -152.8782
1298.304842 89.853 -152.9114
1307.712894 89.893 -152.9460
1317.189120 89.932 -152.9818
1326.734016 89.970 -153.0183
1336.348077 90.008 -153.0554
1346.031806 90.045 -153.0927
1355.785708 90.082 -153.1298
1365.610290 90.118 -153.1667
1375.506065 90.153 -153.2032
1385.473549 90.188 -153.2391
1395.513261 90.223 -153.2743
1405.625726 90.257 -153.3085
1415.811469 90.290 -153.3416
1426.071023 90.323 -153.3735
1436.404921 90.356 -153.4044
1446.813703 90.389 -153.4340
1457.297912 90.421 -153.4623
1467.858093 90.453 -153.4894
1478.494798 90.485 -153.5153
1489.208581 90.517 -153.5399
1500.000000 90.549 -153.5631
1510.869618 90.580 -153.5850
1521.818002 90.611 -153.6053
1532.845723 90.643 -153.6240
1543.953355 90.674 -153.6411
1555.141477 90.705 -153.6568
1566.410674 90.736 -153.6711
1577.761531 90.767 -153.6841
1589.194642 90.799 -153.6957
1600.710601 90.830 -153.7060
1612.310010 90.862 -153.7152
1623.993473 90.893 -153.7234
1635.761599 90.925 -153.7305
1647.615002 90.957 -153.7365
1659.554299 90.990 -153.7415
1671.580114 91.022 -153.7457
1683.693072 91.055 -153.7492
1695.893807 91.088 -153.7522
1708.182952 91.121 -153.7548
1720.561150 91.155 -153.7569
1733.029045 91.188 -153.7586
1745.587288 91.223 -153.7601
1758.236533 91.257 -153.7616
1770.977440 91.292 -153.7632
1783.810673 91.328 -153.7650
1796.736900 91.363 -153.7671
1809.756796 91.400 -153.7695
1822.871040 91.436 -153.7725
1836.080315 91.473 -153.7759
1849.385310 91.510 -153.7800
1862.786718 91.548 -153.7849
1876.285239 91.587 -153.7908
1889.881575 91.625 -153.7977
1903.576436 91.664 -153.8061
1917.370535 91.704 -153.8160
1931.264593 91.744 -153.8276
1945.259332 91.785 -153.8411
1959.355483 91.826 -153.8564
1973.553781 91.868 -153.8738
1987.854965 91.910 -153.8935
2002.259781 91.953 -153.9156
2016.768981 91.996 -153.9405
2031.383320 92.040 -153.9681
2046.103561 92.084 -153.9985
2060.930471 92.129 -154.0319
2075.864823 92.174 -154.0686
2090.907395 92.220 -154.1088
2106.058972 92.266 -154.1527
2121.320344 92.313 -154.2005
2136.692305 92.360 -154.2522
2152.175658 92.407 -154.3080
2167.771210 92.456 -154.3682
2183.479774 92.504 -154.4327
2199.302169 92.553 -154.5020
2215.239219 92.602 -154.5757
2231.291755 92.652 -154.6541
2247.460615 92.702 -154.7372
2263.746641 92.752 -154.8251
2280.150683 92.803 -154.9180
2296.673595 92.854 -155.0160
2313.316238 92.905 -155.1193
2330.079481 92.957 -155.2279
2346.964198 93.009 -155.3422
2363.971268 93.062 -155.4623
2381.101578 93.114 -155.5881
2398.356022 93.167 -155.7198
2415.735498 93.220 -155.8574
2433.240913 93.274 -156.0009
2450.873180 93.327 -156.1505
2468.633217 93.381 -156.3062
2486.521951 93.436 -156.4682
2504.540314 93.490 -156.6366
2522.689246 93.545 -156.8115
2540.969692 93.600 -156.9932
2559.382606 93.656 -157.1821
2577.928947 93.712 -157.3788
2596.609683 93.768 -157.5839
2615.425787 93.825 -157.7980
2634.378241 93.882 -158.0219
2653.468031 93.939 -158.2563
2672.696154 93.996 -158.5020
2692.063613 94.054 -158.7593
2711.571415 94.111 -159.0283
2731.220579 94.168 -159.3089
2751.012130 94.225 -159.6009
2770.947098 94.281 -159.9042
2791.026522 94.337 -160.2185
2811.251451 94.392 -160.5439
2831.622938 94.447 -160.8802
2852.142045 94.501 -161.2275
2872.809842 94.555 -161.5858
2893.627406 94.609 -161.9554
2914.595823 94.661 -162.3365
2935.716186 94.713 -162.7292
2956.989596 94.764 -163.1338
2978.417161 94.815 -163.5502
3000.000000 94.864 -163.9787
3021.739237 94.913 -164.4195
3043.636005 94.960 -164.8727
3065.691446 95.007 -165.3383
3087.906710 95.052 -165.8162
3110.282955 95.096 -166.3064
3132.821347 95.139 -166.8090
3155.523062 95.180 -167.3240
3178.389283 95.220 -167.8513
3201.421202 95.259 -168.3909
3224.620020 95.295 -168.9427
3247.986946 95.330 -169.5068
3271.523198 95.363 -170.0829
3295.230004 95.394 -170.6711
3319.108599 95.422 -171.2708
3343.160228 95.448 -171.8811
3367.386145 95.472 -172.5009
3391.787613 95.493 -173.1288
3416.365904 95.511 -173.7629
3441.122300 95.526 -174.4013
3466.058091 95.538 -175.0422
3491.174576 95.549 -175.6841
3516.473066 95.557 -176.3263
3541.954880 95.563 -176.9689
3567.621345 95.567 -177.6134
3593.473800 95.571 -178.2621
3619.513592 95.573 -178.9185
3645.742080 95.574 -179.5859
3672.160630 95.574 179.7320
3698.770620 95.571 179.0331
3725.573436 95.565 178.3162
3752.570477 95.555 177.5819
3779.763150 95.542 176.8323
3807.152872 95.523 176.0704
3834.741071 95.500 175.2999
3862.529185 95.471 174.5244
3890.518664 95.437 173.7479
3918.710966 95.397 172.9740
3947.107561 95.352 172.2057
3975.709929 95.302 171.4460
4004.519563 95.247 170.6973
4033.537962 95.187 169.9615
4062.766641 95.122 169.2405
4092.207123 95.053 168.5361
4121.860942 94.980 167.8495
4151.729646 94.903 167.1820
4181.814790 94.822 166.5344
4212.117944 94.738 165.9075
4242.640687 94.650 165.3021
4273.384610 94.559 164.7189
4304.351317 94.465 164.1586
4335.542421 94.368 163.6216
4366.959549 94.269 163.1085
4398.604338 94.167 162.6194
4430.478438 94.062 162.1545
4462.583511 93.956 161.7141
4494.921231 93.847 161.2984
4527.493283 93.736 160.9076
4560.301365 93.624 160.5420
4593.347189 93.510 160.2020
4626.632476 93.394 159.8885
4660.158962 93.276 159.6025
4693.928395 93.156 159.3453
4727.942535 93.035 159.1190
4762.203156 92.913 158.9252
4796.712043 92.790 158.7660
4831.470996 92.666 158.6428
4866.481826 92.543 158.5565
4901.746360 92.420 158.5070
4937.266434 92.298 158.4933
4973.043902 92.177 158.5139
5009.080628 92.059 158.5665
5045.378492 91.942 158.6490
5081.939384 91.829 158.7594
5118.765212 91.717 158.8958
5155.857894 91.609 159.0565
5193.219366 91.503 159.2407
5230.851574 91.399 159.4475
5268.756481 91.299 159.6763
5306.936062 91.201 159.9264
5345.392309 91.106 160.1973
5384.127225 91.014 160.4883
5423.142830 90.925 160.7986
5462.441159 90.840 161.1275
5502.024259 90.758 161.4744
5541.894195 90.679 161.8384
5582.053045 90.604 162.2189
5622.502902 90.533 162.6151
5663.245876 90.465 163.0263
5704.284090 90.402 163.4515
5745.619684 90.342 163.8900
5787.254813 90.287 164.3405
5829.191647 90.236 164.8015
5871.432373 90.189 165.2715
5913.979192 90.147 165.7491
5956.834323 90.110 166.2328
6000.000000 90.077 166.7209
6043.478473 90.049 167.2120
6087.272010 90.026 167.7048
6131.382892 90.007 168.1980
6175.813420 89.994 168.6906
6220.565910 89.985 169.1816
6265.642695 89.981 169.6703
6311.046124 89.982 170.1562
6356.778566 89.988 170.6382
6402.842404 90.000 171.1151
6449.240040 90.017 171.5855
6495.973891 90.040 172.0477
6543.046396 90.070 172.5004
6590.460007 90.106 172.9418
6638.217197 90.148 173.3700
6686.320456 90.198 173.7828
6734.772290 90.256 174.1777
6783.575226 90.322 174.5511
6832.731809 90.398 174.8993
6882.244600 90.482 175.2167
6932.116181 90.577 175.4966
6982.349153 90.684 175.7302
7032.946133 90.801 175.9073
7083.909760 90.931 176.0155
7135.242690 91.073 176.0407
7186.947600 91.227 175.9672
7239.027185 91.392 175.7780
7291.484160 91.568 175.4555
7344.321260 91.752 174.9814
7397.541239 91.944 174.3376
7451.146872 92.140 173.5057
7505.140954 92.337 172.4679
7559.526299 92.532 171.2073
7614.305743 92.720 169.7097
7669.482141 92.894 167.9658
7725.058371 93.049 165.9729
7781.037328 93.177 163.7371
7837.421932 93.270 161.2753
7894.215122 93.322 158.6156
7951.419859 93.326 155.7977
8009.039125 93.278 152.8707
8067.075924 93.173 149.8913
8125.533282 93.010 146.9197
8184.414245 92.790 144.0162
8243.721885 92.516 141.2375
8303.459292 92.191 138.6337
8363.629581 91.822 136.2452
8424.235888 91.415 134.1018
8485.281374 90.977 132.2224
8546.769221 90.514 130.6151
8608.702634 90.034 129.2794
8671.084842 89.541 128.2075
8733.919097 89.040 127.3878
8797.208675 88.535 126.8061
8860.956876 88.028 126.4484
8925.167022 87.522 126.3024
8989.842461 87.016 126.3588
9054.986566 86.513 126.6116
9120.602731 86.012 127.0585
9186.694378 85.515 127.6996
9253.264952 85.022 128.5364
9320.317925 84.536 129.5698
9387.856790 84.059 130.7976
9455.885071 83.593 132.2141
9524.406312 83.139 133.8091
9593.424086 82.701 135.5690
9662.941992 82.279 137.4780
9732.963653 81.874 139.5198
9803.492719 81.488 141.6790
9874.532869 81.118 143.9420
9946.087805 80.765 146.2991
10018.161257 80.428 148.7437
10090.756983 80.106 151.2728
10163.878768 79.799 153.8872
10237.530423 79.505 156.5914
10311.715789 79.224 159.3949
10386.438732 78.957 162.3118
10461.703149 78.703 165.3625
10537.512962 78.464 168.5732
10613.872125 78.243 171.9767
10690.784618 78.045 175.6097
10768.254450 77.877 179.5094
10846.285661 77.751 -176.2938
10924.882318 77.680 -171.7893
11004.048518 77.682 -167.0031
11083.788390 77.772 -162.0178
11164.106090 77.965 -156.9838
11245.005805 78.265 -152.1124
11326.491752 78.665 -147.6422
11408.568180 79.146 -143.7888
11491.239368 79.679 -140.6980
11574.509626 80.234 -138.4227
11658.383294 80.780 -136.9270
11742.864745 81.294 -136.1075
11827.958384 81.759 -135.8213
11913.668646 82.165 -135.9117
12000.000000 82.511 -136.2287
12086.956947 82.801 -136.6426
12174.544019 83.044 -137.0508
12262.765784 83.250 -137.3796
12351.626840 83.429 -137.5834
12441.131819 83.593 -137.6406
12531.285389 83.751 -137.5493
12622.092249 83.913 -137.3227
12713.557132 84.085 -136.9844
12805.684808 84.274 -136.5653
12898.480079 84.483 -136.1010
12991.947783 84.717 -135.6298
13086.092792 84.977 -135.1926
13180.920015 85.265 -134.8322
13276.434395 85.582 -134.5929
13372.640911 85.927 -134.5210
13469.544580 86.298 -134.6638
13567.150452 86.691 -135.0683
13665.463617 87.103 -135.7803
13764.489200 87.526 -136.8414
13864.232362 87.952 -138.2867
13964.698305 88.370 -140.1420
14065.892266 88.770 -142.4205
14167.819519 89.139 -145.1204
14270.485380 89.464 -148.2228
14373.895200 89.733 -151.6898
14478.054370 89.934 -155.4637
14582.968320 90.058 -159.4690
14688.642520 90.098 -163.6155
14795.082478 90.052 -167.8058
14902.293745 89.920 -171.9423
15010.281908 89.708 -175.9353
15119.052599 89.422 -179.7089
15228.611486 89.071 176.7949
15338.964283 88.667 173.6152
15450.116741 88.219 170.7734
15562.074656 87.736 168.2764
15674.843864 87.226 166.1210
15788.430244 86.696 164.2991
15902.839718 86.150 162.8011
16018.078250 85.592 161.6188
16134.151848 85.025 160.7465
16251.066563 84.452 160.1797
16368.828491 83.877 159.9139
16487.443769 83.302 159.9423
16606.918584 82.732 160.2534
16727.259161 82.171 160.8309
16848.471777 81.622 161.6529
16970.562748 81.089 162.6924
17093.538442 80.575 163.9194
17217.405268 80.081 165.3034
17342.169684 79.609 166.8153
17467.838194 79.158 168.4295
17594.417350 78.729 170.1234
17721.913751 78.323 171.8735
17850.334044 77.938 173.6493
17979.684923 77.575 175.4071
18109.973131 77.228 177.0995
18241.205462 76.888 178.7048
18373.388756 76.542 -179.7396
18506.529905 76.182 -178.1280
18640.635849 75.805 -176.3105
18775.713581 75.427 -174.1541
18911.770141 75.072 -171.6323
19048.812624 74.768 -168.8900
19186.848172 74.530 -166.2003
19325.883983 74.352 -163.8287
19465.927305 74.217 -161.9286
19606.985439 74.106 -160.5305
19749.065738 74.013 -159.5878
19892.175609 73.941 -159.0242
20036.322514 73.902 -158.7659
