* Measurement data measured by REW V5.31.3
* Source: Input device not selected, no input selected, R, volume: no control
* Format: 256k Log Swept Sine, 1 sweep at -12.0 dBFS with no timing reference
* Dated: Feb 6, 2026 4:29:31 PM
* REW Settings:
*  C-weighting compensation: Off
*  Target level: 75.0 dB
* Note: ; 
* Measurement: Moondrop KATO Blue L
* Smoothing: 1/24 octave
* Frequency Step: 96 ppo
* Start Frequency: 0.36621094 Hz
*
* Freq(Hz) SPL(dB) Phase(degrees)
0.366211 56.154 29.8847
0.368865 56.173 29.9000
0.371538 56.200 29.9226
0.374230 56.231 29.9491
0.376942 56.263 29.9781
0.379673 56.296 30.0089
0.382424 56.329 30.0414
0.385196 56.362 30.0755
0.387987 56.396 30.1112
0.390798 56.429 30.1485
0.393630 56.463 30.1872
0.396483 56.498 30.2275
0.399356 56.532 30.2694
0.402250 56.567 30.3127
0.405165 56.602 30.3574
0.408101 56.637 30.4036
0.411058 56.673 30.4513
0.414037 56.708 30.5003
0.417037 56.744 30.5507
0.420059 56.781 30.6024
0.423103 56.817 30.6555
0.426169 56.854 30.7098
0.429257 56.891 30.7654
0.432368 56.928 30.8222
0.435501 56.966 30.8802
0.438656 57.004 30.9393
0.441835 57.042 30.9995
0.445037 57.081 31.0608
0.448262 57.119 31.1231
0.451510 57.158 31.1863
0.454782 57.198 31.2505
0.458077 57.237 31.3156
0.461397 57.277 31.3816
0.464740 57.317 31.4483
0.468108 57.358 31.5157
0.471500 57.398 31.5839
0.474917 57.439 31.6526
0.478358 57.481 31.7220
0.481825 57.522 31.7919
0.485316 57.564 31.8622
0.488833 57.606 31.9329
0.492375 57.649 32.0040
0.495943 57.692 32.0753
0.499537 57.735 32.1469
0.503157 57.778 32.2186
0.506803 57.822 32.2903
0.510475 57.866 32.3621
0.514175 57.911 32.4338
0.517900 57.955 32.5054
0.521653 58.001 32.5768
0.525434 58.046 32.6479
0.529241 58.092 32.7186
0.533076 58.138 32.7889
0.536939 58.184 32.8587
0.540830 58.231 32.9278
0.544749 58.278 32.9964
0.548696 58.325 33.0641
0.552673 58.373 33.1310
0.556677 58.421 33.1970
0.560711 58.469 33.2620
0.564774 58.518 33.3258
0.568867 58.567 33.3885
0.572989 58.617 33.4499
0.577141 58.667 33.5099
0.581324 58.717 33.5685
0.585536 58.768 33.6255
0.589779 58.819 33.6808
0.594053 58.870 33.7344
0.598358 58.922 33.7862
0.602694 58.974 33.8360
0.607061 59.026 33.8838
0.611460 59.079 33.9294
0.615891 59.132 33.9728
0.620354 59.186 34.0139
0.624849 59.240 34.0525
0.629377 59.294 34.0885
0.633938 59.349 34.1219
0.638532 59.404 34.1525
0.643159 59.459 34.1803
0.647819 59.515 34.2050
0.652514 59.572 34.2267
0.657242 59.629 34.2452
0.662005 59.686 34.2604
0.666802 59.743 34.2721
0.671634 59.801 34.2803
0.676501 59.860 34.2848
0.681403 59.919 34.2855
0.686341 59.978 34.2824
0.691314 60.038 34.2752
0.696324 60.098 34.2639
0.701370 60.158 34.2483
0.706452 60.219 34.2283
0.711571 60.281 34.2039
0.716728 60.343 34.1748
0.721921 60.405 34.1411
0.727153 60.467 34.1030
0.732422 60.529 34.0611
0.737729 60.591 34.0165
0.743075 60.652 33.9705
0.748460 60.713 33.9238
0.753883 60.774 33.8765
0.759346 60.836 33.8287
0.764849 60.898 33.7804
0.770391 60.960 33.7313
0.775974 61.023 33.6816
0.781597 61.086 33.6310
0.787261 61.150 33.5795
0.792966 61.214 33.5270
0.798712 61.278 33.4734
0.804500 61.343 33.4187
0.810329 61.408 33.3626
0.816201 61.473 33.3052
0.822116 61.539 33.2463
0.828073 61.605 33.1859
0.834074 61.672 33.1238
0.840118 61.739 33.0599
0.846206 61.806 32.9941
0.852338 61.874 32.9264
0.858514 61.942 32.8566
0.864735 62.010 32.7846
0.871001 62.078 32.7103
0.877313 62.147 32.6336
0.883670 62.217 32.5544
0.890074 62.286 32.4726
0.896524 62.356 32.3881
0.903020 62.427 32.3007
0.909564 62.497 32.2103
0.916155 62.568 32.1169
0.922794 62.640 32.0202
0.929481 62.711 31.9203
0.936216 62.783 31.8168
0.943000 62.855 31.7098
0.949834 62.928 31.5991
0.956717 63.001 31.4845
0.963649 63.074 31.3660
0.970632 63.147 31.2433
0.977666 63.221 31.1164
0.984750 63.295 30.9851
0.991886 63.369 30.8493
0.999074 63.443 30.7088
1.006314 63.518 30.5634
1.013606 63.593 30.4130
1.020951 63.668 30.2575
1.028349 63.743 30.0967
1.035801 63.819 29.9304
1.043307 63.895 29.7584
1.050867 63.971 29.5806
1.058482 64.047 29.3968
1.066152 64.123 29.2068
1.073878 64.200 29.0105
1.081660 64.276 28.8076
1.089498 64.353 28.5982
1.097393 64.430 28.3823
1.105345 64.507 28.1606
1.113355 64.584 27.9337
1.121423 64.662 27.7021
1.129549 64.739 27.4660
1.137734 64.817 27.2255
1.145979 64.895 26.9808
1.154283 64.974 26.7320
1.162647 65.052 26.4790
1.171072 65.131 26.2221
1.179558 65.209 25.9613
1.188106 65.288 25.6966
1.196715 65.367 25.4282
1.205387 65.447 25.1560
1.214122 65.526 24.8802
1.222920 65.606 24.6008
1.231782 65.686 24.3179
1.240708 65.766 24.0316
1.249699 65.846 23.7418
1.258754 65.926 23.4486
1.267876 66.006 23.1521
1.277063 66.087 22.8523
1.286318 66.168 22.5493
1.295639 66.248 22.2431
1.305027 66.329 21.9336
1.314484 66.410 21.6210
1.324009 66.492 21.3052
1.333604 66.573 20.9862
1.343268 66.654 20.6641
1.353002 66.736 20.3389
1.362806 66.817 20.0105
1.372681 66.899 19.6789
1.382628 66.981 19.3442
1.392647 67.063 19.0062
1.402739 67.145 18.6650
1.412904 67.227 18.3205
1.423142 67.309 17.9727
1.433455 67.391 17.6215
1.443843 67.473 17.2669
1.454305 67.556 16.9086
1.464844 67.638 16.5467
1.475459 67.720 16.1808
1.486150 67.803 15.8108
1.496920 67.885 15.4366
1.507767 67.967 15.0584
1.518693 68.049 14.6763
1.529698 68.131 14.2904
1.540783 68.213 13.9008
1.551948 68.295 13.5076
1.563194 68.377 13.1110
1.574521 68.459 12.7109
1.585931 68.541 12.3075
1.597423 68.623 11.9009
1.608999 68.704 11.4912
1.620658 68.786 11.0783
1.632402 68.867 10.6623
1.644232 68.948 10.2432
1.656146 69.030 9.8212
1.668147 69.111 9.3961
1.680235 69.192 8.9680
1.692411 69.272 8.5368
1.704675 69.353 8.1026
1.717028 69.434 7.6653
1.729470 69.514 7.2249
1.742003 69.595 6.7812
1.754626 69.675 6.3342
1.767341 69.755 5.8838
1.780147 69.834 5.4299
1.793047 69.914 4.9724
1.806040 69.994 4.5109
1.819128 70.073 4.0450
1.832310 70.152 3.5738
1.845587 70.231 3.0959
1.858961 70.309 2.6105
1.872432 70.388 2.1172
1.886001 70.465 1.6163
1.899667 70.543 1.1085
1.913433 70.620 0.5942
1.927299 70.696 0.0741
1.941265 70.773 -0.4512
1.955332 70.849 -0.9812
1.969501 70.924 -1.5152
1.983773 70.999 -2.0528
1.998148 71.074 -2.5932
2.012627 71.148 -3.1360
2.027212 71.222 -3.6805
2.041902 71.296 -4.2264
2.056698 71.369 -4.7731
2.071602 71.441 -5.3200
2.086614 71.514 -5.8667
2.101734 71.586 -6.4127
2.116964 71.657 -6.9575
2.132304 71.728 -7.5008
2.147756 71.799 -8.0422
2.163320 71.869 -8.5814
2.178996 71.939 -9.1188
2.194786 72.009 -9.6555
2.210690 72.078 -10.1941
2.226710 72.146 -10.7374
2.242845 72.214 -11.2866
2.259098 72.280 -11.8420
2.275468 72.346 -12.4028
2.291957 72.412 -12.9685
2.308566 72.476 -13.5381
2.325295 72.540 -14.1108
2.342145 72.603 -14.6856
2.359117 72.666 -15.2618
2.376212 72.728 -15.8384
2.393431 72.789 -16.4144
2.410775 72.850 -16.9889
2.428244 72.910 -17.5610
2.445840 72.970 -18.1296
2.463564 73.029 -18.6939
2.481416 73.087 -19.2529
2.499397 73.146 -19.8056
2.517509 73.203 -20.3511
2.535752 73.261 -20.8891
2.554127 73.318 -21.4198
2.572635 73.374 -21.9453
2.591277 73.429 -22.4691
2.610055 73.484 -22.9933
2.628968 73.537 -23.5186
2.648019 73.589 -24.0447
2.667208 73.641 -24.5711
2.686535 73.691 -25.0970
2.706003 73.741 -25.6214
2.725612 73.790 -26.1436
2.745363 73.839 -26.6625
2.765257 73.887 -27.1770
2.785295 73.934 -27.6861
2.805478 73.982 -28.1885
2.825808 74.029 -28.6832
2.846285 74.076 -29.1688
2.866910 74.124 -29.6442
2.887685 74.171 -30.1080
2.908611 74.219 -30.5597
2.929688 74.267 -30.9992
2.950917 74.314 -31.4280
2.972301 74.361 -31.8480
2.993839 74.407 -32.2603
3.015534 74.452 -32.6654
3.037386 74.497 -33.0633
3.059396 74.541 -33.4540
3.081565 74.586 -33.8373
3.103896 74.630 -34.2130
3.126388 74.675 -34.5808
3.149043 74.720 -34.9402
3.171862 74.766 -35.2910
3.194847 74.813 -35.6326
3.217998 74.861 -35.9644
3.241317 74.910 -36.2859
3.264805 74.962 -36.5961
3.288463 75.015 -36.8940
3.312293 75.070 -37.1779
3.336295 75.125 -37.4464
3.360471 75.182 -37.6996
3.384822 75.239 -37.9387
3.409350 75.298 -38.1651
3.434056 75.357 -38.3807
3.458940 75.418 -38.5872
3.484005 75.481 -38.7866
3.509252 75.545 -38.9806
3.534681 75.612 -39.1712
3.560295 75.680 -39.3600
3.586094 75.752 -39.5489
3.612081 75.826 -39.7391
3.638255 75.903 -39.9306
3.664620 75.983 -40.1216
3.691175 76.066 -40.3072
3.717923 76.152 -40.4838
3.744864 76.242 -40.6513
3.772001 76.334 -40.8119
3.799335 76.429 -40.9688
3.826866 76.527 -41.1254
3.854597 76.628 -41.2856
3.882529 76.731 -41.4528
3.910664 76.836 -41.6308
3.939002 76.943 -41.8229
3.967546 77.052 -42.0322
3.996296 77.164 -42.2604
4.025255 77.278 -42.5068
4.054423 77.394 -42.7667
4.083804 77.513 -43.0347
4.113396 77.636 -43.3089
4.143204 77.762 -43.5905
4.173227 77.890 -43.8818
4.203468 78.020 -44.1855
4.233928 78.152 -44.5046
4.264609 78.285 -44.8423
4.295512 78.419 -45.2013
4.326639 78.552 -45.5845
4.357992 78.686 -45.9939
4.389572 78.820 -46.4302
4.421380 78.954 -46.8913
4.453419 79.088 -47.3736
4.485691 79.224 -47.8746
4.518196 79.360 -48.3933
4.550936 79.497 -48.9291
4.583914 79.634 -49.4821
4.617131 79.770 -50.0526
4.650589 79.905 -50.6410
4.684289 80.039 -51.2481
4.718233 80.171 -51.8752
4.752424 80.300 -52.5238
4.786862 80.428 -53.1957
4.821549 80.554 -53.8914
4.856488 80.679 -54.6096
4.891680 80.802 -55.3473
4.927127 80.923 -56.1015
4.962831 81.042 -56.8692
4.998794 81.159 -57.6476
5.035017 81.273 -58.4348
5.071503 81.383 -59.2295
5.108253 81.491 -60.0325
5.145270 81.596 -60.8475
5.182555 81.697 -61.6799
5.220110 81.795 -62.5308
5.257937 81.890 -63.3977
5.296038 81.981 -64.2760
5.334415 82.069 -65.1605
5.373071 82.154 -66.0461
5.412006 82.235 -66.9284
5.451224 82.313 -67.8047
5.490725 82.386 -68.6760
5.530514 82.456 -69.5480
5.570590 82.522 -70.4268
5.610957 82.583 -71.3129
5.651616 82.641 -72.2029
5.692570 82.695 -73.0913
5.733821 82.745 -73.9720
5.775370 82.792 -74.8390
5.817221 82.835 -75.6879
5.859375 82.875 -76.5177
5.901834 82.911 -77.3329
5.944602 82.943 -78.1388
5.987679 82.971 -78.9366
6.031068 82.995 -79.7239
6.074771 83.017 -80.4967
6.118792 83.036 -81.2499
6.163131 83.053 -81.9786
6.207792 83.068 -82.6790
6.252776 83.081 -83.3504
6.298086 83.091 -83.9952
6.343725 83.099 -84.6158
6.389694 83.105 -85.2131
6.435996 83.110 -85.7872
6.482634 83.114 -86.3371
6.529610 83.119 -86.8615
6.576926 83.125 -87.3580
6.624585 83.132 -87.8240
6.672590 83.140 -88.2581
6.720942 83.148 -88.6621
6.769645 83.157 -89.0400
6.818700 83.167 -89.3968
6.868111 83.180 -89.7371
6.917881 83.197 -90.0644
6.968010 83.217 -90.3783
7.018504 83.241 -90.6750
7.069362 83.268 -90.9533
7.120590 83.298 -91.2171
7.172189 83.332 -91.4734
7.224161 83.369 -91.7301
7.276511 83.409 -91.9942
7.329239 83.452 -92.2690
7.382350 83.499 -92.5524
7.435845 83.549 -92.8421
7.489729 83.603 -93.1393
7.544002 83.659 -93.4478
7.598669 83.716 -93.7728
7.653732 83.774 -94.1187
7.709194 83.832 -94.4887
7.765058 83.891 -94.8824
7.821327 83.950 -95.2977
7.878004 84.009 -95.7320
7.935091 84.067 -96.1830
7.992592 84.123 -96.6493
8.050510 84.176 -97.1313
8.108847 84.226 -97.6312
8.167607 84.274 -98.1498
8.226793 84.318 -98.6829
8.286408 84.359 -99.2234
8.346454 84.397 -99.7642
8.406936 84.430 -100.3006
8.467856 84.459 -100.8327
8.529218 84.484 -101.3631
8.591024 84.505 -101.8895
8.653278 84.522 -102.4054
8.715983 84.537 -102.9029
8.779143 84.549 -103.3757
8.842760 84.558 -103.8217
8.906839 84.565 -104.2425
8.971381 84.570 -104.6389
9.036392 84.574 -105.0098
9.101873 84.579 -105.3529
9.167829 84.586 -105.6651
9.234263 84.595 -105.9442
9.301178 84.606 -106.1927
9.368578 84.620 -106.4175
9.436467 84.638 -106.6268
9.504847 84.661 -106.8262
9.573723 84.691 -107.0164
9.643099 84.726 -107.1968
9.712976 84.767 -107.3751
9.783361 84.813 -107.5640
9.854255 84.864 -107.7758
9.925663 84.920 -108.0166
9.997588 84.982 -108.2855
10.070035 85.048 -108.5844
10.143007 85.116 -108.9197
10.216507 85.185 -109.2990
10.290540 85.254 -109.7278
10.365109 85.322 -110.2058
10.440219 85.390 -110.7285
10.515873 85.453 -111.2901
10.592076 85.512 -111.8873
10.668830 85.564 -112.5205
10.746141 85.610 -113.1897
10.824012 85.649 -113.8848
10.902447 85.679 -114.5909
10.981451 85.701 -115.2961
11.061027 85.714 -115.9975
11.141180 85.717 -116.6932
11.221913 85.712 -117.3707
11.303232 85.700 -118.0123
11.385140 85.681 -118.6053
11.467641 85.654 -119.1474
11.550741 85.622 -119.6356
11.634442 85.588 -120.0629
11.718750 85.554 -120.4201
11.803669 85.522 -120.7012
11.889203 85.491 -120.9094
11.975357 85.466 -121.0547
12.062136 85.450 -121.1469
12.149543 85.444 -121.1906
12.237583 85.450 -121.1915
12.326262 85.467 -121.1701
12.415583 85.497 -121.1522
12.505552 85.540 -121.1549
12.596172 85.596 -121.1849
12.687449 85.663 -121.2566
12.779387 85.737 -121.3901
12.871992 85.816 -121.5990
12.965268 85.900 -121.8848
13.059220 85.985 -122.2445
13.153852 86.068 -122.6767
13.249170 86.145 -123.1813
13.345179 86.216 -123.7524
13.441884 86.278 -124.3729
13.539289 86.330 -125.0240
13.637401 86.371 -125.6958
13.736223 86.400 -126.3785
13.835761 86.418 -127.0507
13.936021 86.427 -127.6903
14.037007 86.425 -128.2876
14.138725 86.416 -128.8352
14.241180 86.403 -129.3207
14.344377 86.388 -129.7338
14.448323 86.374 -130.0737
14.553021 86.362 -130.3489
14.658478 86.358 -130.5683
14.764700 86.363 -130.7385
14.871691 86.378 -130.8755
14.979457 86.404 -131.0051
15.088005 86.442 -131.1479
15.197339 86.490 -131.3158
15.307465 86.546 -131.5267
15.418389 86.607 -131.7985
15.530117 86.671 -132.1372
15.642655 86.734 -132.5406
15.756008 86.794 -133.0056
15.870182 86.847 -133.5278
15.985184 86.891 -134.0928
16.101019 86.925 -134.6787
16.217694 86.947 -135.2689
16.335214 86.959 -135.8484
16.453586 86.961 -136.3937
16.572815 86.955 -136.8859
16.692909 86.943 -137.3169
16.813872 86.930 -137.6794
16.935713 86.919 -137.9686
17.058436 86.912 -138.1904
17.182048 86.914 -138.3618
17.306556 86.927 -138.5001
17.431967 86.952 -138.6239
17.558286 86.989 -138.7627
17.685521 87.037 -138.9413
17.813677 87.093 -139.1746
17.942762 87.153 -139.4785
18.072783 87.214 -139.8619
18.203746 87.271 -140.3201
18.335658 87.322 -140.8423
18.468526 87.362 -141.4171
18.602356 87.391 -142.0215
18.737156 87.407 -142.6286
18.872934 87.410 -143.2194
19.009695 87.403 -143.7700
19.147447 87.388 -144.2594
19.286197 87.369 -144.6791
19.425953 87.349 -145.0259
19.566721 87.334 -145.3018
19.708510 87.326 -145.5231
19.851326 87.328 -145.7123
19.995177 87.341 -145.8904
20.140070 87.364 -146.0859
20.286013 87.395 -146.3218
20.433014 87.431 -146.6115
20.581080 87.467 -146.9637
20.730219 87.500 -147.3762
20.880439 87.526 -147.8348
21.031747 87.543 -148.3225
21.184152 87.548 -148.8148
21.337661 87.543 -149.2843
21.492282 87.530 -149.7110
21.648024 87.512 -150.0766
21.804895 87.492 -150.3720
21.962902 87.476 -150.6018
22.122054 87.468 -150.7781
22.282360 87.470 -150.9240
22.443827 87.483 -151.0703
22.606464 87.506 -151.2430
22.770280 87.537 -151.4691
22.935283 87.571 -151.7625
23.101481 87.602 -152.1254
23.268884 87.626 -152.5497
23.437500 87.638 -153.0112
23.607338 87.637 -153.4805
23.778406 87.623 -153.9238
23.950714 87.598 -154.3063
24.124271 87.566 -154.6049
24.299086 87.532 -154.8043
24.475167 87.504 -154.9077
24.652524 87.488 -154.9348
24.831166 87.486 -154.9174
25.011103 87.502 -154.9007
25.192344 87.533 -154.9246
25.374898 87.575 -155.0265
25.558775 87.621 -155.2250
25.743984 87.664 -155.5225
25.930536 87.699 -155.9035
26.118439 87.719 -156.3357
26.307704 87.724 -156.7821
26.498341 87.715 -157.1992
26.690359 87.694 -157.5543
26.883768 87.667 -157.8232
27.078579 87.641 -158.0019
27.274801 87.623 -158.1030
27.472446 87.615 -158.1560
27.671522 87.621 -158.1993
27.872042 87.638 -158.2716
28.074014 87.663 -158.4021
28.277450 87.690 -158.6042
28.482360 87.713 -158.8738
28.688755 87.727 -159.1886
28.896645 87.730 -159.5186
29.106042 87.723 -159.8288
29.316957 87.710 -160.0928
29.529400 87.695 -160.2958
29.743382 87.684 -160.4423
29.958915 87.681 -160.5517
30.176009 87.690 -160.6586
30.394677 87.708 -160.7976
30.614929 87.734 -160.9993
30.836778 87.761 -161.2780
31.060234 87.783 -161.6311
31.285309 87.796 -162.0381
31.512015 87.799 -162.4688
31.740364 87.790 -162.8895
31.970368 87.773 -163.2718
32.202039 87.752 -163.6002
32.435388 87.733 -163.8750
32.670428 87.720 -164.1115
32.907171 87.714 -164.3334
33.145630 87.715 -164.5673
33.385817 87.720 -164.8307
33.627745 87.726 -165.1296
33.871425 87.730 -165.4557
34.116871 87.729 -165.7915
34.364096 87.724 -166.1161
34.613113 87.717 -166.4122
34.863934 87.711 -166.6734
35.116572 87.709 -166.9055
35.371041 87.714 -167.1259
35.627354 87.725 -167.3560
35.885525 87.741 -167.6138
36.145566 87.757 -167.9079
36.407492 87.770 -168.2328
36.671316 87.777 -168.5723
36.937051 87.778 -168.9039
37.204712 87.774 -169.2071
37.474313 87.768 -169.4724
37.745867 87.763 -169.7040
38.019389 87.762 -169.9181
38.294893 87.764 -170.1362
38.572394 87.766 -170.3729
38.851905 87.765 -170.6288
39.133442 87.758 -170.8882
39.417019 87.744 -171.1250
39.702651 87.726 -171.3168
39.990353 87.710 -171.4589
40.280140 87.701 -171.5696
40.572026 87.701 -171.6883
40.866028 87.708 -171.8563
41.162160 87.715 -172.0942
41.460438 87.717 -172.3907
41.760877 87.707 -172.7055
42.063494 87.688 -172.9870
42.368303 87.667 -173.2043
42.675322 87.655 -173.3701
42.984565 87.658 -173.5380
43.296048 87.672 -173.7749
43.609789 87.689 -174.1217
43.925804 87.695 -174.5615
44.244108 87.681 -175.0160
44.564719 87.649 -175.3843
44.887654 87.612 -175.5995
45.212928 87.590 -175.6725
45.540560 87.596 -175.6958
45.870565 87.626 -175.7988
46.202962 87.664 -176.0726
46.537768 87.688 -176.5112
46.875000 87.678 -177.0056
47.214676 87.633 -177.3946
47.556813 87.571 -177.5478
47.901429 87.517 -177.4378
48.248542 87.495 -177.1614
48.598171 87.512 -176.8900
48.950334 87.555 -176.7768
49.305048 87.602 -176.8821
49.662333 87.631 -177.1632
50.022206 87.636 -177.5190
50.384688 87.620 -177.8528
50.749796 87.593 -178.1176
51.117550 87.567 -178.3240
51.487969 87.546 -178.5164
51.861072 87.530 -178.7359
52.236879 87.513 -178.9978
52.615409 87.493 -179.2894
52.996681 87.469 -179.5831
53.380717 87.442 -179.8515
53.767536 87.418 179.9221
54.157158 87.399 179.7366
54.549603 87.391 179.5706
54.944892 87.392 179.3903
55.343045 87.399 179.1696
55.744084 87.404 178.9117
56.148028 87.401 178.6534
56.554900 87.393 178.4419
56.964720 87.385 178.2953
57.377510 87.385 178.1802
57.793291 87.392 178.0301
58.212085 87.398 177.7950
58.633914 87.391 177.4797
59.058799 87.365 177.1424
59.486764 87.321 176.8574
59.917829 87.272 176.6683
60.352019 87.231 176.5581
60.789354 87.208 176.4511
61.229859 87.201 176.2530
61.673556 87.201 175.9161
62.120468 87.195 175.4843
62.570618 87.184 175.0613
63.024031 87.186 174.6956
63.480729 87.219 174.2797
63.940736 87.274 173.6076
64.404077 87.307 172.5989
64.870776 87.268 171.4782
65.340856 87.147 170.7045
65.814343 86.996 170.6677
66.291261 86.901 171.3341
66.771635 86.910 172.2111
67.255489 86.989 172.7739
67.742850 87.068 172.8953
68.233743 87.105 172.8071
68.728193 87.106 172.7640
69.226226 87.096 172.8244
69.727867 87.084 172.9010
70.233144 87.066 172.9286
70.742083 87.037 172.9222
71.254709 87.006 172.9029
71.771050 86.978 172.8412
72.291132 86.954 172.6946
72.814984 86.928 172.4655
73.342631 86.900 172.2000
73.874102 86.873 171.9402
74.409424 86.852 171.6964
74.948626 86.839 171.4567
75.491734 86.830 171.2166
76.038779 86.820 170.9953
76.589787 86.806 170.8270
77.144788 86.792 170.7317
77.703811 86.780 170.6934
78.266885 86.769 170.6699
78.834039 86.756 170.6268
79.405303 86.737 170.5640
79.980706 86.711 170.4996
80.560280 86.685 170.4296
81.144053 86.662 170.3187
81.732056 86.640 170.1432
82.324320 86.618 169.9213
82.920876 86.599 169.6787
83.521755 86.587 169.3995
84.126988 86.579 169.0482
84.736607 86.564 168.6378
85.350643 86.537 168.2410
85.969129 86.499 167.9324
86.592097 86.458 167.7365
87.219579 86.419 167.6345
87.851608 86.385 167.5967
88.488217 86.357 167.5942
89.129439 86.335 167.5905
89.775308 86.318 167.5508
90.425856 86.301 167.4658
91.081119 86.282 167.3496
91.741131 86.262 167.2130
92.405925 86.237 167.0740
93.075536 86.209 166.9783
93.750000 86.184 166.9472
94.429351 86.170 166.9216
95.113625 86.159 166.8268
95.802858 86.141 166.6679
96.497085 86.115 166.4987
97.196342 86.085 166.3372
97.900667 86.056 166.1500
98.610096 86.025 165.8969
99.324665 85.982 165.6078
100.044413 85.927 165.4059
100.769376 85.876 165.3680
101.499592 85.846 165.4032
102.235100 85.829 165.3867
102.975938 85.812 165.3097
103.722144 85.788 165.1982
104.473757 85.755 165.0399
105.230817 85.707 164.8550
105.993363 85.648 164.7225
106.761435 85.592 164.6866
107.535072 85.558 164.6613
108.314315 85.543 164.5056
109.099206 85.525 164.2195
109.889783 85.495 163.9268
110.686090 85.456 163.7037
111.488167 85.406 163.5693
112.296056 85.350 163.5226
113.109800 85.293 163.4996
113.929440 85.238 163.4069
114.755020 85.190 163.1534
115.586582 85.151 162.6050
116.424170 85.109 161.6910
117.267827 85.047 160.4938
118.117598 84.944 159.1382
118.973527 84.752 158.1456
119.835658 84.497 158.6659
120.704037 84.343 160.9631
121.578708 84.373 163.5329
122.459718 84.480 165.4780
123.347111 84.599 167.1598
124.240935 84.735 168.5104
125.141236 84.854 169.0865
126.048061 84.901 168.9782
126.961458 84.888 168.6271
127.881473 84.873 168.0539
128.808154 84.858 166.9427
129.741551 84.791 165.4704
130.681712 84.659 164.4140
131.628686 84.542 164.3675
132.582521 84.533 164.9501
133.543269 84.620 165.2917
134.510979 84.720 165.1014
135.485701 84.779 164.6121
136.467486 84.794 164.0860
137.456386 84.788 163.6532
138.452451 84.785 163.3328
139.455735 84.799 163.0935
140.466288 84.829 162.8907
141.484165 84.861 162.6900
142.509418 84.875 162.5414
143.542100 84.871 162.5156
144.582265 84.855 162.5536
145.629968 84.830 162.5368
146.685262 84.794 162.4310
147.748204 84.756 162.3035
148.818849 84.730 162.1771
149.897251 84.724 162.0043
150.983469 84.727 161.7862
152.077557 84.727 161.5078
153.179574 84.696 161.2332
154.289576 84.634 161.1920
155.407622 84.571 161.4200
156.533770 84.523 161.6514
157.668078 84.480 161.7297
158.810606 84.435 161.7247
159.961413 84.392 161.6901
161.120559 84.353 161.6555
162.288105 84.320 161.6304
163.464112 84.290 161.6089
164.648640 84.259 161.6140
165.841752 84.226 161.6483
167.043510 84.190 161.7022
168.253976 84.150 161.7543
169.473213 84.105 161.8307
170.701286 84.058 161.9412
171.938258 84.012 162.0312
173.184194 83.966 162.0574
174.439158 83.916 162.0514
175.703216 83.869 162.0590
176.976434 83.835 162.0637
178.258878 83.814 161.9696
179.550615 83.795 161.7444
180.851713 83.773 161.4620
182.162239 83.753 161.1714
183.482262 83.740 160.8900
184.811850 83.734 160.6921
186.151073 83.735 160.6725
187.500000 83.743 160.8002
188.858702 83.743 160.9528
190.227250 83.721 161.0610
191.605715 83.675 161.0943
192.994169 83.617 160.9930
194.392685 83.557 160.7565
195.801334 83.500 160.5560
197.220191 83.457 160.6285
198.649330 83.441 160.9797
200.088825 83.439 161.3424
201.538751 83.421 161.5565
202.999184 83.374 161.7054
204.470200 83.314 161.8725
205.951875 83.264 162.0529
207.444287 83.231 162.1646
208.947514 83.206 162.1511
210.461634 83.179 162.0112
211.986726 83.150 161.8118
213.522869 83.131 161.6087
215.070144 83.123 161.4240
216.628631 83.114 161.3265
218.198411 83.091 161.4086
219.779567 83.052 161.6798
221.372180 83.005 162.0742
222.976334 82.962 162.4746
224.592112 82.922 162.7745
226.219600 82.885 163.0179
227.858880 82.856 163.2052
229.510039 82.838 163.2798
231.173164 82.833 163.3231
232.848340 82.848 163.5239
234.535655 82.896 164.0052
236.235197 82.968 164.5035
237.947054 83.014 164.7106
239.671317 82.999 164.7292
241.408074 82.938 164.6683
243.157416 82.863 164.5043
244.919435 82.796 164.3167
246.694223 82.750 164.2606
248.481871 82.725 164.3542
250.282473 82.710 164.4522
252.096123 82.692 164.3817
253.922915 82.663 164.0555
255.762945 82.631 163.6288
257.616309 82.613 163.3749
259.483103 82.618 163.3918
261.363424 82.627 163.5685
263.257372 82.615 163.8007
265.165043 82.575 164.0071
267.086538 82.514 164.1776
269.021957 82.449 164.3347
270.971401 82.385 164.5004
272.934972 82.326 164.6636
274.912771 82.273 164.8064
276.904902 82.230 164.9191
278.911469 82.194 164.9885
280.932577 82.160 165.0300
282.968330 82.129 165.0665
285.018835 82.106 165.1041
287.084199 82.096 165.1616
289.164530 82.090 165.2933
291.259935 82.077 165.4836
293.370525 82.046 165.6451
295.496408 82.003 165.7373
297.637697 81.960 165.7932
299.794503 81.931 165.8674
301.966937 81.911 165.9832
304.155114 81.892 166.1320
306.359147 81.872 166.2703
308.579152 81.854 166.3473
310.815244 81.838 166.3549
313.067539 81.820 166.3748
315.336156 81.798 166.5110
317.621211 81.775 166.7490
319.922826 81.755 166.9804
322.241118 81.740 167.1112
324.576210 81.733 167.1391
326.928223 81.725 167.1530
329.297280 81.706 167.2789
331.683504 81.670 167.5294
334.087019 81.623 167.8115
336.507952 81.578 168.0353
338.946427 81.538 168.1951
341.402572 81.504 168.3461
343.876516 81.477 168.5099
346.368387 81.457 168.6735
348.878315 81.441 168.8480
351.406431 81.424 169.0315
353.952867 81.405 169.1929
356.517756 81.384 169.3042
359.101230 81.357 169.3823
361.703426 81.329 169.4659
364.324478 81.304 169.5773
366.964523 81.285 169.7340
369.623699 81.267 169.9327
372.302145 81.247 170.1467
375.000000 81.225 170.3743
377.717405 81.204 170.6292
380.454501 81.186 170.8849
383.211431 81.172 171.1223
385.988339 81.156 171.3906
388.785369 81.137 171.7005
391.602668 81.120 171.9335
394.440383 81.102 172.0130
397.298660 81.076 172.0562
400.177650 81.040 172.1223
403.077502 81.001 172.2128
405.998368 80.970 172.3970
408.940400 80.952 172.7109
411.903750 80.943 173.0198
414.888575 80.932 173.2211
417.895028 80.914 173.3565
420.923268 80.896 173.4795
423.973452 80.881 173.6183
427.045738 80.865 173.7754
430.140287 80.844 173.9583
433.257261 80.820 174.1630
436.396822 80.796 174.3929
439.559133 80.773 174.6271
442.744360 80.752 174.8308
445.952668 80.731 175.0037
449.184225 80.714 175.1667
452.439199 80.701 175.3465
455.717760 80.693 175.5543
459.020079 80.684 175.7791
462.346327 80.669 176.0130
465.696680 80.646 176.2454
469.071310 80.618 176.4729
472.470394 80.593 176.7136
475.894109 80.577 176.9631
479.342634 80.565 177.1896
482.816148 80.555 177.3874
486.314833 80.543 177.5798
489.838871 80.531 177.7832
493.388445 80.519 178.0022
496.963741 80.507 178.2371
500.564945 80.495 178.4789
504.192245 80.482 178.7172
507.845830 80.468 178.9626
511.525890 80.452 179.2257
515.232618 80.434 179.4749
518.966206 80.417 179.6879
522.726849 80.405 179.8826
526.514743 80.398 -179.9124
530.330086 80.390 -179.6598
534.173076 80.381 -179.3641
538.043915 80.370 -179.0637
541.942803 80.358 -178.7773
545.869944 80.345 -178.5120
549.825542 80.331 -178.2386
553.809805 80.317 -177.9465
557.822939 80.304 -177.6550
561.865154 80.293 -177.3777
565.936660 80.283 -177.1186
570.037671 80.276 -176.8887
574.168399 80.270 -176.6622
578.329060 80.260 -176.3893
582.519870 80.244 -176.0746
586.741049 80.229 -175.7797
590.992817 80.221 -175.5511
595.275394 80.225 -175.3723
599.589005 80.232 -175.1761
603.933874 80.230 -174.8815
608.310228 80.216 -174.4887
612.718295 80.200 -174.0954
617.158304 80.185 -173.7512
621.630488 80.174 -173.4458
626.135079 80.168 -173.1527
630.672311 80.165 -172.8542
635.242423 80.162 -172.5449
639.845651 80.158 -172.2425
644.482237 80.155 -171.9599
649.152421 80.154 -171.6739
653.856447 80.152 -171.3476
658.594560 80.148 -170.9686
663.367008 80.142 -170.5738
668.174039 80.138 -170.1987
673.015903 80.137 -169.8425
677.892854 80.138 -169.5076
682.805145 80.140 -169.1929
687.753032 80.143 -168.8974
692.736774 80.145 -168.5918
697.756631 80.141 -168.2369
702.812863 80.132 -167.8438
707.905735 80.123 -167.4576
713.035511 80.115 -167.0346
718.202461 80.114 -166.5417
723.406852 80.126 -166.1383
728.648956 80.141 -165.8535
733.929047 80.151 -165.5400
739.247399 80.164 -165.1591
744.604290 80.178 -164.8085
750.000000 80.186 -164.4895
755.434809 80.187 -164.1167
760.909001 80.191 -163.6997
766.422861 80.202 -163.3108
771.976677 80.218 -162.9812
777.570739 80.233 -162.6702
783.205337 80.245 -162.3147
788.880766 80.261 -161.9004
794.597321 80.281 -161.4691
800.355301 80.302 -161.0402
806.155005 80.323 -160.5982
811.996736 80.345 -160.1506
817.880799 80.370 -159.7176
823.807501 80.399 -159.3020
829.777150 80.426 -158.8938
835.790057 80.451 -158.4767
841.846536 80.476 -158.0663
847.946903 80.503 -157.6872
854.091476 80.530 -157.3237
860.280575 80.561 -156.9488
866.514523 80.597 -156.5512
872.793644 80.637 -156.1358
879.118267 80.674 -155.7201
885.488720 80.705 -155.3105
891.905336 80.737 -154.8956
898.368450 80.771 -154.4721
904.878398 80.807 -154.0713
911.435520 80.849 -153.7102
918.040157 80.894 -153.3576
924.692655 80.941 -152.9769
931.393359 80.988 -152.5725
938.142619 81.036 -152.1773
944.940787 81.086 -151.8079
951.788218 81.136 -151.4477
958.685268 81.188 -151.0887
965.632296 81.241 -150.7448
972.629666 81.294 -150.4133
979.677741 81.347 -150.0811
986.776890 81.403 -149.7369
993.927482 81.460 -149.3870
1001.129891 81.519 -149.0528
1008.384491 81.578 -148.7389
1015.691660 81.639 -148.4379
1023.051781 81.701 -148.1426
1030.465236 81.762 -147.8586
1037.932411 81.824 -147.5935
1045.453698 81.888 -147.3510
1053.029486 81.954 -147.1208
1060.660172 82.020 -146.8853
1068.346153 82.084 -146.6569
1076.087829 82.147 -146.4567
1083.885605 82.212 -146.2771
1091.739887 82.278 -146.0931
1099.651084 82.345 -145.8988
1107.619609 82.412 -145.7104
1115.645878 82.479 -145.5361
1123.730308 82.546 -145.3767
1131.873321 82.613 -145.2253
1140.075341 82.679 -145.0703
1148.336797 82.747 -144.9141
1156.658119 82.815 -144.7729
1165.039741 82.885 -144.6495
1173.482099 82.955 -144.5363
1181.985634 83.022 -144.4251
1190.550789 83.085 -144.3130
1199.178011 83.147 -144.2108
1207.867749 83.210 -144.1237
1216.620457 83.274 -144.0434
1225.436590 83.337 -143.9623
1234.316609 83.400 -143.8801
1243.260976 83.464 -143.8138
1252.270157 83.527 -143.7706
1261.344623 83.590 -143.7428
1270.484846 83.652 -143.7224
1279.691303 83.713 -143.7002
1288.964474 83.773 -143.6728
1298.304842 83.832 -143.6391
1307.712894 83.890 -143.6041
1317.189120 83.946 -143.5771
1326.734016 84.001 -143.5589
1336.348077 84.058 -143.5453
1346.031806 84.115 -143.5389
1355.785708 84.174 -143.5371
1365.610290 84.232 -143.5343
1375.506065 84.290 -143.5297
1385.473549 84.346 -143.5211
1395.513261 84.401 -143.5066
1405.625726 84.453 -143.4893
1415.811469 84.506 -143.4747
1426.071023 84.560 -143.4638
1436.404921 84.613 -143.4562
1446.813703 84.666 -143.4566
1457.297912 84.718 -143.4611
1467.858093 84.770 -143.4644
1478.494798 84.822 -143.4674
1489.208581 84.874 -143.4704
1500.000000 84.926 -143.4711
1510.869618 84.979 -143.4703
1521.818002 85.032 -143.4718
1532.845723 85.085 -143.4809
1543.953355 85.138 -143.4999
1555.141477 85.191 -143.5230
1566.410674 85.245 -143.5360
1577.761531 85.299 -143.5396
1589.194642 85.353 -143.5448
1600.710601 85.408 -143.5544
1612.310010 85.462 -143.5653
1623.993473 85.516 -143.5762
1635.761599 85.570 -143.5876
1647.615002 85.625 -143.6020
1659.554299 85.680 -143.6222
1671.580114 85.736 -143.6469
1683.693072 85.792 -143.6750
1695.893807 85.848 -143.7036
1708.182952 85.905 -143.7310
1720.561150 85.963 -143.7580
1733.029045 86.020 -143.7869
1745.587288 86.077 -143.8208
1758.236533 86.134 -143.8597
1770.977440 86.192 -143.9037
1783.810673 86.251 -143.9538
1796.736900 86.310 -144.0071
1809.756796 86.370 -144.0621
1822.871040 86.431 -144.1251
1836.080315 86.492 -144.1998
1849.385310 86.553 -144.2809
1862.786718 86.615 -144.3644
1876.285239 86.677 -144.4525
1889.881575 86.740 -144.5451
1903.576436 86.802 -144.6402
1917.370535 86.865 -144.7410
1931.264593 86.928 -144.8497
1945.259332 86.991 -144.9649
1959.355483 87.054 -145.0860
1973.553781 87.118 -145.2119
1987.854965 87.182 -145.3434
2002.259781 87.247 -145.4825
2016.768981 87.312 -145.6305
2031.383320 87.377 -145.7879
2046.103561 87.442 -145.9556
2060.930471 87.508 -146.1348
2075.864823 87.573 -146.3257
2090.907395 87.639 -146.5272
2106.058972 87.705 -146.7386
2121.320344 87.770 -146.9596
2136.692305 87.834 -147.1905
2152.175658 87.897 -147.4319
2167.771210 87.961 -147.6850
2183.479774 88.025 -147.9483
2199.302169 88.089 -148.2204
2215.239219 88.152 -148.5022
2231.291755 88.214 -148.7952
2247.460615 88.275 -149.1007
2263.746641 88.335 -149.4189
2280.150683 88.393 -149.7492
2296.673595 88.451 -150.0913
2313.316238 88.507 -150.4436
2330.079481 88.562 -150.8038
2346.964198 88.616 -151.1717
2363.971268 88.669 -151.5483
2381.101578 88.721 -151.9360
2398.356022 88.770 -152.3349
2415.735498 88.819 -152.7423
2433.240913 88.865 -153.1573
2450.873180 88.910 -153.5796
2468.633217 88.953 -154.0097
2486.521951 88.995 -154.4493
2504.540314 89.034 -154.8980
2522.689246 89.071 -155.3533
2540.969692 89.106 -155.8138
2559.382606 89.138 -156.2811
2577.928947 89.170 -156.7562
2596.609683 89.199 -157.2365
2615.425787 89.225 -157.7193
2634.378241 89.249 -158.2023
2653.468031 89.271 -158.6848
2672.696154 89.289 -159.1688
2692.063613 89.306 -159.6556
2711.571415 89.319 -160.1437
2731.220579 89.331 -160.6311
2751.012130 89.340 -161.1169
2770.947098 89.346 -161.6008
2791.026522 89.349 -162.0831
2811.251451 89.350 -162.5631
2831.622938 89.349 -163.0385
2852.142045 89.345 -163.5078
2872.809842 89.339 -163.9709
2893.627406 89.331 -164.4280
2914.595823 89.321 -164.8780
2935.716186 89.308 -165.3203
2956.989596 89.294 -165.7536
2978.417161 89.277 -166.1774
3000.000000 89.259 -166.5914
3021.739237 89.238 -166.9945
3043.636005 89.216 -167.3866
3065.691446 89.192 -167.7684
3087.906710 89.167 -168.1392
3110.282955 89.139 -168.4969
3132.821347 89.110 -168.8409
3155.523062 89.080 -169.1717
3178.389283 89.048 -169.4907
3201.421202 89.015 -169.7978
3224.620020 88.980 -170.0903
3247.986946 88.946 -170.3673
3271.523198 88.911 -170.6305
3295.230004 88.875 -170.8802
3319.108599 88.838 -171.1148
3343.160228 88.799 -171.3327
3367.386145 88.761 -171.5325
3391.787613 88.721 -171.7114
3416.365904 88.682 -171.8685
3441.122300 88.642 -172.0037
3466.058091 88.603 -172.1161
3491.174576 88.565 -172.2044
3516.473066 88.529 -172.2679
3541.954880 88.495 -172.3086
3567.621345 88.464 -172.3326
3593.473800 88.438 -172.3480
3619.513592 88.417 -172.3622
3645.742080 88.400 -172.3808
3672.160630 88.386 -172.4092
3698.770620 88.375 -172.4529
3725.573436 88.365 -172.5157
3752.570477 88.354 -172.5967
3779.763150 88.342 -172.6895
3807.152872 88.328 -172.7887
3834.741071 88.313 -172.8895
3862.529185 88.296 -172.9857
3890.518664 88.278 -173.0724
3918.710966 88.261 -173.1487
3947.107561 88.243 -173.2155
3975.709929 88.226 -173.2741
4004.519563 88.211 -173.3263
4033.537962 88.196 -173.3746
4062.766641 88.181 -173.4196
4092.207123 88.168 -173.4604
4121.860942 88.156 -173.4969
4151.729646 88.145 -173.5332
4181.814790 88.134 -173.5733
4212.117944 88.125 -173.6167
4242.640687 88.117 -173.6612
4273.384610 88.110 -173.7067
4304.351317 88.104 -173.7551
4335.542421 88.098 -173.8081
4366.959549 88.092 -173.8657
4398.604338 88.088 -173.9260
4430.478438 88.085 -173.9886
4462.583511 88.083 -174.0548
4494.921231 88.082 -174.1266
4527.493283 88.081 -174.2032
4560.301365 88.081 -174.2842
4593.347189 88.082 -174.3712
4626.632476 88.085 -174.4671
4660.158962 88.090 -174.5790
4693.928395 88.096 -174.7128
4727.942535 88.102 -174.8709
4762.203156 88.108 -175.0533
4796.712043 88.113 -175.2597
4831.470996 88.116 -175.4889
4866.481826 88.115 -175.7377
4901.746360 88.111 -175.9994
4937.266434 88.104 -176.2676
4973.043902 88.094 -176.5379
5009.080628 88.082 -176.8080
5045.378492 88.069 -177.0797
5081.939384 88.053 -177.3548
5118.765212 88.035 -177.6342
5155.857894 88.015 -177.9173
5193.219366 87.993 -178.2030
5230.851574 87.968 -178.4893
5268.756481 87.940 -178.7718
5306.936062 87.909 -179.0492
5345.392309 87.875 -179.3194
5384.127225 87.839 -179.5794
5423.142830 87.800 -179.8289
5462.441159 87.758 179.9301
5502.024259 87.714 179.7002
5541.894195 87.668 179.4859
5582.053045 87.619 179.2892
5622.502902 87.568 179.1116
5663.245876 87.513 178.9570
5704.284090 87.455 178.8299
5745.619684 87.397 178.7354
5787.254813 87.338 178.6742
5829.191647 87.279 178.6447
5871.432373 87.221 178.6479
5913.979192 87.165 178.6839
5956.834323 87.111 178.7527
6000.000000 87.059 178.8530
6043.478473 87.009 178.9805
6087.272010 86.961 179.1346
6131.382892 86.916 179.3173
6175.813420 86.874 179.5289
6220.565910 86.836 179.7690
6265.642695 86.803 -179.9609
6311.046124 86.775 -179.6609
6356.778566 86.753 -179.3333
6402.842404 86.739 -178.9814
6449.240040 86.731 -178.6101
6495.973891 86.732 -178.2251
6543.046396 86.741 -177.8324
6590.460007 86.761 -177.4385
6638.217197 86.790 -177.0448
6686.320456 86.831 -176.6519
6734.772290 86.882 -176.2668
6783.575226 86.945 -175.9004
6832.731809 87.019 -175.5613
6882.244600 87.106 -175.2565
6932.116181 87.204 -174.9905
6982.349153 87.316 -174.7664
7032.946133 87.441 -174.5925
7083.909760 87.579 -174.4817
7135.242690 87.733 -174.4476
7186.947600 87.904 -174.5056
7239.027185 88.092 -174.6781
7291.484160 88.297 -174.9938
7344.321260 88.518 -175.4824
7397.541239 88.752 -176.1732
7451.146872 88.997 -177.0978
7505.140954 89.248 -178.2890
7559.526299 89.501 -179.7777
7614.305743 89.747 178.4085
7669.482141 89.978 176.2481
7725.058371 90.183 173.7338
7781.037328 90.351 170.8734
7837.421932 90.470 167.6936
7894.215122 90.527 164.2469
7951.419859 90.514 160.6113
8009.039125 90.422 156.8785
8067.075924 90.251 153.1507
8125.533282 90.001 149.5301
8184.414245 89.680 146.1097
8243.721885 89.295 142.9673
8303.459292 88.857 140.1577
8363.629581 88.376 137.7101
8424.235888 87.864 135.6342
8485.281374 87.331 133.9283
8546.769221 86.787 132.5815
8608.702634 86.239 131.5726
8671.084842 85.693 130.8766
8733.919097 85.152 130.4713
8797.208675 84.621 130.3304
8860.956876 84.102 130.4224
8925.167022 83.596 130.7189
8989.842461 83.106 131.2021
9054.986566 82.632 131.8560
9120.602731 82.175 132.6580
9186.694378 81.734 133.5857
9253.264952 81.308 134.6191
9320.317925 80.896 135.7395
9387.856790 80.497 136.9362
9455.885071 80.108 138.2046
9524.406312 79.728 139.5343
9593.424086 79.354 140.9169
9662.941992 78.983 142.3620
9732.963653 78.615 143.8890
9803.492719 78.246 145.5198
9874.532869 77.880 147.2822
9946.087805 77.517 149.2048
10018.161257 77.163 151.3078
10090.756983 76.822 153.5935
10163.878768 76.499 156.0413
10237.530423 76.200 158.6201
10311.715789 75.929 161.3082
10386.438732 75.686 164.0849
10461.703149 75.473 166.9223
10537.512962 75.288 169.7908
10613.872125 75.128 172.6639
10690.784618 74.991 175.5242
10768.254450 74.875 178.3666
10846.285661 74.782 -178.8059
10924.882318 74.710 -175.9861
11004.048518 74.656 -173.1751
11083.788390 74.620 -170.3815
11164.106090 74.600 -167.6049
11245.005805 74.598 -164.8431
11326.491752 74.612 -162.0971
11408.568180 74.644 -159.3699
11491.239368 74.695 -156.6612
11574.509626 74.767 -153.9671
11658.383294 74.860 -151.2909
11742.864745 74.976 -148.6425
11827.958384 75.115 -146.0309
11913.668646 75.278 -143.4598
12000.000000 75.466 -140.9357
12086.956947 75.679 -138.4693
12174.544019 75.917 -136.0633
12262.765784 76.183 -133.7205
12351.626840 76.476 -131.4520
12441.131819 76.801 -129.2660
12531.285389 77.159 -127.1703
12622.092249 77.551 -125.1799
12713.557132 77.981 -123.3117
12805.684808 78.451 -121.5963
12898.480079 78.963 -120.0750
12991.947783 79.519 -118.7892
13086.092792 80.123 -117.7928
13180.920015 80.774 -117.1535
13276.434395 81.475 -116.9495
13372.640911 82.220 -117.2752
13469.544580 83.003 -118.2464
13567.150452 83.809 -119.9887
13665.463617 84.612 -122.6165
13764.489200 85.382 -126.2085
13864.232362 86.077 -130.7765
13964.698305 86.656 -136.2392
14065.892266 87.082 -142.4093
14167.819519 87.326 -149.0055
14270.485380 87.380 -155.6931
14373.895200 87.252 -162.1371
14478.054370 86.967 -168.0556
14582.968320 86.564 -173.2572
14688.642520 86.082 -177.6557
14795.082478 85.562 178.7401
14902.293745 85.034 175.8498
15010.281908 84.524 173.5520
15119.052599 84.045 171.7084
15228.611486 83.605 170.1816
15338.964283 83.202 168.8504
15450.116741 82.834 167.6122
15562.074656 82.496 166.3812
15674.843864 82.178 165.0903
15788.430244 81.871 163.6949
15902.839718 81.568 162.1602
16018.078250 81.260 160.4485
16134.151848 80.942 158.5043
16251.066563 80.606 156.2333
16368.828491 80.234 153.4935
16487.443769 79.790 150.1241
16606.918584 79.199 146.1281
16727.259161 78.344 142.1891
16848.471777 77.138 140.6788
16970.562748 75.765 145.8799
17093.538442 74.841 157.0222
17217.405268 74.668 164.4003
17342.169684 74.789 165.6739
17467.838194 74.799 164.0901
17594.417350 74.603 161.8243
17721.913751 74.239 159.7363
17850.334044 73.761 158.0857
17979.684923 73.213 156.9050
18109.973131 72.624 156.1558
18241.205462 72.015 155.7971
18373.388756 71.401 155.7889
18506.529905 70.796 156.0893
18640.635849 70.209 156.6555
18775.713581 69.646 157.4404
18911.770141 69.115 158.3944
19048.812624 68.620 159.4580
19186.848172 68.164 160.5696
19325.883983 67.743 161.6625
19465.927305 67.350 162.6478
19606.985439 66.980 163.4183
19749.065738 66.643 163.8870
19892.175609 66.377 164.0594
20036.322514 66.234 164.0571
