* Measurement data measured by REW V5.31.3
* Source: Headset (2- CX31993 HIFI AUDIO), MICROPHONE (Master Volume), R, volume: 0.300
* Format: 256k Log Swept Sine, 1 sweep at -11.9 dBFS with no timing reference
* Dated: 09 29, 25 2:44:45 PM
* REW Settings:
*  C-weighting compensation: Off
*  Target level: 75.0 dB
* Note: ; 
* Measurement: Moondrop Lan 500 R
* Smoothing: 1/12 octave
* Frequency Step: 96 ppo
* Start Frequency: 0.36621094 Hz
*
* Freq(Hz) SPL(dB) Phase(degrees)
0.366211 47.561 -31.8101
0.368865 47.562 -31.8666
0.371538 47.565 -31.9511
0.374230 47.568 -32.0566
0.376942 47.571 -32.1775
0.379673 47.574 -32.3094
0.382424 47.578 -32.4495
0.385196 47.582 -32.5962
0.387987 47.586 -32.7484
0.390798 47.590 -32.9056
0.393630 47.594 -33.0675
0.396483 47.598 -33.2339
0.399356 47.602 -33.4049
0.402250 47.606 -33.5805
0.405165 47.610 -33.7606
0.408101 47.614 -33.9452
0.411058 47.618 -34.1344
0.414037 47.622 -34.3283
0.417037 47.626 -34.5268
0.420059 47.630 -34.7300
0.423103 47.634 -34.9380
0.426169 47.639 -35.1506
0.429257 47.643 -35.3681
0.432368 47.647 -35.5903
0.435501 47.652 -35.8174
0.438656 47.656 -36.0493
0.441835 47.660 -36.2861
0.445037 47.665 -36.5278
0.448262 47.669 -36.7744
0.451510 47.674 -37.0260
0.454782 47.678 -37.2826
0.458077 47.683 -37.5441
0.461397 47.688 -37.8106
0.464740 47.692 -38.0821
0.468108 47.697 -38.3587
0.471500 47.702 -38.6403
0.474917 47.706 -38.9270
0.478358 47.711 -39.2188
0.481825 47.716 -39.5157
0.485316 47.721 -39.8177
0.488833 47.726 -40.1248
0.492375 47.731 -40.4370
0.495943 47.736 -40.7543
0.499537 47.741 -41.0768
0.503157 47.746 -41.4045
0.506803 47.751 -41.7373
0.510475 47.756 -42.0753
0.514175 47.761 -42.4185
0.517900 47.766 -42.7668
0.521653 47.771 -43.1204
0.525434 47.777 -43.4792
0.529241 47.782 -43.8431
0.533076 47.787 -44.2123
0.536939 47.792 -44.5868
0.540830 47.798 -44.9664
0.544749 47.803 -45.3514
0.548696 47.809 -45.7415
0.552673 47.814 -46.1370
0.556677 47.820 -46.5377
0.560711 47.826 -46.9438
0.564774 47.831 -47.3552
0.568867 47.837 -47.7719
0.572989 47.843 -48.1939
0.577141 47.848 -48.6214
0.581324 47.854 -49.0542
0.585536 47.860 -49.4925
0.589779 47.866 -49.9363
0.594053 47.872 -50.3856
0.598358 47.878 -50.8404
0.602694 47.884 -51.3009
0.607061 47.890 -51.7669
0.611460 47.896 -52.2387
0.615891 47.902 -52.7162
0.620354 47.908 -53.1996
0.624849 47.915 -53.6888
0.629377 47.921 -54.1841
0.633938 47.927 -54.6853
0.638532 47.934 -55.1928
0.643159 47.940 -55.7065
0.647819 47.946 -56.2265
0.652514 47.953 -56.7531
0.657242 47.960 -57.2862
0.662005 47.966 -57.8262
0.666802 47.973 -58.3730
0.671634 47.979 -58.9269
0.676501 47.986 -59.4881
0.681403 47.993 -60.0567
0.686341 48.000 -60.6329
0.691314 48.007 -61.2171
0.696324 48.014 -61.8094
0.701370 48.021 -62.4102
0.706452 48.029 -63.0197
0.711571 48.037 -63.6384
0.716728 48.045 -64.2667
0.721921 48.054 -64.9053
0.727153 48.065 -65.5548
0.732422 48.077 -66.2160
0.737729 48.092 -66.8897
0.743075 48.107 -67.5766
0.748460 48.125 -68.2771
0.753883 48.143 -68.9916
0.759346 48.162 -69.7200
0.764849 48.182 -70.4623
0.770391 48.202 -71.2182
0.775974 48.222 -71.9875
0.781597 48.243 -72.7699
0.787261 48.264 -73.5652
0.792966 48.286 -74.3728
0.798712 48.308 -75.1926
0.804500 48.330 -76.0241
0.810329 48.353 -76.8669
0.816201 48.376 -77.7208
0.822116 48.400 -78.5853
0.828073 48.424 -79.4601
0.834074 48.448 -80.3448
0.840118 48.474 -81.2390
0.846206 48.499 -82.1425
0.852338 48.526 -83.0549
0.858514 48.553 -83.9759
0.864735 48.581 -84.9051
0.871001 48.609 -85.8423
0.877313 48.638 -86.7873
0.883670 48.668 -87.7398
0.890074 48.699 -88.6996
0.896524 48.730 -89.6665
0.903020 48.763 -90.6403
0.909564 48.796 -91.6210
0.916155 48.831 -92.6084
0.922794 48.866 -93.6026
0.929481 48.902 -94.6034
0.936216 48.940 -95.6110
0.943000 48.979 -96.6253
0.949834 49.019 -97.6465
0.956717 49.060 -98.6748
0.963649 49.102 -99.7103
0.970632 49.146 -100.7532
0.977666 49.191 -101.8038
0.984750 49.238 -102.8625
0.991886 49.286 -103.9296
0.999074 49.336 -105.0056
1.006314 49.387 -106.0909
1.013606 49.441 -107.1860
1.020951 49.495 -108.2915
1.028349 49.552 -109.4079
1.035801 49.611 -110.5360
1.043307 49.672 -111.6764
1.050867 49.735 -112.8298
1.058482 49.800 -113.9971
1.066152 49.867 -115.1788
1.073878 49.936 -116.3758
1.081660 50.008 -117.5885
1.089498 50.083 -118.8172
1.097393 50.160 -120.0619
1.105345 50.240 -121.3218
1.113355 50.323 -122.5960
1.121423 50.408 -123.8830
1.129549 50.497 -125.1813
1.137734 50.588 -126.4892
1.145979 50.683 -127.8050
1.154283 50.780 -129.1273
1.162647 50.881 -130.4545
1.171072 50.984 -131.7852
1.179558 51.090 -133.1181
1.188106 51.199 -134.4520
1.196715 51.311 -135.7858
1.205387 51.425 -137.1184
1.214122 51.542 -138.4489
1.222920 51.662 -139.7766
1.231782 51.784 -141.1007
1.240708 51.909 -142.4206
1.249699 52.036 -143.7359
1.258754 52.166 -145.0461
1.267876 52.298 -146.3510
1.277063 52.432 -147.6505
1.286318 52.569 -148.9444
1.295639 52.707 -150.2327
1.305027 52.848 -151.5157
1.314484 52.990 -152.7933
1.324009 53.134 -154.0659
1.333604 53.280 -155.3339
1.343268 53.428 -156.5976
1.353002 53.577 -157.8575
1.362806 53.727 -159.1141
1.372681 53.879 -160.3680
1.382628 54.032 -161.6196
1.392647 54.185 -162.8697
1.402739 54.340 -164.1188
1.412904 54.495 -165.3674
1.423142 54.652 -166.6158
1.433455 54.809 -167.8640
1.443843 54.966 -169.1117
1.454305 55.125 -170.3578
1.464844 55.285 -171.6006
1.475459 55.446 -172.8376
1.486150 55.610 -174.0665
1.496920 55.775 -175.2848
1.507767 55.943 -176.4910
1.518693 56.113 -177.6839
1.529698 56.286 -178.8631
1.540783 56.461 179.9716
1.551948 56.638 178.8201
1.563194 56.818 177.6817
1.574521 56.999 176.5559
1.585931 57.183 175.4419
1.597423 57.369 174.3387
1.608999 57.556 173.2454
1.620658 57.745 172.1609
1.632402 57.936 171.0841
1.644232 58.128 170.0138
1.656146 58.322 168.9486
1.668147 58.517 167.8875
1.680235 58.713 166.8289
1.692411 58.909 165.7718
1.704675 59.107 164.7147
1.717028 59.305 163.6564
1.729470 59.503 162.5955
1.742003 59.701 161.5309
1.754626 59.900 160.4613
1.767341 60.098 159.3858
1.780147 60.297 158.3036
1.793047 60.494 157.2145
1.806040 60.692 156.1185
1.819128 60.889 155.0167
1.832310 61.086 153.9111
1.845587 61.282 152.8041
1.858961 61.479 151.6987
1.872432 61.676 150.5972
1.886001 61.873 149.5016
1.899667 62.071 148.4131
1.913433 62.269 147.3326
1.927299 62.467 146.2601
1.941265 62.666 145.1959
1.955332 62.865 144.1395
1.969501 63.064 143.0906
1.983773 63.264 142.0485
1.998148 63.463 141.0126
2.012627 63.664 139.9819
2.027212 63.864 138.9556
2.041902 64.064 137.9327
2.056698 64.264 136.9120
2.071602 64.465 135.8926
2.086614 64.665 134.8732
2.101734 64.866 133.8528
2.116964 65.066 132.8301
2.132304 65.267 131.8044
2.147756 65.467 130.7747
2.163320 65.667 129.7408
2.178996 65.866 128.7026
2.194786 66.066 127.6611
2.210690 66.265 126.6176
2.226710 66.464 125.5739
2.242845 66.662 124.5317
2.259098 66.860 123.4923
2.275468 67.058 122.4567
2.291957 67.255 121.4255
2.308566 67.452 120.3990
2.325295 67.648 119.3770
2.342145 67.845 118.3595
2.359117 68.041 117.3458
2.376212 68.236 116.3355
2.393431 68.431 115.3279
2.410775 68.626 114.3221
2.428244 68.821 113.3173
2.445840 69.015 112.3125
2.463564 69.210 111.3067
2.481416 69.403 110.2990
2.499397 69.597 109.2884
2.517509 69.790 108.2742
2.535752 69.983 107.2559
2.554127 70.176 106.2335
2.572635 70.368 105.2073
2.591277 70.560 104.1784
2.610055 70.751 103.1478
2.628968 70.941 102.1167
2.648019 71.131 101.0859
2.667208 71.320 100.0562
2.686535 71.509 99.0281
2.706003 71.697 98.0018
2.725612 71.884 96.9774
2.745363 72.071 95.9548
2.765257 72.257 94.9336
2.785295 72.442 93.9135
2.805478 72.627 92.8938
2.825808 72.812 91.8739
2.846285 72.996 90.8531
2.866910 73.179 89.8306
2.887685 73.363 88.8057
2.908611 73.545 87.7776
2.929688 73.727 86.7461
2.950917 73.908 85.7111
2.972301 74.089 84.6730
2.993839 74.269 83.6325
3.015534 74.448 82.5902
3.037386 74.626 81.5471
3.059396 74.803 80.5038
3.081565 74.979 79.4608
3.103896 75.155 78.4187
3.126388 75.330 77.3776
3.149043 75.504 76.3375
3.171862 75.678 75.2985
3.194847 75.850 74.2600
3.217998 76.022 73.2217
3.241317 76.194 72.1829
3.264805 76.365 71.1428
3.288463 76.535 70.1006
3.312293 76.704 69.0558
3.336295 76.872 68.0079
3.360471 77.039 66.9571
3.384822 77.206 65.9039
3.409350 77.371 64.8489
3.434056 77.536 63.7930
3.458940 77.699 62.7370
3.484005 77.862 61.6815
3.509252 78.023 60.6272
3.534681 78.184 59.5742
3.560295 78.344 58.5227
3.586094 78.503 57.4725
3.612081 78.662 56.4231
3.638255 78.819 55.3738
3.664620 78.976 54.3236
3.691175 79.131 53.2717
3.717923 79.286 52.2176
3.744864 79.439 51.1613
3.772001 79.592 50.1031
3.799335 79.743 49.0439
3.826866 79.893 47.9846
3.854597 80.043 46.9259
3.882529 80.191 45.8688
3.910664 80.338 44.8137
3.939002 80.485 43.7610
3.967546 80.630 42.7105
3.996296 80.775 41.6617
4.025255 80.918 40.6139
4.054423 81.061 39.5660
4.083804 81.203 38.5173
4.113396 81.343 37.4675
4.143204 81.482 36.4167
4.173227 81.620 35.3656
4.203468 81.758 34.3151
4.233928 81.894 33.2661
4.264609 82.029 32.2195
4.295512 82.163 31.1757
4.326639 82.296 30.1351
4.357992 82.428 29.0975
4.389572 82.559 28.0622
4.421380 82.690 27.0283
4.453419 82.819 25.9951
4.485691 82.947 24.9621
4.518196 83.074 23.9294
4.550936 83.200 22.8976
4.583914 83.325 21.8676
4.617131 83.449 20.8398
4.650589 83.572 19.8154
4.684289 83.694 18.7946
4.718233 83.815 17.7773
4.752424 83.935 16.7635
4.786862 84.054 15.7523
4.821549 84.173 14.7430
4.856488 84.290 13.7351
4.891680 84.406 12.7288
4.927127 84.522 11.7242
4.962831 84.636 10.7223
4.998794 84.750 9.7234
5.035017 84.862 8.7282
5.071503 84.974 7.7369
5.108253 85.085 6.7495
5.145270 85.195 5.7653
5.182555 85.305 4.7839
5.220110 85.413 3.8049
5.257937 85.521 2.8281
5.296038 85.628 1.8538
5.334415 85.734 0.8822
5.373071 85.839 -0.0859
5.412006 85.943 -1.0505
5.451224 86.047 -2.0114
5.490725 86.150 -2.9685
5.530514 86.252 -3.9225
5.570590 86.353 -4.8737
5.610957 86.454 -5.8223
5.651616 86.554 -6.7684
5.692570 86.653 -7.7119
5.733821 86.752 -8.6522
5.775370 86.850 -9.5892
5.817221 86.947 -10.5228
5.859375 87.043 -11.4532
5.901834 87.139 -12.3807
5.944602 87.234 -13.3057
5.987679 87.329 -14.2281
6.031068 87.423 -15.1483
6.074771 87.516 -16.0657
6.118792 87.608 -16.9803
6.163131 87.700 -17.8921
6.207792 87.791 -18.8010
6.252776 87.882 -19.7072
6.298086 87.972 -20.6110
6.343725 88.061 -21.5126
6.389694 88.150 -22.4120
6.435996 88.237 -23.3092
6.482634 88.325 -24.2039
6.529610 88.411 -25.0959
6.576926 88.497 -25.9855
6.624585 88.582 -26.8728
6.672590 88.667 -27.7579
6.720942 88.751 -28.6410
6.769645 88.834 -29.5221
6.818700 88.917 -30.4009
6.868111 88.999 -31.2775
6.917881 89.080 -32.1516
6.968010 89.160 -33.0233
7.018504 89.240 -33.8929
7.069362 89.319 -34.7605
7.120590 89.397 -35.6261
7.172189 89.475 -36.4894
7.224161 89.552 -37.3505
7.276511 89.628 -38.2090
7.329239 89.704 -39.0651
7.382350 89.778 -39.9189
7.435845 89.852 -40.7705
7.489729 89.925 -41.6199
7.544002 89.998 -42.4668
7.598669 90.070 -43.3113
7.653732 90.141 -44.1530
7.709194 90.211 -44.9922
7.765058 90.281 -45.8287
7.821327 90.350 -46.6627
7.878004 90.418 -47.4943
7.935091 90.485 -48.3230
7.992592 90.552 -49.1489
8.050510 90.618 -49.9718
8.108847 90.683 -50.7919
8.167607 90.748 -51.6091
8.226793 90.811 -52.4236
8.286408 90.875 -53.2350
8.346454 90.937 -54.0435
8.406936 90.999 -54.8489
8.467856 91.060 -55.6512
8.529218 91.121 -56.4505
8.591024 91.181 -57.2468
8.653278 91.240 -58.0402
8.715983 91.299 -58.8306
8.779143 91.357 -59.6179
8.842760 91.415 -60.4023
8.906839 91.472 -61.1838
8.971381 91.528 -61.9625
9.036392 91.584 -62.7385
9.101873 91.639 -63.5118
9.167829 91.694 -64.2824
9.234263 91.749 -65.0506
9.301178 91.802 -65.8163
9.368578 91.856 -66.5798
9.436467 91.909 -67.3411
9.504847 91.961 -68.1002
9.573723 92.013 -68.8572
9.643099 92.064 -69.6124
9.712976 92.115 -70.3656
9.783361 92.165 -71.1171
9.854255 92.214 -71.8668
9.925663 92.263 -72.6146
9.997588 92.312 -73.3608
10.070035 92.359 -74.1051
10.143007 92.407 -74.8476
10.216507 92.453 -75.5880
10.290540 92.499 -76.3264
10.365109 92.544 -77.0625
10.440219 92.588 -77.7963
10.515873 92.631 -78.5273
10.592076 92.674 -79.2555
10.668830 92.716 -79.9805
10.746141 92.757 -80.7021
10.824012 92.798 -81.4202
10.902447 92.838 -82.1344
10.981451 92.877 -82.8444
11.061027 92.916 -83.5500
11.141180 92.954 -84.2512
11.221913 92.992 -84.9478
11.303232 93.030 -85.6396
11.385140 93.067 -86.3268
11.467641 93.103 -87.0092
11.550741 93.140 -87.6872
11.634442 93.176 -88.3609
11.718750 93.212 -89.0306
11.803669 93.249 -89.6968
11.889203 93.285 -90.3599
11.975357 93.321 -91.0201
12.062136 93.358 -91.6785
12.149543 93.395 -92.3352
12.237583 93.431 -92.9910
12.326262 93.468 -93.6464
12.415583 93.504 -94.3020
12.505552 93.541 -94.9581
12.596172 93.577 -95.6152
12.687449 93.613 -96.2736
12.779387 93.649 -96.9333
12.871992 93.684 -97.5945
12.965268 93.719 -98.2568
13.059220 93.752 -98.9202
13.153852 93.785 -99.5841
13.249170 93.817 -100.2480
13.345179 93.848 -100.9112
13.441884 93.878 -101.5729
13.539289 93.907 -102.2324
13.637401 93.935 -102.8887
13.736223 93.962 -103.5411
13.835761 93.987 -104.1888
13.936021 94.012 -104.8310
14.037007 94.036 -105.4671
14.138725 94.060 -106.0968
14.241180 94.083 -106.7197
14.344377 94.106 -107.3358
14.448323 94.128 -107.9453
14.553021 94.150 -108.5485
14.658478 94.173 -109.1458
14.764700 94.195 -109.7380
14.871691 94.218 -110.3259
14.979457 94.241 -110.9103
15.088005 94.264 -111.4922
15.197339 94.287 -112.0723
15.307465 94.311 -112.6515
15.418389 94.334 -113.2305
15.530117 94.358 -113.8098
15.642655 94.381 -114.3896
15.756008 94.404 -114.9702
15.870182 94.427 -115.5514
15.985184 94.448 -116.1329
16.101019 94.470 -116.7144
16.217694 94.490 -117.2952
16.335214 94.510 -117.8747
16.453586 94.528 -118.4523
16.572815 94.546 -119.0272
16.692909 94.563 -119.5989
16.813872 94.580 -120.1669
16.935713 94.595 -120.7308
17.058436 94.610 -121.2905
17.182048 94.625 -121.8457
17.306556 94.639 -122.3966
17.431967 94.653 -122.9434
17.558286 94.667 -123.4863
17.685521 94.680 -124.0255
17.813677 94.693 -124.5615
17.942762 94.705 -125.0944
18.072783 94.718 -125.6244
18.203746 94.730 -126.1515
18.335658 94.741 -126.6758
18.468526 94.752 -127.1973
18.602356 94.763 -127.7156
18.737156 94.774 -128.2306
18.872934 94.784 -128.7422
19.009695 94.794 -129.2504
19.147447 94.803 -129.7549
19.286197 94.813 -130.2560
19.425953 94.822 -130.7540
19.566721 94.832 -131.2491
19.708510 94.841 -131.7420
19.851326 94.851 -132.2331
19.995177 94.860 -132.7230
20.140070 94.870 -133.2125
20.286013 94.879 -133.7018
20.433014 94.888 -134.1913
20.581080 94.897 -134.6814
20.730219 94.906 -135.1719
20.880439 94.914 -135.6627
21.031747 94.922 -136.1534
21.184152 94.929 -136.6436
21.337661 94.936 -137.1327
21.492282 94.942 -137.6201
21.648024 94.948 -138.1052
21.804895 94.952 -138.5876
21.962902 94.957 -139.0670
22.122054 94.961 -139.5430
22.282360 94.965 -140.0156
22.443827 94.968 -140.4849
22.606464 94.971 -140.9509
22.770280 94.975 -141.4139
22.935283 94.978 -141.8743
23.101481 94.981 -142.3323
23.268884 94.983 -142.7882
23.437500 94.986 -143.2423
23.607338 94.989 -143.6948
23.778406 94.991 -144.1460
23.950714 94.993 -144.5958
24.124271 94.995 -145.0444
24.299086 94.997 -145.4917
24.475167 94.998 -145.9374
24.652524 94.999 -146.3813
24.831166 94.999 -146.8231
25.011103 94.999 -147.2623
25.192344 94.998 -147.6986
25.374898 94.997 -148.1316
25.558775 94.996 -148.5609
25.743984 94.995 -148.9865
25.930536 94.993 -149.4084
26.118439 94.991 -149.8268
26.307704 94.989 -150.2422
26.498341 94.987 -150.6549
26.690359 94.986 -151.0657
26.883768 94.984 -151.4750
27.078579 94.982 -151.8833
27.274801 94.980 -152.2911
27.472446 94.978 -152.6985
27.671522 94.976 -153.1055
27.872042 94.973 -153.5121
28.074014 94.970 -153.9181
28.277450 94.967 -154.3232
28.482360 94.963 -154.7273
28.688755 94.958 -155.1300
28.896645 94.954 -155.5312
29.106042 94.949 -155.9305
29.316957 94.943 -156.3278
29.529400 94.937 -156.7226
29.743382 94.931 -157.1147
29.958915 94.925 -157.5040
30.176009 94.918 -157.8904
30.394677 94.911 -158.2739
30.614929 94.904 -158.6549
30.836778 94.897 -159.0338
31.060234 94.890 -159.4110
31.285309 94.883 -159.7871
31.512015 94.876 -160.1621
31.740364 94.868 -160.5360
31.970368 94.860 -160.9086
32.202039 94.852 -161.2795
32.435388 94.844 -161.6479
32.670428 94.835 -162.0139
32.907171 94.826 -162.3771
33.145630 94.817 -162.7377
33.385817 94.808 -163.0963
33.627745 94.798 -163.4534
33.871425 94.789 -163.8095
34.116871 94.779 -164.1646
34.364096 94.769 -164.5184
34.613113 94.758 -164.8705
34.863934 94.747 -165.2198
35.116572 94.735 -165.5660
35.371041 94.723 -165.9087
35.627354 94.710 -166.2478
35.885525 94.698 -166.5840
36.145566 94.686 -166.9180
36.407492 94.673 -167.2507
36.671316 94.660 -167.5823
36.937051 94.647 -167.9130
37.204712 94.634 -168.2425
37.474313 94.621 -168.5704
37.745867 94.607 -168.8964
38.019389 94.593 -169.2205
38.294893 94.579 -169.5427
38.572394 94.564 -169.8636
38.851905 94.550 -170.1836
39.133442 94.536 -170.5028
39.417019 94.521 -170.8212
39.702651 94.507 -171.1385
39.990353 94.492 -171.4547
40.280140 94.477 -171.7694
40.572026 94.462 -172.0829
40.866028 94.447 -172.3949
41.162160 94.431 -172.7054
41.460438 94.416 -173.0138
41.760877 94.400 -173.3192
42.063494 94.384 -173.6207
42.368303 94.367 -173.9177
42.675322 94.350 -174.2095
42.984565 94.334 -174.4963
43.296048 94.317 -174.7780
43.609789 94.300 -175.0553
43.925804 94.284 -175.3286
44.244108 94.267 -175.5991
44.564719 94.251 -175.8680
44.887654 94.235 -176.1363
45.212928 94.218 -176.4041
45.540560 94.200 -176.6703
45.870565 94.181 -176.9323
46.202962 94.162 -177.1873
46.537768 94.142 -177.4335
46.875000 94.124 -177.6727
47.214676 94.107 -177.9099
47.556813 94.091 -178.1526
47.901429 94.077 -178.4082
48.248542 94.062 -178.6806
48.598171 94.046 -178.9686
48.950334 94.027 -179.2665
49.305048 94.006 -179.5663
49.662333 93.983 -179.8612
50.022206 93.959 179.8524
50.384688 93.934 179.5741
50.749796 93.910 179.3013
51.117550 93.885 179.0311
51.487969 93.861 178.7625
51.861072 93.837 178.4967
52.236879 93.812 178.2359
52.615409 93.787 177.9823
52.996681 93.762 177.7365
53.380717 93.738 177.4974
53.767536 93.715 177.2632
54.157158 93.692 177.0317
54.549603 93.670 176.8018
54.944892 93.647 176.5736
55.343045 93.625 176.3479
55.744084 93.602 176.1251
56.148028 93.580 175.9048
56.554900 93.557 175.6855
56.964720 93.535 175.4657
57.377510 93.512 175.2444
57.793291 93.488 175.0222
58.212085 93.464 174.8005
58.633914 93.439 174.5807
59.058799 93.413 174.3637
59.486764 93.387 174.1495
59.917829 93.361 173.9377
60.352019 93.335 173.7283
60.789354 93.308 173.5215
61.229859 93.282 173.3179
61.673556 93.256 173.1178
62.120468 93.230 172.9205
62.570618 93.204 172.7249
63.024031 93.178 172.5298
63.480729 93.153 172.3350
63.940736 93.127 172.1411
64.404077 93.100 171.9497
64.870776 93.073 171.7620
65.340856 93.046 171.5784
65.814343 93.018 171.3980
66.291261 92.990 171.2198
66.771635 92.962 171.0438
67.255489 92.934 170.8707
67.742850 92.905 170.7011
68.233743 92.877 170.5351
68.728193 92.848 170.3716
69.226226 92.820 170.2097
69.727867 92.792 170.0488
70.233144 92.765 169.8887
70.742083 92.738 169.7289
71.254709 92.711 169.5690
71.771050 92.684 169.4089
72.291132 92.657 169.2498
72.814984 92.629 169.0930
73.342631 92.601 168.9398
73.874102 92.573 168.7906
74.409424 92.544 168.6450
74.948626 92.516 168.5025
75.491734 92.487 168.3626
76.038779 92.457 168.2250
76.589787 92.427 168.0889
77.144788 92.397 167.9539
77.703811 92.366 167.8197
78.266885 92.335 167.6867
78.834039 92.304 167.5552
79.405303 92.272 167.4250
79.980706 92.241 167.2954
80.560280 92.211 167.1653
81.144053 92.180 167.0342
81.732056 92.150 166.9026
82.324320 92.120 166.7716
82.920876 92.090 166.6415
83.521755 92.060 166.5124
84.126988 92.030 166.3848
84.736607 92.001 166.2590
85.350643 91.971 166.1346
85.969129 91.940 166.0123
86.592097 91.909 165.8936
87.219579 91.877 165.7800
87.851608 91.845 165.6710
88.488217 91.812 165.5659
89.129439 91.779 165.4642
89.775308 91.746 165.3648
90.425856 91.713 165.2666
91.081119 91.680 165.1699
91.741131 91.646 165.0755
92.405925 91.613 164.9834
93.075536 91.580 164.8936
93.750000 91.547 164.8072
94.429351 91.514 164.7239
95.113625 91.480 164.6422
95.802858 91.446 164.5622
96.497085 91.412 164.4843
97.196342 91.377 164.4069
97.900667 91.341 164.3295
98.610096 91.305 164.2538
99.324665 91.268 164.1813
100.044413 91.231 164.1111
100.769376 91.194 164.0442
101.499592 91.158 163.9827
102.235100 91.123 163.9256
102.975938 91.087 163.8715
103.722144 91.052 163.8219
104.473757 91.017 163.7770
105.230817 90.981 163.7339
105.993363 90.944 163.6917
106.761435 90.906 163.6524
107.535072 90.867 163.6153
108.314315 90.828 163.5790
109.099206 90.787 163.5472
109.889783 90.747 163.5253
110.686090 90.706 163.5146
111.488167 90.665 163.5173
112.296056 90.622 163.5408
113.109800 90.576 163.5903
113.929440 90.528 163.6633
114.755020 90.474 163.7595
115.586582 90.416 163.8858
116.424170 90.353 164.0441
117.267827 90.290 164.2260
118.117598 90.228 164.4240
118.973527 90.172 164.6298
119.835658 90.126 164.8148
120.704037 90.089 164.9468
121.578708 90.057 165.0336
122.459718 90.027 165.1133
123.347111 89.998 165.2156
124.240935 89.970 165.3649
125.141236 89.943 165.5933
126.048061 89.918 165.9128
126.961458 89.899 166.3044
127.881473 89.886 166.7493
128.808154 89.881 167.2379
129.741551 89.889 167.7418
130.681712 89.912 168.2111
131.628686 89.950 168.6073
132.582521 90.000 168.9134
133.543269 90.060 169.1123
134.510979 90.125 169.1798
135.485701 90.188 169.1139
136.467486 90.244 168.9463
137.456386 90.290 168.7070
138.452451 90.326 168.4047
139.455735 90.349 168.0547
140.466288 90.360 167.6918
141.484165 90.360 167.3423
142.509418 90.353 167.0102
143.542100 90.339 166.6981
144.582265 90.319 166.4211
145.629968 90.295 166.1902
146.685262 90.268 165.9979
147.748204 90.241 165.8265
148.818849 90.211 165.6666
149.897251 90.178 165.5226
150.983469 90.145 165.4005
152.077557 90.113 165.2938
153.179574 90.082 165.1888
154.289576 90.051 165.0806
155.407622 90.019 164.9794
156.533770 89.986 164.8984
157.668078 89.953 164.8374
158.810606 89.923 164.7847
159.961413 89.892 164.7321
161.120559 89.861 164.6832
162.288105 89.829 164.6469
163.464112 89.797 164.6265
164.648640 89.766 164.6173
165.841752 89.735 164.6138
167.043510 89.704 164.6151
168.253976 89.672 164.6230
169.473213 89.640 164.6375
170.701286 89.609 164.6553
171.938258 89.578 164.6737
173.184194 89.548 164.6935
174.439158 89.518 164.7161
175.703216 89.490 164.7405
176.976434 89.463 164.7621
178.258878 89.435 164.7780
179.550615 89.407 164.7908
180.851713 89.377 164.8087
182.162239 89.347 164.8408
183.482262 89.316 164.8907
184.811850 89.287 164.9540
186.151073 89.260 165.0206
187.500000 89.236 165.0786
188.858702 89.214 165.1199
190.227250 89.192 165.1430
191.605715 89.168 165.1539
192.994169 89.141 165.1631
194.392685 89.111 165.1818
195.801334 89.077 165.2184
197.220191 89.042 165.2775
198.649330 89.006 165.3605
200.088825 88.972 165.4656
201.538751 88.941 165.5890
202.999184 88.914 165.7248
204.470200 88.890 165.8658
205.951875 88.869 166.0041
207.444287 88.850 166.1307
208.947514 88.833 166.2392
210.461634 88.816 166.3293
211.986726 88.798 166.4063
213.522869 88.780 166.4772
215.070144 88.760 166.5470
216.628631 88.738 166.6190
218.198411 88.715 166.6947
219.779567 88.691 166.7756
221.372180 88.665 166.8633
222.976334 88.637 166.9596
224.592112 88.607 167.0654
226.219600 88.577 167.1804
227.858880 88.545 167.3032
229.510039 88.512 167.4311
231.173164 88.480 167.5598
232.848340 88.447 167.6826
234.535655 88.417 167.7930
236.235197 88.389 167.8864
237.947054 88.366 167.9627
239.671317 88.349 168.0258
241.408074 88.338 168.0835
243.157416 88.333 168.1470
244.919435 88.332 168.2266
246.694223 88.334 168.3290
248.481871 88.336 168.4553
250.282473 88.335 168.5989
252.096123 88.330 168.7446
253.922915 88.320 168.8736
255.762945 88.306 168.9712
257.616309 88.290 169.0346
259.483103 88.274 169.0748
261.363424 88.259 169.1108
263.257372 88.242 169.1578
265.165043 88.225 169.2203
267.086538 88.206 169.2941
269.021957 88.186 169.3732
270.971401 88.166 169.4547
272.934972 88.146 169.5395
274.912771 88.126 169.6300
276.904902 88.107 169.7271
278.911469 88.088 169.8291
280.932577 88.070 169.9339
282.968330 88.052 170.0398
285.018835 88.036 170.1462
287.084199 88.020 170.2532
289.164530 88.003 170.3604
291.259935 87.987 170.4671
293.370525 87.971 170.5734
295.496408 87.954 170.6802
297.637697 87.938 170.7891
299.794503 87.922 170.9020
301.966937 87.906 171.0190
304.155114 87.890 171.1389
306.359147 87.874 171.2603
308.579152 87.858 171.3817
310.815244 87.841 171.5026
313.067539 87.825 171.6227
315.336156 87.809 171.7426
317.621211 87.793 171.8629
319.922826 87.778 171.9844
322.241118 87.762 172.1071
324.576210 87.747 172.2312
326.928223 87.732 172.3562
329.297280 87.718 172.4819
331.683504 87.703 172.6087
334.087019 87.689 172.7369
336.507952 87.674 172.8668
338.946427 87.660 172.9983
341.402572 87.646 173.1311
343.876516 87.632 173.2651
346.368387 87.619 173.4000
348.878315 87.605 173.5355
351.406431 87.592 173.6712
353.952867 87.579 173.8071
356.517756 87.566 173.9436
359.101230 87.553 174.0811
361.703426 87.540 174.2196
364.324478 87.527 174.3588
366.964523 87.515 174.4984
369.623699 87.502 174.6388
372.302145 87.490 174.7800
375.000000 87.478 174.9225
377.717405 87.466 175.0660
380.454501 87.454 175.2104
383.211431 87.443 175.3556
385.988339 87.431 175.5014
388.785369 87.420 175.6477
391.602668 87.409 175.7946
394.440383 87.397 175.9423
397.298660 87.386 176.0909
400.177650 87.375 176.2404
403.077502 87.364 176.3907
405.998368 87.353 176.5418
408.940400 87.343 176.6935
411.903750 87.332 176.8458
414.888575 87.322 176.9987
417.895028 87.312 177.1523
420.923268 87.301 177.3071
423.973452 87.292 177.4633
427.045738 87.282 177.6207
430.140287 87.272 177.7794
433.257261 87.263 177.9390
436.396822 87.254 178.0991
439.559133 87.245 178.2599
442.744360 87.236 178.4213
445.952668 87.227 178.5836
449.184225 87.218 178.7469
452.439199 87.210 178.9115
455.717760 87.201 179.0772
459.020079 87.193 179.2440
462.346327 87.184 179.4117
465.696680 87.176 179.5804
469.071310 87.168 179.7501
472.470394 87.160 179.9206
475.894109 87.152 -179.9080
479.342634 87.144 -179.7354
482.816148 87.137 -179.5616
486.314833 87.129 -179.3865
489.838871 87.122 -179.2103
493.388445 87.115 -179.0329
496.963741 87.108 -178.8543
500.564945 87.101 -178.6745
504.192245 87.095 -178.4935
507.845830 87.088 -178.3112
511.525890 87.082 -178.1277
515.232618 87.076 -177.9432
518.966206 87.070 -177.7576
522.726849 87.064 -177.5712
526.514743 87.058 -177.3838
530.330086 87.053 -177.1956
534.173076 87.047 -177.0060
538.043915 87.042 -176.8149
541.942803 87.037 -176.6222
545.869944 87.032 -176.4276
549.825542 87.027 -176.2312
553.809805 87.023 -176.0331
557.822939 87.018 -175.8335
561.865154 87.014 -175.6321
565.936660 87.010 -175.4291
570.037671 87.006 -175.2244
574.168399 87.002 -175.0184
578.329060 86.998 -174.8109
582.519870 86.995 -174.6021
586.741049 86.992 -174.3918
590.992817 86.989 -174.1799
595.275394 86.987 -173.9664
599.589005 86.985 -173.7512
603.933874 86.983 -173.5342
608.310228 86.981 -173.3154
612.718295 86.979 -173.0948
617.158304 86.978 -172.8722
621.630488 86.977 -172.6476
626.135079 86.976 -172.4210
630.672311 86.975 -172.1924
635.242423 86.975 -171.9617
639.845651 86.975 -171.7288
644.482237 86.975 -171.4937
649.152421 86.976 -171.2563
653.856447 86.977 -171.0169
658.594560 86.978 -170.7756
663.367008 86.979 -170.5325
668.174039 86.981 -170.2875
673.015903 86.984 -170.0406
677.892854 86.987 -169.7919
682.805145 86.990 -169.5413
687.753032 86.993 -169.2888
692.736774 86.997 -169.0343
697.756631 87.002 -168.7775
702.812863 87.007 -168.5184
707.905735 87.012 -168.2570
713.035511 87.018 -167.9933
718.202461 87.024 -167.7275
723.406852 87.031 -167.4597
728.648956 87.038 -167.1898
733.929047 87.046 -166.9178
739.247399 87.055 -166.6439
744.604290 87.064 -166.3682
750.000000 87.074 -166.0907
755.434809 87.084 -165.8115
760.909001 87.095 -165.5306
766.422861 87.106 -165.2482
771.976677 87.118 -164.9640
777.570739 87.131 -164.6782
783.205337 87.144 -164.3907
788.880766 87.159 -164.1017
794.597321 87.173 -163.8110
800.355301 87.189 -163.5186
806.155005 87.205 -163.2249
811.996736 87.222 -162.9297
817.880799 87.239 -162.6330
823.807501 87.257 -162.3346
829.777150 87.276 -162.0341
835.790057 87.296 -161.7311
841.846536 87.317 -161.4257
847.946903 87.339 -161.1179
854.091476 87.361 -160.8079
860.280575 87.385 -160.4958
866.514523 87.409 -160.1819
872.793644 87.435 -159.8666
879.118267 87.462 -159.5500
885.488720 87.491 -159.2328
891.905336 87.521 -158.9153
898.368450 87.552 -158.5980
904.878398 87.585 -158.2812
911.435520 87.619 -157.9658
918.040157 87.655 -157.6525
924.692655 87.693 -157.3419
931.393359 87.732 -157.0348
938.142619 87.773 -156.7319
944.940787 87.815 -156.4338
951.788218 87.858 -156.1411
958.685268 87.903 -155.8542
965.632296 87.949 -155.5738
972.629666 87.997 -155.3003
979.677741 88.046 -155.0344
986.776890 88.096 -154.7769
993.927482 88.147 -154.5280
1001.129891 88.199 -154.2881
1008.384491 88.252 -154.0575
1015.691660 88.306 -153.8362
1023.051781 88.361 -153.6246
1030.465236 88.417 -153.4229
1037.932411 88.473 -153.2314
1045.453698 88.530 -153.0505
1053.029486 88.587 -152.8802
1060.660172 88.644 -152.7206
1068.346153 88.702 -152.5714
1076.087829 88.761 -152.4324
1083.885605 88.819 -152.3034
1091.739887 88.877 -152.1844
1099.651084 88.936 -152.0755
1107.619609 88.994 -151.9765
1115.645878 89.052 -151.8873
1123.730308 89.110 -151.8076
1131.873321 89.168 -151.7374
1140.075341 89.225 -151.6764
1148.336797 89.281 -151.6240
1156.658119 89.337 -151.5798
1165.039741 89.393 -151.5436
1173.482099 89.448 -151.5148
1181.985634 89.503 -151.4932
1190.550789 89.556 -151.4783
1199.178011 89.609 -151.4698
1207.867749 89.662 -151.4672
1216.620457 89.713 -151.4700
1225.436590 89.764 -151.4781
1234.316609 89.815 -151.4908
1243.260976 89.864 -151.5080
1252.270157 89.913 -151.5291
1261.344623 89.961 -151.5536
1270.484846 90.008 -151.5814
1279.691303 90.054 -151.6118
1288.964474 90.100 -151.6447
1298.304842 90.145 -151.6796
1307.712894 90.189 -151.7161
1317.189120 90.232 -151.7542
1326.734016 90.275 -151.7935
1336.348077 90.317 -151.8339
1346.031806 90.359 -151.8752
1355.785708 90.400 -151.9171
1365.610290 90.440 -151.9595
1375.506065 90.480 -152.0021
1385.473549 90.520 -152.0449
1395.513261 90.559 -152.0876
1405.625726 90.597 -152.1301
1415.811469 90.635 -152.1722
1426.071023 90.673 -152.2137
1436.404921 90.711 -152.2545
1446.813703 90.748 -152.2944
1457.297912 90.785 -152.3335
1467.858093 90.822 -152.3719
1478.494798 90.859 -152.4095
1489.208581 90.895 -152.4465
1500.000000 90.931 -152.4827
1510.869618 90.967 -152.5179
1521.818002 91.003 -152.5522
1532.845723 91.039 -152.5857
1543.953355 91.075 -152.6185
1555.141477 91.112 -152.6506
1566.410674 91.148 -152.6820
1577.761531 91.184 -152.7128
1589.194642 91.220 -152.7429
1600.710601 91.257 -152.7727
1612.310010 91.293 -152.8022
1623.993473 91.330 -152.8318
1635.761599 91.367 -152.8611
1647.615002 91.404 -152.8904
1659.554299 91.441 -152.9197
1671.580114 91.478 -152.9491
1683.693072 91.516 -152.9788
1695.893807 91.554 -153.0088
1708.182952 91.592 -153.0394
1720.561150 91.630 -153.0706
1733.029045 91.669 -153.1026
1745.587288 91.708 -153.1357
1758.236533 91.748 -153.1699
1770.977440 91.787 -153.2053
1783.810673 91.827 -153.2418
1796.736900 91.868 -153.2796
1809.756796 91.909 -153.3188
1822.871040 91.950 -153.3598
1836.080315 91.992 -153.4027
1849.385310 92.034 -153.4477
1862.786718 92.076 -153.4949
1876.285239 92.119 -153.5443
1889.881575 92.162 -153.5963
1903.576436 92.205 -153.6510
1917.370535 92.249 -153.7086
1931.264593 92.293 -153.7689
1945.259332 92.337 -153.8322
1959.355483 92.382 -153.8984
1973.553781 92.426 -153.9678
1987.854965 92.472 -154.0405
2002.259781 92.517 -154.1166
2016.768981 92.563 -154.1962
2031.383320 92.609 -154.2795
2046.103561 92.656 -154.3666
2060.930471 92.703 -154.4576
2075.864823 92.750 -154.5528
2090.907395 92.798 -154.6522
2106.058972 92.845 -154.7557
2121.320344 92.893 -154.8634
2136.692305 92.942 -154.9756
2152.175658 92.990 -155.0923
2167.771210 93.039 -155.2137
2183.479774 93.088 -155.3399
2199.302169 93.137 -155.4710
2215.239219 93.186 -155.6070
2231.291755 93.236 -155.7480
2247.460615 93.285 -155.8942
2263.746641 93.335 -156.0459
2280.150683 93.385 -156.2031
2296.673595 93.435 -156.3658
2313.316238 93.485 -156.5343
2330.079481 93.535 -156.7086
2346.964198 93.586 -156.8889
2363.971268 93.636 -157.0752
2381.101578 93.687 -157.2678
2398.356022 93.738 -157.4668
2415.735498 93.789 -157.6723
2433.240913 93.840 -157.8845
2450.873180 93.890 -158.1035
2468.633217 93.941 -158.3294
2486.521951 93.992 -158.5625
2504.540314 94.043 -158.8029
2522.689246 94.094 -159.0508
2540.969692 94.144 -159.3064
2559.382606 94.195 -159.5698
2577.928947 94.245 -159.8411
2596.609683 94.295 -160.1202
2615.425787 94.345 -160.4075
2634.378241 94.395 -160.7031
2653.468031 94.444 -161.0072
2672.696154 94.493 -161.3199
2692.063613 94.541 -161.6413
2711.571415 94.589 -161.9715
2731.220579 94.637 -162.3107
2751.012130 94.684 -162.6590
2770.947098 94.731 -163.0167
2791.026522 94.777 -163.3837
2811.251451 94.823 -163.7601
2831.622938 94.868 -164.1462
2852.142045 94.912 -164.5420
2872.809842 94.956 -164.9478
2893.627406 94.999 -165.3637
2914.595823 95.041 -165.7899
2935.716186 95.082 -166.2263
2956.989596 95.122 -166.6732
2978.417161 95.161 -167.1304
3000.000000 95.199 -167.5982
3021.739237 95.235 -168.0764
3043.636005 95.271 -168.5648
3065.691446 95.305 -169.0634
3087.906710 95.338 -169.5718
3110.282955 95.369 -170.0904
3132.821347 95.399 -170.6190
3155.523062 95.427 -171.1573
3178.389283 95.453 -171.7054
3201.421202 95.478 -172.2630
3224.620020 95.501 -172.8297
3247.986946 95.522 -173.4057
3271.523198 95.541 -173.9908
3295.230004 95.559 -174.5847
3319.108599 95.574 -175.1870
3343.160228 95.587 -175.7972
3367.386145 95.598 -176.4154
3391.787613 95.606 -177.0411
3416.365904 95.612 -177.6740
3441.122300 95.615 -178.3135
3466.058091 95.616 -178.9592
3491.174576 95.614 -179.6107
3516.473066 95.610 179.7325
3541.954880 95.602 179.0710
3567.621345 95.592 178.4053
3593.473800 95.579 177.7361
3619.513592 95.563 177.0645
3645.742080 95.543 176.3908
3672.160630 95.521 175.7159
3698.770620 95.495 175.0407
3725.573436 95.466 174.3659
3752.570477 95.434 173.6923
3779.763150 95.399 173.0208
3807.152872 95.360 172.3523
3834.741071 95.318 171.6876
3862.529185 95.272 171.0278
3890.518664 95.223 170.3737
3918.710966 95.170 169.7263
3947.107561 95.114 169.0869
3975.709929 95.054 168.4564
4004.519563 94.990 167.8361
4033.537962 94.923 167.2271
4062.766641 94.852 166.6312
4092.207123 94.778 166.0502
4121.860942 94.700 165.4861
4151.729646 94.618 164.9411
4181.814790 94.533 164.4176
4212.117944 94.445 163.9178
4242.640687 94.354 163.4441
4273.384610 94.261 162.9982
4304.351317 94.165 162.5812
4335.542421 94.069 162.1928
4366.959549 93.971 161.8321
4398.604338 93.874 161.4973
4430.478438 93.775 161.1862
4462.583511 93.677 160.8966
4494.921231 93.579 160.6267
4527.493283 93.481 160.3752
4560.301365 93.382 160.1415
4593.347189 93.283 159.9257
4626.632476 93.184 159.7286
4660.158962 93.084 159.5510
4693.928395 92.984 159.3941
4727.942535 92.884 159.2588
4762.203156 92.784 159.1461
4796.712043 92.685 159.0565
4831.470996 92.586 158.9901
4866.481826 92.489 158.9466
4901.746360 92.393 158.9250
4937.266434 92.299 158.9240
4973.043902 92.207 158.9417
5009.080628 92.117 158.9758
5045.378492 92.031 159.0237
5081.939384 91.947 159.0822
5118.765212 91.866 159.1479
5155.857894 91.788 159.2172
5193.219366 91.713 159.2860
5230.851574 91.641 159.3510
5268.756481 91.570 159.4086
5306.936062 91.501 159.4565
5345.392309 91.433 159.4929
5384.127225 91.365 159.5175
5423.142830 91.296 159.5308
5462.441159 91.225 159.5349
5502.024259 91.152 159.5332
5541.894195 91.076 159.5302
5582.053045 90.997 159.5312
5622.502902 90.914 159.5425
5663.245876 90.827 159.5704
5704.284090 90.736 159.6216
5745.619684 90.642 159.7025
5787.254813 90.545 159.8190
5829.191647 90.446 159.9764
5871.432373 90.346 160.1791
5913.979192 90.245 160.4302
5956.834323 90.145 160.7320
6000.000000 90.046 161.0856
6043.478473 89.949 161.4910
6087.272010 89.857 161.9468
6131.382892 89.769 162.4512
6175.813420 89.687 163.0012
6220.565910 89.610 163.5936
6265.642695 89.541 164.2244
6311.046124 89.480 164.8896
6356.778566 89.427 165.5845
6402.842404 89.384 166.3046
6449.240040 89.349 167.0449
6495.973891 89.325 167.8005
6543.046396 89.311 168.5664
6590.460007 89.307 169.3374
6638.217197 89.315 170.1082
6686.320456 89.334 170.8734
6734.772290 89.365 171.6273
6783.575226 89.409 172.3641
6832.731809 89.464 173.0776
6882.244600 89.533 173.7608
6932.116181 89.614 174.4058
6982.349153 89.709 175.0037
7032.946133 89.818 175.5449
7083.909760 89.940 176.0186
7135.242690 90.076 176.4128
7186.947600 90.225 176.7151
7239.027185 90.386 176.9125
7291.484160 90.559 176.9917
7344.321260 90.743 176.9387
7397.541239 90.938 176.7388
7451.146872 91.141 176.3756
7505.140954 91.351 175.8307
7559.526299 91.566 175.0845
7614.305743 91.782 174.1169
7669.482141 91.995 172.9100
7725.058371 92.200 171.4498
7781.037328 92.390 169.7288
7837.421932 92.558 167.7482
7894.215122 92.696 165.5194
7951.419859 92.797 163.0653
8009.039125 92.853 160.4199
8067.075924 92.860 157.6280
8125.533282 92.813 154.7423
8184.414245 92.709 151.8214
8243.721885 92.548 148.9249
8303.459292 92.332 146.1106
8363.629581 92.064 143.4297
8424.235888 91.750 140.9244
8485.281374 91.395 138.6263
8546.769221 91.005 136.5554
8608.702634 90.587 134.7218
8671.084842 90.146 133.1279
8733.919097 89.687 131.7717
8797.208675 89.211 130.6495
8860.956876 88.724 129.7589
8925.167022 88.226 129.0995
8989.842461 87.719 128.6732
9054.986566 87.206 128.4830
9120.602731 86.689 128.5321
9186.694378 86.171 128.8229
9253.264952 85.654 129.3552
9320.317925 85.142 130.1260
9387.856790 84.638 131.1282
9455.885071 84.144 132.3511
9524.406312 83.664 133.7805
9593.424086 83.200 135.3998
9662.941992 82.753 137.1903
9732.963653 82.325 139.1335
9803.492719 81.915 141.2114
9874.532869 81.525 143.4086
9946.087805 81.152 145.7123
10018.161257 80.796 148.1143
10090.756983 80.457 150.6116
10163.878768 80.131 153.2064
10237.530423 79.820 155.9059
10311.715789 79.523 158.7238
10386.438732 79.240 161.6797
10461.703149 78.973 164.8009
10537.512962 78.724 168.1199
10613.872125 78.499 171.6741
10690.784618 78.305 175.4994
10768.254450 78.154 179.6222
10846.285661 78.059 -175.9543
10924.882318 78.038 -171.2682
11004.048518 78.106 -166.4164
11083.788390 78.275 -161.5623
11164.106090 78.547 -156.9222
11245.005805 78.911 -152.7272
11326.491752 79.348 -149.1735
11408.568180 79.827 -146.3805
11491.239368 80.317 -144.3751
11574.509626 80.791 -143.1001
11658.383294 81.224 -142.4377
11742.864745 81.603 -142.2372
11827.958384 81.920 -142.3396
11913.668646 82.175 -142.5972
12000.000000 82.375 -142.8849
12086.956947 82.527 -143.1057
12174.544019 82.643 -143.1922
12262.765784 82.735 -143.1044
12351.626840 82.813 -142.8252
12441.131819 82.887 -142.3561
12531.285389 82.965 -141.7117
12622.092249 83.054 -140.9153
12713.557132 83.160 -139.9957
12805.684808 83.286 -138.9836
12898.480079 83.436 -137.9108
12991.947783 83.612 -136.8082
13086.092792 83.816 -135.7070
13180.920015 84.049 -134.6382
13276.434395 84.313 -133.6334
13372.640911 84.608 -132.7252
13469.544580 84.935 -131.9476
13567.150452 85.292 -131.3363
13665.463617 85.681 -130.9297
13764.489200 86.099 -130.7682
13864.232362 86.542 -130.8943
13964.698305 87.008 -131.3521
14065.892266 87.490 -132.1849
14167.819519 87.980 -133.4345
14270.485380 88.468 -135.1368
14373.895200 88.941 -137.3172
14478.054370 89.386 -139.9852
14582.968320 89.786 -143.1293
14688.642520 90.127 -146.7131
14795.082478 90.394 -150.6752
14902.293745 90.576 -154.9297
15010.281908 90.664 -159.3721
15119.052599 90.655 -163.8859
15228.611486 90.549 -168.3526
15338.964283 90.351 -172.6618
15450.116741 90.071 -176.7197
15562.074656 89.721 179.5445
15674.843864 89.314 176.1760
15788.430244 88.864 173.1950
15902.839718 88.383 170.5997
16018.078250 87.881 168.3721
16134.151848 87.367 166.4835
16251.066563 86.846 164.9012
16368.828491 86.321 163.5940
16487.443769 85.794 162.5349
16606.918584 85.266 161.7034
16727.259161 84.737 161.0853
16848.471777 84.208 160.6715
16970.562748 83.680 160.4552
17093.538442 83.154 160.4291
17217.405268 82.633 160.5821
17342.169684 82.119 160.8969
17467.838194 81.615 161.3480
17594.417350 81.122 161.9023
17721.913751 80.640 162.5239
17850.334044 80.164 163.1804
17979.684923 79.691 163.8517
18109.973131 79.213 164.5391
18241.205462 78.723 165.2783
18373.388756 78.213 166.1493
18506.529905 77.682 167.2694
18640.635849 77.141 168.7430
18775.713581 76.611 170.5782
18911.770141 76.112 172.6464
19048.812624 75.652 174.7499
19186.848172 75.228 176.7278
19325.883983 74.826 178.5022
19465.927305 74.440 -179.9420
19606.985439 74.074 -178.6017
19749.065738 73.748 -177.4936
19892.175609 73.498 -176.6738
20036.322514 73.360 -176.2281
