* Measurement data measured by REW V5.31.3
* Source: Headset (2- CX31993 HIFI AUDIO), MICROPHONE (Master Volume), R, volume: 0.500
* Format: 256k Log Swept Sine, 1 sweep at -11.9 dBFS with no timing reference
* Dated: 08 4, 25 6:28:20 PM
* REW Settings:
*  C-weighting compensation: Off
*  Target level: 75.0 dB
* Note: ; 
* Measurement: Moondrop SpaceTravel 2 L
* Smoothing: 1/12 octave
* Frequency Step: 96 ppo
* Start Frequency: 0.36621094 Hz
*
* Freq(Hz) SPL(dB) Phase(degrees)
0.366211 54.132 -37.1422
0.368865 54.124 -37.2109
0.371538 54.111 -37.3138
0.374230 54.096 -37.4430
0.376942 54.078 -37.5916
0.379673 54.059 -37.7546
0.382424 54.039 -37.9287
0.385196 54.019 -38.1121
0.387987 53.998 -38.3035
0.390798 53.977 -38.5026
0.393630 53.956 -38.7092
0.396483 53.934 -38.9231
0.399356 53.913 -39.1447
0.402250 53.891 -39.3740
0.405165 53.869 -39.6112
0.408101 53.847 -39.8567
0.411058 53.825 -40.1106
0.414037 53.803 -40.3733
0.417037 53.780 -40.6450
0.420059 53.757 -40.9260
0.423103 53.735 -41.2167
0.426169 53.712 -41.5173
0.429257 53.688 -41.8282
0.432368 53.665 -42.1497
0.435501 53.642 -42.4823
0.438656 53.618 -42.8263
0.441835 53.594 -43.1821
0.445037 53.570 -43.5502
0.448262 53.546 -43.9308
0.451510 53.521 -44.3246
0.454782 53.497 -44.7320
0.458077 53.472 -45.1534
0.461397 53.447 -45.5894
0.464740 53.422 -46.0404
0.468108 53.397 -46.5072
0.471500 53.371 -46.9901
0.474917 53.346 -47.4899
0.478358 53.320 -48.0071
0.481825 53.294 -48.5424
0.485316 53.268 -49.0964
0.488833 53.241 -49.6698
0.492375 53.215 -50.2633
0.495943 53.188 -50.8776
0.499537 53.161 -51.5135
0.503157 53.134 -52.1718
0.506803 53.106 -52.8533
0.510475 53.079 -53.5587
0.514175 53.051 -54.2889
0.517900 53.023 -55.0447
0.521653 52.995 -55.8270
0.525434 52.967 -56.6367
0.529241 52.938 -57.4745
0.533076 52.909 -58.3415
0.536939 52.880 -59.2384
0.540830 52.851 -60.1660
0.544749 52.822 -61.1253
0.548696 52.792 -62.1170
0.552673 52.762 -63.1418
0.556677 52.732 -64.2006
0.560711 52.702 -65.2939
0.564774 52.671 -66.4224
0.568867 52.641 -67.5866
0.572989 52.610 -68.7868
0.577141 52.578 -70.0233
0.581324 52.547 -71.2964
0.585536 52.515 -72.6060
0.589779 52.484 -73.9520
0.594053 52.452 -75.3340
0.598358 52.419 -76.7515
0.602694 52.387 -78.2037
0.607061 52.354 -79.6897
0.611460 52.321 -81.2083
0.615891 52.288 -82.7580
0.620354 52.254 -84.3371
0.624849 52.220 -85.9436
0.629377 52.186 -87.5754
0.633938 52.152 -89.2299
0.638532 52.118 -90.9045
0.643159 52.083 -92.5964
0.647819 52.048 -94.3024
0.652514 52.013 -96.0195
0.657242 51.977 -97.7441
0.662005 51.942 -99.4730
0.666802 51.906 -101.2027
0.671634 51.869 -102.9297
0.676501 51.833 -104.6506
0.681403 51.796 -106.3622
0.686341 51.759 -108.0613
0.691314 51.723 -109.7451
0.696324 51.686 -111.4112
0.701370 51.650 -113.0577
0.706452 51.615 -114.6839
0.711571 51.582 -116.2905
0.716728 51.554 -117.8800
0.721921 51.532 -119.4577
0.727153 51.521 -121.0315
0.732422 51.524 -122.6100
0.737729 51.542 -124.1997
0.743075 51.576 -125.8008
0.748460 51.623 -127.4089
0.753883 51.682 -129.0176
0.759346 51.750 -130.6208
0.764849 51.826 -132.2129
0.770391 51.908 -133.7895
0.775974 51.997 -135.3470
0.781597 52.092 -136.8828
0.787261 52.193 -138.3945
0.792966 52.300 -139.8802
0.798712 52.412 -141.3387
0.804500 52.530 -142.7686
0.810329 52.653 -144.1691
0.816201 52.781 -145.5394
0.822116 52.914 -146.8791
0.828073 53.053 -148.1880
0.834074 53.197 -149.4659
0.840118 53.345 -150.7128
0.846206 53.498 -151.9289
0.852338 53.656 -153.1146
0.858514 53.819 -154.2703
0.864735 53.985 -155.3965
0.871001 54.156 -156.4938
0.877313 54.331 -157.5628
0.883670 54.510 -158.6043
0.890074 54.693 -159.6191
0.896524 54.879 -160.6079
0.903020 55.069 -161.5717
0.909564 55.261 -162.5113
0.916155 55.457 -163.4275
0.922794 55.655 -164.3212
0.929481 55.856 -165.1934
0.936216 56.058 -166.0449
0.943000 56.263 -166.8766
0.949834 56.469 -167.6893
0.956717 56.677 -168.4841
0.963649 56.886 -169.2616
0.970632 57.096 -170.0227
0.977666 57.306 -170.7684
0.984750 57.516 -171.4993
0.991886 57.726 -172.2163
0.999074 57.935 -172.9202
1.006314 58.143 -173.6117
1.013606 58.350 -174.2915
1.020951 58.555 -174.9605
1.028349 58.758 -175.6192
1.035801 58.958 -176.2685
1.043307 59.155 -176.9090
1.050867 59.349 -177.5414
1.058482 59.539 -178.1662
1.066152 59.725 -178.7842
1.073878 59.906 -179.3960
1.081660 60.083 179.9979
1.089498 60.255 179.3968
1.097393 60.424 178.8004
1.105345 60.589 178.2083
1.113355 60.752 177.6203
1.121423 60.913 177.0362
1.129549 61.072 176.4560
1.137734 61.230 175.8797
1.145979 61.387 175.3074
1.154283 61.542 174.7391
1.162647 61.697 174.1749
1.171072 61.851 173.6149
1.179558 62.005 173.0592
1.188106 62.157 172.5078
1.196715 62.309 171.9608
1.205387 62.460 171.4182
1.214122 62.610 170.8801
1.222920 62.759 170.3465
1.231782 62.908 169.8175
1.240708 63.056 169.2931
1.249699 63.203 168.7733
1.258754 63.350 168.2582
1.267876 63.495 167.7477
1.277063 63.641 167.2419
1.286318 63.786 166.7408
1.295639 63.930 166.2444
1.305027 64.074 165.7527
1.314484 64.217 165.2656
1.324009 64.360 164.7833
1.333604 64.502 164.3055
1.343268 64.644 163.8325
1.353002 64.786 163.3641
1.362806 64.927 162.9002
1.372681 65.069 162.4410
1.382628 65.210 161.9863
1.392647 65.351 161.5361
1.402739 65.492 161.0903
1.412904 65.633 160.6490
1.423142 65.773 160.2120
1.433455 65.914 159.7792
1.443843 66.055 159.3506
1.454305 66.195 158.9261
1.464844 66.335 158.5053
1.475459 66.475 158.0882
1.486150 66.614 157.6745
1.496920 66.751 157.2640
1.507767 66.888 156.8565
1.518693 67.023 156.4517
1.529698 67.158 156.0496
1.540783 67.291 155.6498
1.551948 67.423 155.2522
1.563194 67.554 154.8566
1.574521 67.684 154.4629
1.585931 67.813 154.0708
1.597423 67.942 153.6801
1.608999 68.069 153.2908
1.620658 68.195 152.9025
1.632402 68.321 152.5152
1.644232 68.446 152.1286
1.656146 68.570 151.7426
1.668147 68.694 151.3569
1.680235 68.817 150.9714
1.692411 68.939 150.5859
1.704675 69.062 150.2003
1.717028 69.184 149.8144
1.729470 69.306 149.4280
1.742003 69.428 149.0409
1.754626 69.550 148.6529
1.767341 69.672 148.2640
1.780147 69.794 147.8739
1.793047 69.916 147.4826
1.806040 70.039 147.0901
1.819128 70.162 146.6963
1.832310 70.284 146.3013
1.845587 70.406 145.9052
1.858961 70.528 145.5083
1.872432 70.650 145.1107
1.886001 70.771 144.7124
1.899667 70.891 144.3137
1.913433 71.010 143.9144
1.927299 71.129 143.5146
1.941265 71.247 143.1143
1.955332 71.364 142.7135
1.969501 71.481 142.3122
1.983773 71.597 141.9103
1.998148 71.713 141.5078
2.012627 71.828 141.1046
2.027212 71.943 140.7005
2.041902 72.058 140.2957
2.056698 72.172 139.8899
2.071602 72.286 139.4831
2.086614 72.399 139.0752
2.101734 72.513 138.6661
2.116964 72.626 138.2557
2.132304 72.739 137.8438
2.147756 72.852 137.4305
2.163320 72.966 137.0155
2.178996 73.079 136.5989
2.194786 73.192 136.1807
2.210690 73.305 135.7609
2.226710 73.417 135.3394
2.242845 73.529 134.9166
2.259098 73.641 134.4922
2.275468 73.752 134.0665
2.291957 73.863 133.6393
2.308566 73.973 133.2107
2.325295 74.082 132.7806
2.342145 74.191 132.3491
2.359117 74.300 131.9159
2.376212 74.408 131.4810
2.393431 74.516 131.0443
2.410775 74.624 130.6056
2.428244 74.731 130.1649
2.445840 74.837 129.7220
2.463564 74.944 129.2767
2.481416 75.050 128.8287
2.499397 75.155 128.3781
2.517509 75.261 127.9244
2.535752 75.366 127.4677
2.554127 75.470 127.0075
2.572635 75.575 126.5438
2.591277 75.679 126.0766
2.610055 75.782 125.6058
2.628968 75.885 125.1316
2.648019 75.988 124.6540
2.667208 76.090 124.1732
2.686535 76.191 123.6893
2.706003 76.291 123.2025
2.725612 76.391 122.7129
2.745363 76.491 122.2206
2.765257 76.590 121.7255
2.785295 76.688 121.2278
2.805478 76.785 120.7275
2.825808 76.882 120.2244
2.846285 76.978 119.7184
2.866910 77.074 119.2092
2.887685 77.168 118.6966
2.908611 77.263 118.1801
2.929688 77.356 117.6591
2.950917 77.449 117.1331
2.972301 77.540 116.6017
2.993839 77.631 116.0649
3.015534 77.721 115.5228
3.037386 77.811 114.9758
3.059396 77.899 114.4244
3.081565 77.986 113.8691
3.103896 78.073 113.3107
3.126388 78.158 112.7497
3.149043 78.242 112.1867
3.171862 78.325 111.6221
3.194847 78.408 111.0563
3.217998 78.489 110.4894
3.241317 78.569 109.9214
3.264805 78.647 109.3518
3.288463 78.725 108.7799
3.312293 78.801 108.2048
3.336295 78.877 107.6255
3.360471 78.950 107.0414
3.384822 79.023 106.4526
3.409350 79.094 105.8594
3.434056 79.163 105.2627
3.458940 79.231 104.6634
3.484005 79.298 104.0627
3.509252 79.364 103.4616
3.534681 79.427 102.8613
3.560295 79.490 102.2627
3.586094 79.551 101.6664
3.612081 79.610 101.0726
3.638255 79.668 100.4810
3.664620 79.724 99.8907
3.691175 79.779 99.3007
3.717923 79.832 98.7097
3.744864 79.883 98.1173
3.772001 79.932 97.5238
3.799335 79.979 96.9298
3.826866 80.025 96.3367
3.854597 80.069 95.7460
3.882529 80.111 95.1592
3.910664 80.152 94.5780
3.939002 80.191 94.0039
3.967546 80.229 93.4379
3.996296 80.265 92.8806
4.025255 80.300 92.3317
4.054423 80.333 91.7906
4.083804 80.363 91.2565
4.113396 80.393 90.7286
4.143204 80.420 90.2069
4.173227 80.446 89.6919
4.203468 80.470 89.1846
4.233928 80.493 88.6863
4.264609 80.515 88.1985
4.295512 80.535 87.7226
4.326639 80.555 87.2602
4.357992 80.575 86.8124
4.389572 80.593 86.3798
4.421380 80.611 85.9626
4.453419 80.628 85.5606
4.485691 80.643 85.1733
4.518196 80.659 84.8005
4.550936 80.673 84.4418
4.583914 80.688 84.0971
4.617131 80.702 83.7666
4.650589 80.717 83.4505
4.684289 80.733 83.1494
4.718233 80.750 82.8639
4.752424 80.768 82.5948
4.786862 80.788 82.3428
4.821549 80.809 82.1082
4.856488 80.830 81.8904
4.891680 80.854 81.6882
4.927127 80.879 81.4997
4.962831 80.906 81.3229
4.998794 80.935 81.1555
5.035017 80.966 80.9955
5.071503 81.001 80.8417
5.108253 81.038 80.6934
5.145270 81.079 80.5506
5.182555 81.123 80.4133
5.220110 81.170 80.2810
5.257937 81.221 80.1521
5.296038 81.274 80.0237
5.334415 81.331 79.8925
5.373071 81.390 79.7551
5.412006 81.453 79.6080
5.451224 81.518 79.4489
5.490725 81.586 79.2764
5.530514 81.657 79.0901
5.570590 81.731 78.8899
5.610957 81.808 78.6754
5.651616 81.887 78.4455
5.692570 81.968 78.1982
5.733821 82.051 77.9315
5.775370 82.134 77.6432
5.817221 82.219 77.3315
5.859375 82.304 76.9953
5.901834 82.389 76.6343
5.944602 82.475 76.2491
5.987679 82.560 75.8403
6.031068 82.646 75.4090
6.074771 82.731 74.9559
6.118792 82.814 74.4816
6.163131 82.896 73.9861
6.207792 82.976 73.4694
6.252776 83.053 72.9313
6.298086 83.129 72.3723
6.343725 83.201 71.7935
6.389694 83.271 71.1974
6.435996 83.339 70.5864
6.482634 83.403 69.9633
6.529610 83.463 69.3303
6.576926 83.520 68.6887
6.624585 83.574 68.0391
6.672590 83.623 67.3820
6.720942 83.668 66.7190
6.769645 83.710 66.0526
6.818700 83.748 65.3861
6.868111 83.782 64.7229
6.917881 83.812 64.0661
6.968010 83.838 63.4173
7.018504 83.860 62.7777
7.069362 83.879 62.1482
7.120590 83.894 61.5303
7.172189 83.906 60.9263
7.224161 83.916 60.3391
7.276511 83.922 59.7714
7.329239 83.927 59.2253
7.382350 83.929 58.7018
7.435845 83.929 58.2017
7.489729 83.928 57.7250
7.544002 83.926 57.2722
7.598669 83.923 56.8438
7.653732 83.921 56.4405
7.709194 83.919 56.0626
7.765058 83.918 55.7100
7.821327 83.917 55.3818
7.878004 83.919 55.0761
7.935091 83.922 54.7906
7.992592 83.928 54.5229
8.050510 83.936 54.2710
8.108847 83.947 54.0331
8.167607 83.961 53.8072
8.226793 83.978 53.5906
8.286408 83.998 53.3799
8.346454 84.021 53.1713
8.406936 84.048 52.9617
8.467856 84.077 52.7484
8.529218 84.108 52.5297
8.591024 84.142 52.3036
8.653278 84.178 52.0683
8.715983 84.216 51.8216
8.779143 84.255 51.5620
8.842760 84.294 51.2883
8.906839 84.334 51.0004
8.971381 84.373 50.6989
9.036392 84.412 50.3843
9.101873 84.451 50.0576
9.167829 84.488 49.7197
9.234263 84.523 49.3718
9.301178 84.556 49.0156
9.368578 84.587 48.6535
9.436467 84.616 48.2880
9.504847 84.643 47.9218
9.573723 84.667 47.5570
9.643099 84.689 47.1957
9.712976 84.709 46.8402
9.783361 84.727 46.4928
9.854255 84.742 46.1559
9.925663 84.757 45.8316
9.997588 84.769 45.5209
10.070035 84.781 45.2250
10.143007 84.793 44.9444
10.216507 84.804 44.6797
10.290540 84.815 44.4309
10.365109 84.827 44.1976
10.440219 84.841 43.9787
10.515873 84.855 43.7726
10.592076 84.871 43.5774
10.668830 84.890 43.3911
10.746141 84.910 43.2117
10.824012 84.932 43.0365
10.902447 84.957 42.8627
10.981451 84.984 42.6873
11.061027 85.014 42.5078
11.141180 85.045 42.3219
11.221913 85.078 42.1273
11.303232 85.113 41.9218
11.385140 85.149 41.7035
11.467641 85.185 41.4712
11.550741 85.223 41.2239
11.634442 85.260 40.9611
11.718750 85.297 40.6825
11.803669 85.334 40.3882
11.889203 85.369 40.0787
11.975357 85.403 39.7550
12.062136 85.436 39.4182
12.149543 85.467 39.0695
12.237583 85.496 38.7108
12.326262 85.522 38.3435
12.415583 85.546 37.9699
12.505552 85.568 37.5919
12.596172 85.587 37.2113
12.687449 85.604 36.8303
12.779387 85.618 36.4510
12.871992 85.630 36.0753
12.965268 85.640 35.7051
13.059220 85.648 35.3418
13.153852 85.655 34.9870
13.249170 85.659 34.6420
13.345179 85.663 34.3074
13.441884 85.666 33.9839
13.539289 85.669 33.6716
13.637401 85.671 33.3702
13.736223 85.674 33.0791
13.835761 85.677 32.7972
13.936021 85.681 32.5229
14.037007 85.686 32.2548
14.138725 85.692 31.9907
14.241180 85.699 31.7286
14.344377 85.708 31.4664
14.448323 85.717 31.2022
14.553021 85.727 30.9344
14.658478 85.738 30.6618
14.764700 85.749 30.3836
14.871691 85.760 30.0998
14.979457 85.770 29.8108
15.088005 85.779 29.5179
15.197339 85.787 29.2227
15.307465 85.795 28.9276
15.418389 85.800 28.6352
15.530117 85.805 28.3481
15.642655 85.808 28.0688
15.756008 85.811 27.7997
15.870182 85.813 27.5426
15.985184 85.815 27.2983
16.101019 85.818 27.0669
16.217694 85.823 26.8473
16.335214 85.829 26.6373
16.453586 85.837 26.4338
16.572815 85.848 26.2333
16.692909 85.861 26.0312
16.813872 85.876 25.8236
16.935713 85.893 25.6063
17.058436 85.912 25.3764
17.182048 85.930 25.1318
17.306556 85.949 24.8721
17.431967 85.966 24.5982
17.558286 85.981 24.3128
17.685521 85.994 24.0199
17.813677 86.003 23.7247
17.942762 86.009 23.4331
18.072783 86.012 23.1511
18.203746 86.012 22.8844
18.335658 86.010 22.6376
18.468526 86.007 22.4139
18.602356 86.005 22.2142
18.737156 86.003 22.0376
18.872934 86.004 21.8806
19.009695 86.008 21.7378
19.147447 86.016 21.6022
19.286197 86.027 21.4662
19.425953 86.042 21.3219
19.566721 86.059 21.1625
19.708510 86.078 20.9829
19.851326 86.098 20.7802
19.995177 86.117 20.5539
20.140070 86.134 20.3064
20.286013 86.148 20.0422
20.433014 86.159 19.7676
20.581080 86.166 19.4897
20.730219 86.169 19.2161
20.880439 86.169 18.9531
21.031747 86.167 18.7056
21.184152 86.163 18.4765
21.337661 86.160 18.2660
21.492282 86.158 18.0720
21.648024 86.157 17.8900
21.804895 86.159 17.7145
21.962902 86.164 17.5393
22.122054 86.171 17.3584
22.282360 86.179 17.1674
22.443827 86.189 16.9636
22.606464 86.198 16.7466
22.770280 86.207 16.5177
22.935283 86.215 16.2802
23.101481 86.222 16.0377
23.268884 86.228 15.7941
23.437500 86.232 15.5521
23.607338 86.237 15.3132
23.778406 86.242 15.0767
23.950714 86.248 14.8405
24.124271 86.255 14.6008
24.299086 86.263 14.3541
24.475167 86.271 14.0969
24.652524 86.279 13.8276
24.831166 86.286 13.5471
25.011103 86.290 13.2586
25.192344 86.291 12.9677
25.374898 86.289 12.6818
25.558775 86.284 12.4084
25.743984 86.276 12.1547
25.930536 86.268 11.9253
26.118439 86.259 11.7217
26.307704 86.252 11.5417
26.498341 86.249 11.3798
26.690359 86.248 11.2277
26.883768 86.251 11.0764
27.078579 86.257 10.9174
27.274801 86.265 10.7440
27.472446 86.274 10.5535
27.671522 86.281 10.3464
27.872042 86.287 10.1265
28.074014 86.290 9.9000
28.277450 86.291 9.6736
28.482360 86.289 9.4536
28.688755 86.286 9.2441
28.896645 86.282 9.0468
29.106042 86.278 8.8604
29.316957 86.275 8.6815
29.529400 86.273 8.5057
29.743382 86.272 8.3286
29.958915 86.271 8.1465
30.176009 86.271 7.9573
30.394677 86.270 7.7606
30.614929 86.269 7.5576
30.836778 86.266 7.3501
31.060234 86.262 7.1404
31.285309 86.257 6.9307
31.512015 86.251 6.7231
31.740364 86.244 6.5193
31.970368 86.237 6.3207
32.202039 86.229 6.1283
32.435388 86.221 5.9426
32.670428 86.214 5.7635
32.907171 86.207 5.5903
33.145630 86.202 5.4211
33.385817 86.198 5.2537
33.627745 86.195 5.0855
33.871425 86.194 4.9142
34.116871 86.193 4.7379
34.364096 86.193 4.5551
34.613113 86.194 4.3645
34.863934 86.195 4.1654
35.116572 86.196 3.9569
35.371041 86.196 3.7386
35.627354 86.195 3.5114
35.885525 86.191 3.2773
36.145566 86.186 3.0411
36.407492 86.178 2.8087
36.671316 86.167 2.5867
36.937051 86.154 2.3807
37.204712 86.141 2.1935
37.474313 86.128 2.0240
37.745867 86.117 1.8680
38.019389 86.108 1.7188
38.294893 86.101 1.5696
38.572394 86.095 1.4164
38.851905 86.089 1.2579
39.133442 86.083 1.0959
39.417019 86.077 0.9332
39.702651 86.072 0.7720
39.990353 86.067 0.6118
40.280140 86.063 0.4501
40.572026 86.060 0.2826
40.866028 86.058 0.1053
41.162160 86.057 -0.0836
41.460438 86.054 -0.2834
41.760877 86.050 -0.4918
42.063494 86.045 -0.7048
42.368303 86.038 -0.9188
42.675322 86.030 -1.1307
42.984565 86.020 -1.3376
43.296048 86.009 -1.5371
43.609789 85.997 -1.7272
43.925804 85.986 -1.9073
44.244108 85.975 -2.0789
44.564719 85.964 -2.2454
44.887654 85.955 -2.4110
45.212928 85.945 -2.5790
45.540560 85.936 -2.7497
45.870565 85.925 -2.9205
46.202962 85.913 -3.0871
46.537768 85.900 -3.2456
46.875000 85.887 -3.3945
47.214676 85.875 -3.5352
47.556813 85.863 -3.6705
47.901429 85.851 -3.8036
48.248542 85.840 -3.9362
48.598171 85.829 -4.0688
48.950334 85.819 -4.2019
49.305048 85.808 -4.3358
49.662333 85.797 -4.4713
50.022206 85.787 -4.6091
50.384688 85.776 -4.7495
50.749796 85.765 -4.8930
51.117550 85.753 -5.0407
51.487969 85.742 -5.1945
51.861072 85.729 -5.3549
52.236879 85.715 -5.5195
52.615409 85.698 -5.6826
52.996681 85.681 -5.8359
53.380717 85.662 -5.9742
53.767536 85.645 -6.0978
54.157158 85.631 -6.2141
54.549603 85.619 -6.3346
54.944892 85.610 -6.4696
55.343045 85.601 -6.6243
55.744084 85.591 -6.7966
56.148028 85.578 -6.9797
56.554900 85.563 -7.1645
56.964720 85.545 -7.3419
57.377510 85.525 -7.5050
57.793291 85.504 -7.6497
58.212085 85.483 -7.7754
58.633914 85.464 -7.8855
59.058799 85.445 -7.9857
59.486764 85.429 -8.0822
59.917829 85.413 -8.1788
60.352019 85.398 -8.2770
60.789354 85.384 -8.3756
61.229859 85.370 -8.4732
61.673556 85.357 -8.5693
62.120468 85.345 -8.6655
62.570618 85.335 -8.7661
63.024031 85.327 -8.8766
63.480729 85.320 -9.0027
63.940736 85.314 -9.1469
64.404077 85.307 -9.3079
64.870776 85.298 -9.4802
65.340856 85.287 -9.6560
65.814343 85.274 -9.8265
66.291261 85.258 -9.9842
66.771635 85.242 -10.1240
67.255489 85.226 -10.2457
67.742850 85.212 -10.3535
68.233743 85.199 -10.4540
68.728193 85.187 -10.5537
69.226226 85.175 -10.6569
69.727867 85.163 -10.7656
70.233144 85.150 -10.8802
70.742083 85.134 -10.9979
71.254709 85.117 -11.1133
71.771050 85.097 -11.2206
72.291132 85.077 -11.3174
72.814984 85.056 -11.4060
73.342631 85.037 -11.4922
73.874102 85.018 -11.5811
74.409424 85.000 -11.6760
74.948626 84.983 -11.7789
75.491734 84.965 -11.8917
76.038779 84.948 -12.0146
76.589787 84.929 -12.1433
77.144788 84.910 -12.2689
77.703811 84.890 -12.3821
78.266885 84.871 -12.4790
78.834039 84.855 -12.5649
79.405303 84.843 -12.6511
79.980706 84.834 -12.7495
80.560280 84.826 -12.8680
81.144053 84.818 -13.0087
81.732056 84.808 -13.1665
82.324320 84.794 -13.3308
82.920876 84.778 -13.4896
83.521755 84.759 -13.6348
84.126988 84.739 -13.7635
84.736607 84.719 -13.8768
85.350643 84.699 -13.9769
85.969129 84.680 -14.0663
86.592097 84.662 -14.1467
87.219579 84.644 -14.2187
87.851608 84.628 -14.2816
88.488217 84.613 -14.3357
89.129439 84.599 -14.3834
89.775308 84.586 -14.4279
90.425856 84.573 -14.4725
91.081119 84.561 -14.5198
91.741131 84.548 -14.5704
92.405925 84.533 -14.6221
93.075536 84.518 -14.6714
93.750000 84.503 -14.7185
94.429351 84.488 -14.7682
95.113625 84.474 -14.8275
95.802858 84.460 -14.9006
96.497085 84.445 -14.9894
97.196342 84.430 -15.0925
97.900667 84.412 -15.2040
98.610096 84.392 -15.3129
99.324665 84.371 -15.4092
100.044413 84.350 -15.4894
100.769376 84.331 -15.5580
101.499592 84.313 -15.6234
102.235100 84.298 -15.6937
102.975938 84.283 -15.7721
103.722144 84.268 -15.8575
104.473757 84.254 -15.9462
105.230817 84.239 -16.0339
105.993363 84.224 -16.1167
106.761435 84.210 -16.1910
107.535072 84.196 -16.2544
108.314315 84.184 -16.3069
109.099206 84.173 -16.3515
109.889783 84.162 -16.3906
110.686090 84.151 -16.4226
111.488167 84.138 -16.4429
112.296056 84.123 -16.4497
113.109800 84.107 -16.4457
113.929440 84.090 -16.4358
114.755020 84.071 -16.4250
115.586582 84.051 -16.4182
116.424170 84.032 -16.4207
117.267827 84.014 -16.4403
118.117598 83.997 -16.4846
118.973527 83.981 -16.5524
119.835658 83.966 -16.6328
120.704037 83.952 -16.7102
121.578708 83.940 -16.7712
122.459718 83.931 -16.8086
123.347111 83.926 -16.8239
124.240935 83.925 -16.8258
125.141236 83.925 -16.8253
126.048061 83.924 -16.8299
126.961458 83.922 -16.8412
127.881473 83.914 -16.8553
128.808154 83.903 -16.8654
129.741551 83.887 -16.8663
130.681712 83.867 -16.8577
131.628686 83.845 -16.8412
132.582521 83.819 -16.8160
133.543269 83.792 -16.7795
134.510979 83.765 -16.7325
135.485701 83.738 -16.6819
136.467486 83.715 -16.6400
137.456386 83.695 -16.6204
138.452451 83.679 -16.6300
139.455735 83.666 -16.6638
140.466288 83.655 -16.7106
141.484165 83.647 -16.7604
142.509418 83.640 -16.8066
143.542100 83.635 -16.8463
144.582265 83.630 -16.8776
145.629968 83.623 -16.8995
146.685262 83.614 -16.9119
147.748204 83.603 -16.9161
148.818849 83.589 -16.9150
149.897251 83.575 -16.9114
150.983469 83.561 -16.9086
152.077557 83.547 -16.9116
153.179574 83.534 -16.9237
154.289576 83.521 -16.9412
155.407622 83.507 -16.9525
156.533770 83.491 -16.9454
157.668078 83.476 -16.9165
158.810606 83.462 -16.8752
159.961413 83.448 -16.8353
161.120559 83.433 -16.8047
162.288105 83.416 -16.7834
163.464112 83.397 -16.7655
164.648640 83.377 -16.7434
165.841752 83.357 -16.7114
167.043510 83.338 -16.6685
168.253976 83.322 -16.6187
169.473213 83.307 -16.5699
170.701286 83.294 -16.5319
171.938258 83.282 -16.5101
173.184194 83.270 -16.5029
174.439158 83.258 -16.5016
175.703216 83.247 -16.4962
176.976434 83.235 -16.4819
178.258878 83.223 -16.4554
179.550615 83.209 -16.4139
180.851713 83.193 -16.3571
182.162239 83.174 -16.2891
183.482262 83.154 -16.2164
184.811850 83.133 -16.1437
186.151073 83.112 -16.0708
187.500000 83.093 -15.9930
188.858702 83.075 -15.9026
190.227250 83.057 -15.7896
191.605715 83.039 -15.6456
192.994169 83.019 -15.4677
194.392685 82.998 -15.2605
195.801334 82.976 -15.0364
197.220191 82.956 -14.8099
198.649330 82.940 -14.5917
200.088825 82.928 -14.3883
201.538751 82.923 -14.2029
202.999184 82.923 -14.0349
204.470200 82.929 -13.8792
205.951875 82.938 -13.7312
207.444287 82.952 -13.5931
208.947514 82.969 -13.4759
210.461634 82.988 -13.3936
211.986726 83.007 -13.3518
213.522869 83.023 -13.3438
215.070144 83.035 -13.3540
216.628631 83.042 -13.3669
218.198411 83.047 -13.3732
219.779567 83.049 -13.3703
221.372180 83.051 -13.3599
222.976334 83.052 -13.3466
224.592112 83.052 -13.3350
226.219600 83.051 -13.3271
227.858880 83.048 -13.3223
229.510039 83.043 -13.3177
231.173164 83.036 -13.3103
232.848340 83.028 -13.2971
234.535655 83.021 -13.2767
236.235197 83.017 -13.2481
237.947054 83.014 -13.2094
239.671317 83.011 -13.1582
241.408074 83.006 -13.0912
243.157416 82.999 -13.0052
244.919435 82.989 -12.9032
246.694223 82.978 -12.7943
248.481871 82.968 -12.6871
250.282473 82.959 -12.5833
252.096123 82.952 -12.4786
253.922915 82.948 -12.3679
255.762945 82.946 -12.2493
257.616309 82.946 -12.1266
259.483103 82.947 -12.0058
261.363424 82.949 -11.8917
263.257372 82.952 -11.7852
265.165043 82.957 -11.6845
267.086538 82.962 -11.5884
269.021957 82.969 -11.4976
270.971401 82.977 -11.4127
272.934972 82.984 -11.3345
274.912771 82.990 -11.2646
276.904902 82.992 -11.2058
278.911469 82.993 -11.1589
280.932577 82.992 -11.1192
282.968330 82.992 -11.0798
285.018835 82.992 -11.0375
287.084199 82.993 -10.9927
289.164530 82.994 -10.9460
291.259935 82.993 -10.8973
293.370525 82.991 -10.8450
295.496408 82.988 -10.7854
297.637697 82.985 -10.7175
299.794503 82.982 -10.6442
301.966937 82.980 -10.5709
304.155114 82.979 -10.5029
306.359147 82.980 -10.4412
308.579152 82.983 -10.3838
310.815244 82.986 -10.3306
313.067539 82.989 -10.2870
315.336156 82.992 -10.2590
317.621211 82.995 -10.2467
319.922826 82.997 -10.2461
322.241118 82.997 -10.2519
324.576210 82.995 -10.2592
326.928223 82.991 -10.2643
329.297280 82.986 -10.2657
331.683504 82.980 -10.2655
334.087019 82.973 -10.2686
336.507952 82.966 -10.2805
338.946427 82.958 -10.3041
341.402572 82.949 -10.3372
343.876516 82.940 -10.3740
346.368387 82.929 -10.4108
348.878315 82.918 -10.4500
351.406431 82.908 -10.4988
353.952867 82.897 -10.5632
356.517756 82.887 -10.6447
359.101230 82.876 -10.7406
361.703426 82.866 -10.8448
364.324478 82.855 -10.9485
366.964523 82.844 -11.0429
369.623699 82.832 -11.1217
372.302145 82.820 -11.1795
375.000000 82.808 -11.2130
377.717405 82.795 -11.2230
380.454501 82.781 -11.2166
383.211431 82.768 -11.2044
385.988339 82.754 -11.1976
388.785369 82.741 -11.2017
391.602668 82.726 -11.2147
394.440383 82.709 -11.2297
397.298660 82.693 -11.2385
400.177650 82.677 -11.2347
403.077502 82.664 -11.2166
405.998368 82.655 -11.1852
408.940400 82.648 -11.1418
411.903750 82.645 -11.0842
414.888575 82.644 -11.0103
417.895028 82.643 -10.9244
420.923268 82.642 -10.8395
423.973452 82.642 -10.7693
427.045738 82.642 -10.7215
430.140287 82.642 -10.6959
433.257261 82.644 -10.6880
436.396822 82.647 -10.6917
439.559133 82.651 -10.7015
442.744360 82.656 -10.7156
445.952668 82.661 -10.7354
449.184225 82.667 -10.7629
452.439199 82.675 -10.7979
455.717760 82.685 -10.8380
459.020079 82.697 -10.8810
462.346327 82.709 -10.9260
465.696680 82.722 -10.9736
469.071310 82.734 -11.0251
472.470394 82.745 -11.0802
475.894109 82.753 -11.1355
479.342634 82.757 -11.1879
482.816148 82.759 -11.2360
486.314833 82.760 -11.2822
489.838871 82.759 -11.3300
493.388445 82.759 -11.3812
496.963741 82.758 -11.4345
500.564945 82.757 -11.4871
504.192245 82.756 -11.5341
507.845830 82.756 -11.5718
511.525890 82.755 -11.6008
515.232618 82.755 -11.6252
518.966206 82.756 -11.6503
522.726849 82.759 -11.6814
526.514743 82.763 -11.7217
530.330086 82.767 -11.7721
534.173076 82.772 -11.8311
538.043915 82.776 -11.8958
541.942803 82.779 -11.9630
545.869944 82.782 -12.0327
549.825542 82.784 -12.1077
553.809805 82.786 -12.1901
557.822939 82.788 -12.2785
561.865154 82.791 -12.3671
565.936660 82.792 -12.4485
570.037671 82.792 -12.5162
574.168399 82.791 -12.5667
578.329060 82.789 -12.5999
582.519870 82.788 -12.6208
586.741049 82.787 -12.6387
590.992817 82.788 -12.6643
595.275394 82.789 -12.7083
599.589005 82.791 -12.7762
603.933874 82.792 -12.8666
608.310228 82.794 -12.9717
612.718295 82.796 -13.0831
617.158304 82.796 -13.1935
621.630488 82.796 -13.2949
626.135079 82.795 -13.3789
630.672311 82.794 -13.4405
635.242423 82.794 -13.4814
639.845651 82.795 -13.5087
644.482237 82.796 -13.5305
649.152421 82.798 -13.5539
653.856447 82.801 -13.5831
658.594560 82.805 -13.6193
663.367008 82.811 -13.6627
668.174039 82.817 -13.7163
673.015903 82.824 -13.7825
677.892854 82.829 -13.8580
682.805145 82.833 -13.9355
687.753032 82.834 -14.0100
692.736774 82.835 -14.0797
697.756631 82.836 -14.1409
702.812863 82.836 -14.1878
707.905735 82.837 -14.2168
713.035511 82.837 -14.2292
718.202461 82.836 -14.2334
723.406852 82.834 -14.2411
728.648956 82.832 -14.2643
733.929047 82.832 -14.3091
739.247399 82.834 -14.3743
744.604290 82.840 -14.4540
750.000000 82.848 -14.5409
755.434809 82.858 -14.6270
760.909001 82.869 -14.7049
766.422861 82.879 -14.7717
771.976677 82.887 -14.8298
777.570739 82.893 -14.8813
783.205337 82.898 -14.9259
788.880766 82.904 -14.9613
794.597321 82.912 -14.9879
800.355301 82.921 -15.0074
806.155005 82.931 -15.0210
811.996736 82.944 -15.0288
817.880799 82.957 -15.0364
823.807501 82.970 -15.0551
829.777150 82.983 -15.0923
835.790057 82.997 -15.1456
841.846536 83.012 -15.2047
847.946903 83.030 -15.2579
854.091476 83.050 -15.2976
860.280575 83.072 -15.3250
866.514523 83.095 -15.3481
872.793644 83.119 -15.3755
879.118267 83.144 -15.4114
885.488720 83.167 -15.4547
891.905336 83.190 -15.5009
898.368450 83.211 -15.5461
904.878398 83.231 -15.5887
911.435520 83.251 -15.6298
918.040157 83.271 -15.6709
924.692655 83.292 -15.7141
931.393359 83.317 -15.7633
938.142619 83.344 -15.8253
944.940787 83.375 -15.9071
951.788218 83.410 -16.0101
958.685268 83.446 -16.1282
965.632296 83.484 -16.2504
972.629666 83.523 -16.3652
979.677741 83.562 -16.4651
986.776890 83.600 -16.5486
993.927482 83.638 -16.6199
1001.129891 83.677 -16.6876
1008.384491 83.717 -16.7631
1015.691660 83.758 -16.8585
1023.051781 83.800 -16.9835
1030.465236 83.841 -17.1431
1037.932411 83.882 -17.3357
1045.453698 83.922 -17.5529
1053.029486 83.962 -17.7812
1060.660172 84.004 -18.0066
1068.346153 84.048 -18.2217
1076.087829 84.095 -18.4307
1083.885605 84.144 -18.6447
1091.739887 84.196 -18.8748
1099.651084 84.249 -19.1272
1107.619609 84.302 -19.3997
1115.645878 84.356 -19.6837
1123.730308 84.409 -19.9711
1131.873321 84.461 -20.2595
1140.075341 84.511 -20.5519
1148.336797 84.558 -20.8515
1156.658119 84.604 -21.1602
1165.039741 84.649 -21.4808
1173.482099 84.693 -21.8158
1181.985634 84.738 -22.1643
1190.550789 84.783 -22.5225
1199.178011 84.830 -22.8857
1207.867749 84.876 -23.2504
1216.620457 84.922 -23.6157
1225.436590 84.967 -23.9847
1234.316609 85.012 -24.3622
1243.260976 85.057 -24.7512
1252.270157 85.103 -25.1509
1261.344623 85.150 -25.5585
1270.484846 85.196 -25.9714
1279.691303 85.242 -26.3882
1288.964474 85.285 -26.8082
1298.304842 85.327 -27.2316
1307.712894 85.366 -27.6604
1317.189120 85.405 -28.0980
1326.734016 85.442 -28.5455
1336.348077 85.478 -28.9996
1346.031806 85.514 -29.4562
1355.785708 85.550 -29.9136
1365.610290 85.584 -30.3749
1375.506065 85.618 -30.8453
1385.473549 85.652 -31.3273
1395.513261 85.685 -31.8186
1405.625726 85.720 -32.3135
1415.811469 85.756 -32.8068
1426.071023 85.793 -33.2939
1436.404921 85.830 -33.7733
1446.813703 85.869 -34.2481
1457.297912 85.908 -34.7262
1467.858093 85.949 -35.2144
1478.494798 85.991 -35.7123
1489.208581 86.035 -36.2145
1500.000000 86.079 -36.7155
1510.869618 86.123 -37.2129
1521.818002 86.165 -37.7088
1532.845723 86.206 -38.2086
1543.953355 86.245 -38.7183
1555.141477 86.282 -39.2415
1566.410674 86.317 -39.7770
1577.761531 86.350 -40.3229
1589.194642 86.383 -40.8790
1600.710601 86.414 -41.4464
1612.310010 86.446 -42.0229
1623.993473 86.477 -42.6031
1635.761599 86.510 -43.1786
1647.615002 86.544 -43.7384
1659.554299 86.579 -44.2703
1671.580114 86.615 -44.7626
1683.693072 86.655 -45.2062
1695.893807 86.698 -45.5936
1708.182952 86.744 -45.9183
1720.561150 86.793 -46.1757
1733.029045 86.844 -46.3643
1745.587288 86.897 -46.4872
1758.236533 86.950 -46.5526
1770.977440 87.002 -46.5730
1783.810673 87.054 -46.5602
1796.736900 87.106 -46.5240
1809.756796 87.155 -46.4741
1822.871040 87.203 -46.4193
1836.080315 87.251 -46.3656
1849.385310 87.298 -46.3138
1862.786718 87.347 -46.2621
1876.285239 87.397 -46.2065
1889.881575 87.448 -46.1426
1903.576436 87.502 -46.0693
1917.370535 87.558 -45.9895
1931.264593 87.616 -45.9092
1945.259332 87.675 -45.8350
1959.355483 87.734 -45.7716
1973.553781 87.793 -45.7188
1987.854965 87.851 -45.6715
2002.259781 87.905 -45.6235
2016.768981 87.956 -45.5682
2031.383320 88.004 -45.4993
2046.103561 88.050 -45.4124
2060.930471 88.095 -45.3066
2075.864823 88.141 -45.1868
2090.907395 88.189 -45.0621
2106.058972 88.238 -44.9443
2121.320344 88.290 -44.8402
2136.692305 88.345 -44.7432
2152.175658 88.404 -44.6371
2167.771210 88.465 -44.5120
2183.479774 88.528 -44.3703
2199.302169 88.592 -44.2217
2215.239219 88.656 -44.0703
2231.291755 88.724 -43.9085
2247.460615 88.795 -43.7228
2263.746641 88.872 -43.5067
2280.150683 88.956 -43.2645
2296.673595 89.047 -43.0082
2313.316238 89.145 -42.7543
2330.079481 89.249 -42.5250
2346.964198 89.358 -42.3419
2363.971268 89.472 -42.2185
2381.101578 89.589 -42.1567
2398.356022 89.708 -42.1527
2415.735498 89.828 -42.2031
2433.240913 89.945 -42.3065
2450.873180 90.057 -42.4601
2468.633217 90.164 -42.6583
2486.521951 90.264 -42.8939
2504.540314 90.358 -43.1574
2522.689246 90.446 -43.4382
2540.969692 90.528 -43.7286
2559.382606 90.604 -44.0234
2577.928947 90.676 -44.3175
2596.609683 90.745 -44.6063
2615.425787 90.810 -44.8878
2634.378241 90.873 -45.1620
2653.468031 90.933 -45.4307
2672.696154 90.991 -45.6978
2692.063613 91.045 -45.9696
2711.571415 91.096 -46.2543
2731.220579 91.143 -46.5566
2751.012130 91.187 -46.8756
2770.947098 91.229 -47.2070
2791.026522 91.269 -47.5474
2811.251451 91.305 -47.8909
2831.622938 91.336 -48.2270
2852.142045 91.363 -48.5457
2872.809842 91.386 -48.8423
2893.627406 91.405 -49.1187
2914.595823 91.420 -49.3809
2935.716186 91.428 -49.6345
2956.989596 91.430 -49.8841
2978.417161 91.426 -50.1329
3000.000000 91.418 -50.3831
3021.739237 91.405 -50.6340
3043.636005 91.389 -50.8813
3065.691446 91.370 -51.1169
3087.906710 91.347 -51.3348
3110.282955 91.319 -51.5323
3132.821347 91.286 -51.7041
3155.523062 91.249 -51.8428
3178.389283 91.207 -51.9454
3201.421202 91.161 -52.0129
3224.620020 91.110 -52.0438
3247.986946 91.054 -52.0346
3271.523198 90.993 -51.9827
3295.230004 90.927 -51.8879
3319.108599 90.856 -51.7502
3343.160228 90.782 -51.5684
3367.386145 90.705 -51.3394
3391.787613 90.628 -51.0574
3416.365904 90.550 -50.7161
3441.122300 90.474 -50.3124
3466.058091 90.400 -49.8489
3491.174576 90.328 -49.3334
3516.473066 90.261 -48.7775
3541.954880 90.199 -48.1937
3567.621345 90.141 -47.5913
3593.473800 90.087 -46.9747
3619.513592 90.034 -46.3447
3645.742080 89.981 -45.6992
3672.160630 89.927 -45.0352
3698.770620 89.874 -44.3541
3725.573436 89.821 -43.6625
3752.570477 89.768 -42.9683
3779.763150 89.713 -42.2762
3807.152872 89.657 -41.5847
3834.741071 89.599 -40.8866
3862.529185 89.541 -40.1736
3890.518664 89.484 -39.4371
3918.710966 89.429 -38.6681
3947.107561 89.376 -37.8604
3975.709929 89.323 -37.0126
4004.519563 89.270 -36.1245
4033.537962 89.219 -35.1957
4062.766641 89.169 -34.2294
4092.207123 89.122 -33.2300
4121.860942 89.076 -32.2013
4151.729646 89.033 -31.1483
4181.814790 88.991 -30.0794
4212.117944 88.950 -29.0042
4242.640687 88.911 -27.9301
4273.384610 88.875 -26.8620
4304.351317 88.840 -25.8035
4335.542421 88.808 -24.7567
4366.959549 88.776 -23.7206
4398.604338 88.746 -22.6936
4430.478438 88.716 -21.6743
4462.583511 88.685 -20.6636
4494.921231 88.650 -19.6650
4527.493283 88.612 -18.6819
4560.301365 88.568 -17.7147
4593.347189 88.520 -16.7617
4626.632476 88.465 -15.8203
4660.158962 88.404 -14.8889
4693.928395 88.336 -13.9654
4727.942535 88.261 -13.0483
4762.203156 88.178 -12.1377
4796.712043 88.087 -11.2357
4831.470996 87.987 -10.3481
4866.481826 87.878 -9.4849
4901.746360 87.758 -8.6633
4937.266434 87.625 -7.9116
4973.043902 87.479 -7.2678
5009.080628 87.319 -6.7714
5045.378492 87.143 -6.4489
5081.939384 86.953 -6.3024
5118.765212 86.753 -6.3052
5155.857894 86.543 -6.4067
5193.219366 86.325 -6.5465
5230.851574 86.102 -6.6683
5268.756481 85.873 -6.7279
5306.936062 85.641 -6.6957
5345.392309 85.407 -6.5538
5384.127225 85.173 -6.2931
5423.142830 84.944 -5.9124
5462.441159 84.720 -5.4199
5502.024259 84.505 -4.8308
5541.894195 84.299 -4.1611
5582.053045 84.105 -3.4232
5622.502902 83.924 -2.6247
5663.245876 83.756 -1.7702
5704.284090 83.602 -0.8646
5745.619684 83.463 0.0853
5787.254813 83.339 1.0704
5829.191647 83.229 2.0787
5871.432373 83.133 3.0963
5913.979192 83.050 4.1107
5956.834323 82.980 5.1135
6000.000000 82.922 6.0981
6043.478473 82.874 7.0591
6087.272010 82.836 7.9919
6131.382892 82.806 8.8931
6175.813420 82.784 9.7588
6220.565910 82.770 10.5870
6265.642695 82.761 11.3781
6311.046124 82.758 12.1339
6356.778566 82.759 12.8561
6402.842404 82.764 13.5454
6449.240040 82.773 14.2031
6495.973891 82.784 14.8317
6543.046396 82.799 15.4347
6590.460007 82.815 16.0142
6638.217197 82.834 16.5713
6686.320456 82.856 17.1074
6734.772290 82.881 17.6243
6783.575226 82.912 18.1240
6832.731809 82.948 18.6077
6882.244600 82.990 19.0767
6932.116181 83.041 19.5332
6982.349153 83.101 19.9771
7032.946133 83.171 20.4033
7083.909760 83.253 20.8040
7135.242690 83.349 21.1707
7186.947600 83.463 21.4932
7239.027185 83.596 21.7568
7291.484160 83.753 21.9387
7344.321260 83.935 22.0033
7397.541239 84.143 21.8988
7451.146872 84.375 21.5596
7505.140954 84.628 20.9165
7559.526299 84.893 19.9079
7614.305743 85.157 18.4891
7669.482141 85.403 16.6396
7725.058371 85.616 14.3685
7781.037328 85.778 11.7157
7837.421932 85.875 8.7505
7894.215122 85.895 5.5673
7951.419859 85.833 2.2773
8009.039125 85.688 -1.0032
8067.075924 85.464 -4.1653
8125.533282 85.170 -7.1183
8184.414245 84.816 -9.7948
8243.721885 84.414 -12.1529
8303.459292 83.975 -14.1741
8363.629581 83.510 -15.8588
8424.235888 83.027 -17.2200
8485.281374 82.534 -18.2760
8546.769221 82.035 -19.0458
8608.702634 81.537 -19.5475
8671.084842 81.041 -19.7982
8733.919097 80.552 -19.8162
8797.208675 80.072 -19.6202
8860.956876 79.602 -19.2298
8925.167022 79.143 -18.6638
8989.842461 78.696 -17.9378
9054.986566 78.262 -17.0624
9120.602731 77.843 -16.0457
9186.694378 77.438 -14.8962
9253.264952 77.049 -13.6238
9320.317925 76.676 -12.2401
9387.856790 76.320 -10.7592
9455.885071 75.981 -9.1957
9524.406312 75.659 -7.5611
9593.424086 75.352 -5.8619
9662.941992 75.059 -4.1024
9732.963653 74.779 -2.2863
9803.492719 74.510 -0.4147
9874.532869 74.255 1.5143
9946.087805 74.012 3.5044
10018.161257 73.783 5.5596
10090.756983 73.567 7.6831
10163.878768 73.365 9.8773
10237.530423 73.179 12.1426
10311.715789 73.009 14.4761
10386.438732 72.857 16.8699
10461.703149 72.726 19.3126
10537.512962 72.615 21.7912
10613.872125 72.526 24.2944
10690.784618 72.458 26.8137
10768.254450 72.412 29.3428
10846.285661 72.387 31.8776
10924.882318 72.384 34.4162
11004.048518 72.403 36.9579
11083.788390 72.444 39.5003
11164.106090 72.510 42.0369
11245.005805 72.601 44.5584
11326.491752 72.719 47.0559
11408.568180 72.864 49.5225
11491.239368 73.038 51.9484
11574.509626 73.244 54.3152
11658.383294 73.484 56.5979
11742.864745 73.760 58.7716
11827.958384 74.072 60.8132
11913.668646 74.419 62.6975
12000.000000 74.803 64.3967
12086.956947 75.223 65.8833
12174.544019 75.680 67.1331
12262.765784 76.174 68.1215
12351.626840 76.706 68.8152
12441.131819 77.275 69.1690
12531.285389 77.878 69.1255
12622.092249 78.512 68.6193
12713.557132 79.171 67.5808
12805.684808 79.846 65.9380
12898.480079 80.522 63.6200
12991.947783 81.181 60.5639
13086.092792 81.800 56.7261
13180.920015 82.351 52.0962
13276.434395 82.804 46.7135
13372.640911 83.126 40.6792
13469.544580 83.288 34.1608
13567.150452 83.267 27.3896
13665.463617 83.049 20.6436
13764.489200 82.633 14.2181
13864.232362 82.035 8.3918
13964.698305 81.280 3.3971
14065.892266 80.403 -0.5950
14167.819519 79.442 -3.4792
14270.485380 78.437 -5.2149
14373.895200 77.427 -5.8245
14478.054370 76.450 -5.3909
14582.968320 75.539 -4.0458
14688.642520 74.720 -1.9511
14795.082478 74.013 0.7227
14902.293745 73.430 3.8148
15010.281908 72.978 7.1838
15119.052599 72.658 10.7070
15228.611486 72.474 14.2712
15338.964283 72.427 17.7650
15450.116741 72.517 21.0703
15562.074656 72.746 24.0535
15674.843864 73.114 26.5609
15788.430244 73.616 28.4175
15902.839718 74.239 29.4308
16018.078250 74.958 29.4062
16134.151848 75.736 28.1717
16251.066563 76.523 25.6014
16368.828491 77.262 21.6350
16487.443769 77.891 16.2992
16606.918584 78.350 9.7360
16727.259161 78.587 2.2237
16848.471777 78.564 -5.8322
16970.562748 78.265 -13.9518
17093.538442 77.699 -21.6686
17217.405268 76.896 -28.6065
17342.169684 75.898 -34.5109
17467.838194 74.751 -39.2451
17594.417350 73.502 -42.7710
17721.913751 72.196 -45.1240
17850.334044 70.876 -46.3922
17979.684923 69.577 -46.7003
18109.973131 68.330 -46.1969
18241.205462 67.156 -45.0426
18373.388756 66.068 -43.3951
18506.529905 65.075 -41.3990
18640.635849 64.174 -39.1780
18775.713581 63.359 -36.8278
18911.770141 62.621 -34.4156
19048.812624 61.948 -31.9901
19186.848172 61.334 -29.5920
19325.883983 60.773 -27.2640
19465.927305 60.267 -25.0596
19606.985439 59.823 -23.0539
19749.065738 59.455 -21.3504
19892.175609 59.189 -20.0823
20036.322514 59.048 -19.3953
