* Measurement data measured by REW V5.31.3
* Source: Headset (2- CX31993 HIFI AUDIO), MICROPHONE (Master Volume), R, volume: 0.300
* Format: 256k Log Swept Sine, 1 sweep at -11.9 dBFS with no timing reference
* Dated: 09 24, 25 1:46:44 PM
* REW Settings:
*  C-weighting compensation: Off
*  Target level: 75.0 dB
* Note: ; 
* Measurement: Moondrop Lan2 Pop L
* Smoothing: 1/12 octave
* Frequency Step: 96 ppo
* Start Frequency: 0.36621094 Hz
*
* Freq(Hz) SPL(dB) Phase(degrees)
0.366211 31.673 -60.7989
0.368865 31.688 -60.8839
0.371538 31.711 -61.0104
0.374230 31.740 -61.1673
0.376942 31.772 -61.3455
0.379673 31.806 -61.5381
0.382424 31.842 -61.7407
0.385196 31.878 -61.9504
0.387987 31.915 -62.1656
0.390798 31.953 -62.3854
0.393630 31.991 -62.6094
0.396483 32.030 -62.8372
0.399356 32.068 -63.0687
0.402250 32.108 -63.3038
0.405165 32.147 -63.5425
0.408101 32.186 -63.7846
0.411058 32.226 -64.0303
0.414037 32.266 -64.2793
0.417037 32.307 -64.5318
0.420059 32.348 -64.7877
0.423103 32.389 -65.0469
0.426169 32.430 -65.3095
0.429257 32.472 -65.5753
0.432368 32.514 -65.8444
0.435501 32.556 -66.1167
0.438656 32.599 -66.3923
0.441835 32.641 -66.6709
0.445037 32.685 -66.9528
0.448262 32.728 -67.2377
0.451510 32.772 -67.5256
0.454782 32.816 -67.8166
0.458077 32.861 -68.1106
0.461397 32.905 -68.4076
0.464740 32.950 -68.7075
0.468108 32.996 -69.0103
0.471500 33.042 -69.3160
0.474917 33.088 -69.6246
0.478358 33.134 -69.9359
0.481825 33.181 -70.2501
0.485316 33.228 -70.5671
0.488833 33.275 -70.8868
0.492375 33.323 -71.2092
0.495943 33.371 -71.5344
0.499537 33.420 -71.8623
0.503157 33.469 -72.1928
0.506803 33.518 -72.5261
0.510475 33.567 -72.8620
0.514175 33.617 -73.2006
0.517900 33.668 -73.5419
0.521653 33.718 -73.8858
0.525434 33.769 -74.2325
0.529241 33.821 -74.5818
0.533076 33.872 -74.9338
0.536939 33.924 -75.2885
0.540830 33.977 -75.6460
0.544749 34.030 -76.0062
0.548696 34.083 -76.3693
0.552673 34.137 -76.7352
0.556677 34.191 -77.1039
0.560711 34.245 -77.4755
0.564774 34.300 -77.8501
0.568867 34.355 -78.2277
0.572989 34.411 -78.6084
0.577141 34.467 -78.9921
0.581324 34.523 -79.3791
0.585536 34.580 -79.7694
0.589779 34.637 -80.1630
0.594053 34.695 -80.5601
0.598358 34.753 -80.9606
0.602694 34.812 -81.3649
0.607061 34.870 -81.7728
0.611460 34.930 -82.1846
0.615891 34.990 -82.6004
0.620354 35.050 -83.0202
0.624849 35.110 -83.4443
0.629377 35.172 -83.8728
0.633938 35.233 -84.3057
0.638532 35.295 -84.7434
0.643159 35.358 -85.1859
0.647819 35.420 -85.6333
0.652514 35.484 -86.0860
0.657242 35.548 -86.5441
0.662005 35.612 -87.0078
0.666802 35.677 -87.4772
0.671634 35.742 -87.9527
0.676501 35.807 -88.4344
0.681403 35.874 -88.9226
0.686341 35.940 -89.4176
0.691314 36.007 -89.9195
0.696324 36.075 -90.4286
0.701370 36.143 -90.9452
0.706452 36.211 -91.4695
0.711571 36.280 -92.0017
0.716728 36.349 -92.5417
0.721921 36.419 -93.0896
0.727153 36.489 -93.6451
0.732422 36.558 -94.2075
0.737729 36.628 -94.7760
0.743075 36.698 -95.3499
0.748460 36.768 -95.9281
0.753883 36.838 -96.5101
0.759346 36.908 -97.0951
0.764849 36.978 -97.6829
0.770391 37.049 -98.2731
0.775974 37.120 -98.8654
0.781597 37.191 -99.4595
0.787261 37.263 -100.0554
0.792966 37.335 -100.6528
0.798712 37.407 -101.2517
0.804500 37.480 -101.8519
0.810329 37.553 -102.4534
0.816201 37.626 -103.0561
0.822116 37.700 -103.6601
0.828073 37.774 -104.2652
0.834074 37.849 -104.8715
0.840118 37.924 -105.4791
0.846206 37.999 -106.0881
0.852338 38.075 -106.6984
0.858514 38.152 -107.3102
0.864735 38.229 -107.9236
0.871001 38.306 -108.5389
0.877313 38.384 -109.1561
0.883670 38.462 -109.7754
0.890074 38.541 -110.3971
0.896524 38.620 -111.0214
0.903020 38.700 -111.6485
0.909564 38.780 -112.2788
0.916155 38.861 -112.9125
0.922794 38.943 -113.5500
0.929481 39.025 -114.1915
0.936216 39.108 -114.8375
0.943000 39.191 -115.4884
0.949834 39.275 -116.1444
0.956717 39.360 -116.8062
0.963649 39.445 -117.4740
0.970632 39.531 -118.1484
0.977666 39.618 -118.8298
0.984750 39.706 -119.5187
0.991886 39.794 -120.2158
0.999074 39.883 -120.9214
1.006314 39.974 -121.6362
1.013606 40.064 -122.3608
1.020951 40.156 -123.0957
1.028349 40.249 -123.8417
1.035801 40.343 -124.5992
1.043307 40.437 -125.3689
1.050867 40.533 -126.1514
1.058482 40.629 -126.9474
1.066152 40.727 -127.7572
1.073878 40.826 -128.5813
1.081660 40.925 -129.4194
1.089498 41.026 -130.2714
1.097393 41.128 -131.1362
1.105345 41.231 -132.0126
1.113355 41.335 -132.8988
1.121423 41.440 -133.7933
1.129549 41.545 -134.6946
1.137734 41.652 -135.6015
1.145979 41.760 -136.5132
1.154283 41.869 -137.4289
1.162647 41.979 -138.3480
1.171072 42.089 -139.2701
1.179558 42.201 -140.1947
1.188106 42.314 -141.1217
1.196715 42.427 -142.0506
1.205387 42.542 -142.9813
1.214122 42.658 -143.9137
1.222920 42.775 -144.8477
1.231782 42.893 -145.7831
1.240708 43.011 -146.7200
1.249699 43.131 -147.6585
1.258754 43.252 -148.5986
1.267876 43.374 -149.5405
1.277063 43.497 -150.4843
1.286318 43.622 -151.4301
1.295639 43.747 -152.3784
1.305027 43.873 -153.3293
1.314484 44.001 -154.2832
1.324009 44.129 -155.2404
1.333604 44.259 -156.2013
1.343268 44.390 -157.1662
1.353002 44.522 -158.1358
1.362806 44.655 -159.1103
1.372681 44.789 -160.0902
1.382628 44.925 -161.0761
1.392647 45.061 -162.0683
1.402739 45.199 -163.0673
1.412904 45.338 -164.0735
1.423142 45.478 -165.0868
1.433455 45.620 -166.1073
1.443843 45.763 -167.1343
1.454305 45.907 -168.1667
1.464844 46.052 -169.2025
1.475459 46.199 -170.2394
1.486150 46.348 -171.2749
1.496920 46.498 -172.3069
1.507767 46.649 -173.3339
1.518693 46.803 -174.3548
1.529698 46.958 -175.3694
1.540783 47.114 -176.3774
1.551948 47.272 -177.3790
1.563194 47.432 -178.3748
1.574521 47.593 -179.3651
1.585931 47.755 179.6494
1.597423 47.919 178.6679
1.608999 48.085 177.6898
1.620658 48.251 176.7141
1.632402 48.419 175.7401
1.644232 48.588 174.7666
1.656146 48.759 173.7929
1.668147 48.930 172.8180
1.680235 49.103 171.8408
1.692411 49.276 170.8603
1.704675 49.451 169.8756
1.717028 49.626 168.8856
1.729470 49.803 167.8892
1.742003 49.979 166.8857
1.754626 50.157 165.8741
1.767341 50.335 164.8536
1.780147 50.514 163.8239
1.793047 50.694 162.7847
1.806040 50.873 161.7366
1.819128 51.054 160.6809
1.832310 51.235 159.6196
1.845587 51.417 158.5553
1.858961 51.600 157.4910
1.872432 51.784 156.4291
1.886001 51.969 155.3714
1.899667 52.154 154.3192
1.913433 52.341 153.2730
1.927299 52.529 152.2333
1.941265 52.718 151.2000
1.955332 52.907 150.1728
1.969501 53.098 149.1514
1.983773 53.289 148.1353
1.998148 53.481 147.1237
2.012627 53.673 146.1161
2.027212 53.867 145.1115
2.041902 54.060 144.1092
2.056698 54.255 143.1082
2.071602 54.449 142.1075
2.086614 54.644 141.1063
2.101734 54.840 140.1035
2.116964 55.035 139.0984
2.132304 55.231 138.0901
2.147756 55.427 137.0782
2.163320 55.623 136.0626
2.178996 55.819 135.0436
2.194786 56.015 134.0224
2.210690 56.211 133.0005
2.226710 56.407 131.9800
2.242845 56.604 130.9625
2.259098 56.800 129.9493
2.275468 56.997 128.9413
2.291957 57.194 127.9388
2.308566 57.391 126.9420
2.325295 57.588 125.9504
2.342145 57.785 124.9640
2.359117 57.983 123.9818
2.376212 58.180 123.0035
2.393431 58.378 122.0281
2.410775 58.575 121.0549
2.428244 58.773 120.0830
2.445840 58.971 119.1115
2.463564 59.168 118.1394
2.481416 59.365 117.1660
2.499397 59.563 116.1904
2.517509 59.760 115.2122
2.535752 59.957 114.2314
2.554127 60.154 113.2480
2.572635 60.350 112.2632
2.591277 60.547 111.2780
2.610055 60.743 110.2937
2.628968 60.939 109.3113
2.648019 61.134 108.3317
2.667208 61.329 107.3552
2.686535 61.524 106.3819
2.706003 61.718 105.4118
2.725612 61.912 104.4446
2.745363 62.106 103.4800
2.765257 62.299 102.5173
2.785295 62.492 101.5561
2.805478 62.685 100.5956
2.825808 62.877 99.6350
2.846285 63.070 98.6738
2.866910 63.261 97.7113
2.887685 63.453 96.7470
2.908611 63.644 95.7807
2.929688 63.835 94.8125
2.950917 64.025 93.8430
2.972301 64.215 92.8728
2.993839 64.404 91.9027
3.015534 64.593 90.9335
3.037386 64.781 89.9655
3.059396 64.968 88.9990
3.081565 65.155 88.0342
3.103896 65.341 87.0710
3.126388 65.527 86.1093
3.149043 65.712 85.1487
3.171862 65.897 84.1889
3.194847 66.081 83.2292
3.217998 66.265 82.2693
3.241317 66.448 81.3085
3.264805 66.631 80.3464
3.288463 66.813 79.3829
3.312293 66.995 78.4178
3.336295 67.176 77.4514
3.360471 67.356 76.4840
3.384822 67.535 75.5163
3.409350 67.714 74.5486
3.434056 67.892 73.5812
3.458940 68.069 72.6146
3.484005 68.246 71.6488
3.509252 68.421 70.6838
3.534681 68.597 69.7194
3.560295 68.771 68.7555
3.586094 68.945 67.7916
3.612081 69.118 66.8273
3.638255 69.291 65.8622
3.664620 69.463 64.8959
3.691175 69.634 63.9281
3.717923 69.805 62.9590
3.744864 69.974 61.9886
3.772001 70.143 61.0176
3.799335 70.311 60.0461
3.826866 70.478 59.0747
3.854597 70.644 58.1037
3.882529 70.810 57.1333
3.910664 70.974 56.1635
3.939002 71.138 55.1942
3.967546 71.301 54.2251
3.996296 71.464 53.2559
4.025255 71.625 52.2859
4.054423 71.786 51.3148
4.083804 71.946 50.3424
4.113396 72.105 49.3687
4.143204 72.263 48.3939
4.173227 72.420 47.4185
4.203468 72.576 46.4430
4.233928 72.732 45.4678
4.264609 72.886 44.4933
4.295512 73.039 43.5196
4.326639 73.192 42.5466
4.357992 73.344 41.5740
4.389572 73.495 40.6013
4.421380 73.645 39.6279
4.453419 73.794 38.6535
4.485691 73.942 37.6780
4.518196 74.089 36.7017
4.550936 74.235 35.7249
4.583914 74.380 34.7483
4.617131 74.524 33.7724
4.650589 74.667 32.7976
4.684289 74.809 31.8240
4.718233 74.950 30.8514
4.752424 75.090 29.8795
4.786862 75.229 28.9077
4.821549 75.367 27.9354
4.856488 75.504 26.9626
4.891680 75.640 25.9895
4.927127 75.775 25.0166
4.962831 75.909 24.0443
4.998794 76.042 23.0734
5.035017 76.174 22.1041
5.071503 76.304 21.1367
5.108253 76.434 20.1709
5.145270 76.563 19.2062
5.182555 76.691 18.2421
5.220110 76.817 17.2783
5.257937 76.943 16.3149
5.296038 77.067 15.3525
5.334415 77.190 14.3914
5.373071 77.313 13.4324
5.412006 77.434 12.4757
5.451224 77.554 11.5215
5.490725 77.673 10.5697
5.530514 77.792 9.6198
5.570590 77.909 8.6714
5.610957 78.025 7.7242
5.651616 78.140 6.7788
5.692570 78.254 5.8353
5.733821 78.367 4.8943
5.775370 78.479 3.9563
5.817221 78.590 3.0215
5.859375 78.700 2.0897
5.901834 78.810 1.1605
5.944602 78.918 0.2338
5.987679 79.025 -0.6907
6.031068 79.131 -1.6128
6.074771 79.237 -2.5321
6.118792 79.341 -3.4484
6.163131 79.445 -4.3611
6.207792 79.548 -5.2705
6.252776 79.650 -6.1766
6.298086 79.751 -7.0798
6.343725 79.852 -7.9802
6.389694 79.951 -8.8779
6.435996 80.050 -9.7726
6.482634 80.148 -10.6643
6.529610 80.246 -11.5526
6.576926 80.343 -12.4377
6.624585 80.439 -13.3198
6.672590 80.534 -14.1989
6.720942 80.629 -15.0754
6.769645 80.723 -15.9492
6.818700 80.816 -16.8203
6.868111 80.909 -17.6887
6.917881 81.001 -18.5543
6.968010 81.092 -19.4172
7.018504 81.183 -20.2776
7.069362 81.273 -21.1358
7.120590 81.363 -21.9918
7.172189 81.452 -22.8456
7.224161 81.541 -23.6971
7.276511 81.628 -24.5465
7.329239 81.716 -25.3938
7.382350 81.802 -26.2391
7.435845 81.888 -27.0827
7.489729 81.974 -27.9245
7.544002 82.059 -28.7645
7.598669 82.143 -29.6027
7.653732 82.226 -30.4391
7.709194 82.309 -31.2737
7.765058 82.391 -32.1066
7.821327 82.473 -32.9379
7.878004 82.554 -33.7675
7.935091 82.634 -34.5953
7.992592 82.713 -35.4213
8.050510 82.792 -36.2452
8.108847 82.870 -37.0674
8.167607 82.948 -37.8876
8.226793 83.024 -38.7059
8.286408 83.100 -39.5221
8.346454 83.175 -40.3361
8.406936 83.250 -41.1477
8.467856 83.324 -41.9569
8.529218 83.397 -42.7638
8.591024 83.469 -43.5684
8.653278 83.541 -44.3704
8.715983 83.612 -45.1698
8.779143 83.683 -45.9665
8.842760 83.752 -46.7605
8.906839 83.822 -47.5519
8.971381 83.890 -48.3406
9.036392 83.958 -49.1266
9.101873 84.026 -49.9100
9.167829 84.093 -50.6907
9.234263 84.159 -51.4688
9.301178 84.225 -52.2445
9.368578 84.290 -53.0177
9.436467 84.355 -53.7886
9.504847 84.419 -54.5573
9.573723 84.483 -55.3239
9.643099 84.546 -56.0883
9.712976 84.609 -56.8510
9.783361 84.671 -57.6117
9.854255 84.733 -58.3707
9.925663 84.794 -59.1281
9.997588 84.854 -59.8839
10.070035 84.914 -60.6381
10.143007 84.974 -61.3908
10.216507 85.032 -62.1420
10.290540 85.091 -62.8915
10.365109 85.148 -63.6394
10.440219 85.205 -64.3856
10.515873 85.260 -65.1298
10.592076 85.316 -65.8720
10.668830 85.370 -66.6119
10.746141 85.424 -67.3494
10.824012 85.476 -68.0841
10.902447 85.528 -68.8159
10.981451 85.580 -69.5444
11.061027 85.630 -70.2693
11.141180 85.680 -70.9904
11.221913 85.729 -71.7075
11.303232 85.777 -72.4202
11.385140 85.824 -73.1283
11.467641 85.871 -73.8318
11.550741 85.918 -74.5303
11.634442 85.964 -75.2240
11.718750 86.009 -75.9127
11.803669 86.054 -76.5966
11.889203 86.099 -77.2755
11.975357 86.143 -77.9499
12.062136 86.188 -78.6199
12.149543 86.232 -79.2859
12.237583 86.276 -79.9481
12.326262 86.320 -80.6071
12.415583 86.364 -81.2631
12.505552 86.408 -81.9169
12.596172 86.452 -82.5687
12.687449 86.496 -83.2192
12.779387 86.540 -83.8687
12.871992 86.584 -84.5177
12.965268 86.628 -85.1666
13.059220 86.671 -85.8155
13.153852 86.714 -86.4647
13.249170 86.756 -87.1145
13.345179 86.798 -87.7646
13.441884 86.840 -88.4152
13.539289 86.880 -89.0659
13.637401 86.920 -89.7166
13.736223 86.960 -90.3667
13.835761 86.998 -91.0159
13.936021 87.035 -91.6637
14.037007 87.072 -92.3094
14.138725 87.108 -92.9528
14.241180 87.142 -93.5929
14.344377 87.176 -94.2295
14.448323 87.210 -94.8621
14.553021 87.242 -95.4902
14.658478 87.274 -96.1138
14.764700 87.306 -96.7325
14.871691 87.336 -97.3464
14.979457 87.367 -97.9557
15.088005 87.398 -98.5605
15.197339 87.428 -99.1611
15.307465 87.458 -99.7582
15.418389 87.488 -100.3521
15.530117 87.518 -100.9434
15.642655 87.548 -101.5325
15.756008 87.577 -102.1201
15.870182 87.607 -102.7065
15.985184 87.636 -103.2921
16.101019 87.665 -103.8771
16.217694 87.694 -104.4614
16.335214 87.722 -105.0452
16.453586 87.750 -105.6280
16.572815 87.777 -106.2095
16.692909 87.803 -106.7891
16.813872 87.829 -107.3662
16.935713 87.854 -107.9404
17.058436 87.878 -108.5108
17.182048 87.902 -109.0770
17.306556 87.925 -109.6384
17.431967 87.948 -110.1949
17.558286 87.971 -110.7463
17.685521 87.994 -111.2926
17.813677 88.016 -111.8342
17.942762 88.039 -112.3715
18.072783 88.062 -112.9052
18.203746 88.085 -113.4362
18.335658 88.109 -113.9653
18.468526 88.132 -114.4933
18.602356 88.156 -115.0211
18.737156 88.180 -115.5493
18.872934 88.204 -116.0785
19.009695 88.228 -116.6088
19.147447 88.251 -117.1403
19.286197 88.274 -117.6725
19.425953 88.296 -118.2051
19.566721 88.317 -118.7373
19.708510 88.338 -119.2681
19.851326 88.358 -119.7967
19.995177 88.376 -120.3220
20.140070 88.395 -120.8432
20.286013 88.412 -121.3596
20.433014 88.429 -121.8708
20.581080 88.446 -122.3766
20.730219 88.462 -122.8771
20.880439 88.479 -123.3726
21.031747 88.495 -123.8637
21.184152 88.511 -124.3511
21.337661 88.527 -124.8354
21.492282 88.543 -125.3175
21.648024 88.560 -125.7977
21.804895 88.575 -126.2765
21.962902 88.591 -126.7539
22.122054 88.606 -127.2296
22.282360 88.621 -127.7033
22.443827 88.635 -128.1743
22.606464 88.648 -128.6420
22.770280 88.661 -129.1056
22.935283 88.674 -129.5647
23.101481 88.686 -130.0190
23.268884 88.698 -130.4686
23.437500 88.710 -130.9140
23.607338 88.723 -131.3560
23.778406 88.736 -131.7955
23.950714 88.749 -132.2339
24.124271 88.762 -132.6725
24.299086 88.775 -133.1125
24.475167 88.789 -133.5547
24.652524 88.802 -133.9997
24.831166 88.815 -134.4475
25.011103 88.827 -134.8979
25.192344 88.838 -135.3500
25.374898 88.849 -135.8027
25.558775 88.858 -136.2549
25.743984 88.867 -136.7054
25.930536 88.875 -137.1534
26.118439 88.883 -137.5980
26.307704 88.890 -138.0392
26.498341 88.897 -138.4768
26.690359 88.903 -138.9114
26.883768 88.910 -139.3435
27.078579 88.916 -139.7739
27.274801 88.923 -140.2030
27.472446 88.929 -140.6314
27.671522 88.935 -141.0591
27.872042 88.941 -141.4861
28.074014 88.947 -141.9119
28.277450 88.952 -142.3359
28.482360 88.957 -142.7579
28.688755 88.962 -143.1772
28.896645 88.967 -143.5934
29.106042 88.971 -144.0063
29.316957 88.976 -144.4161
29.529400 88.980 -144.8226
29.743382 88.984 -145.2262
29.958915 88.989 -145.6268
30.176009 88.993 -146.0247
30.394677 88.998 -146.4198
30.614929 89.002 -146.8123
30.836778 89.007 -147.2021
31.060234 89.011 -147.5896
31.285309 89.016 -147.9751
31.512015 89.021 -148.3593
31.740364 89.027 -148.7429
31.970368 89.032 -149.1268
32.202039 89.037 -149.5118
32.435388 89.042 -149.8984
32.670428 89.046 -150.2868
32.907171 89.050 -150.6763
33.145630 89.053 -151.0659
33.385817 89.055 -151.4538
33.627745 89.056 -151.8381
33.871425 89.055 -152.2169
34.116871 89.055 -152.5888
34.364096 89.054 -152.9532
34.613113 89.053 -153.3108
34.863934 89.053 -153.6628
35.116572 89.053 -154.0116
35.371041 89.054 -154.3597
35.627354 89.056 -154.7093
35.885525 89.059 -155.0622
36.145566 89.061 -155.4191
36.407492 89.063 -155.7799
36.671316 89.065 -156.1442
36.937051 89.066 -156.5110
37.204712 89.067 -156.8795
37.474313 89.068 -157.2493
37.745867 89.067 -157.6199
38.019389 89.066 -157.9905
38.294893 89.064 -158.3603
38.572394 89.061 -158.7275
38.851905 89.057 -159.0905
39.133442 89.052 -159.4471
39.417019 89.047 -159.7958
39.702651 89.042 -160.1360
39.990353 89.036 -160.4683
40.280140 89.032 -160.7941
40.572026 89.028 -161.1158
40.866028 89.025 -161.4358
41.162160 89.022 -161.7563
41.460438 89.019 -162.0787
41.760877 89.017 -162.4037
42.063494 89.014 -162.7314
42.368303 89.011 -163.0611
42.675322 89.007 -163.3922
42.984565 89.003 -163.7241
43.296048 88.998 -164.0562
43.609789 88.992 -164.3878
43.925804 88.985 -164.7180
44.244108 88.978 -165.0453
44.564719 88.970 -165.3679
44.887654 88.961 -165.6843
45.212928 88.953 -165.9938
45.540560 88.944 -166.2974
45.870565 88.937 -166.5977
46.202962 88.931 -166.8987
46.537768 88.925 -167.2037
46.875000 88.920 -167.5146
47.214676 88.914 -167.8309
47.556813 88.907 -168.1499
47.901429 88.899 -168.4681
48.248542 88.891 -168.7830
48.598171 88.882 -169.0936
48.950334 88.873 -169.4011
49.305048 88.864 -169.7072
49.662333 88.855 -170.0126
50.022206 88.845 -170.3170
50.384688 88.836 -170.6193
50.749796 88.826 -170.9192
51.117550 88.816 -171.2175
51.487969 88.806 -171.5162
51.861072 88.797 -171.8173
52.236879 88.787 -172.1207
52.615409 88.777 -172.4248
52.996681 88.766 -172.7269
53.380717 88.755 -173.0256
53.767536 88.745 -173.3218
54.157158 88.735 -173.6179
54.549603 88.726 -173.9158
54.944892 88.716 -174.2153
55.343045 88.707 -174.5143
55.744084 88.697 -174.8107
56.148028 88.687 -175.1048
56.554900 88.678 -175.3995
56.964720 88.669 -175.6982
57.377510 88.658 -176.0010
57.793291 88.646 -176.3031
58.212085 88.631 -176.5973
58.633914 88.615 -176.8773
59.058799 88.599 -177.1420
59.486764 88.584 -177.3961
59.917829 88.570 -177.6461
60.352019 88.556 -177.8976
60.789354 88.542 -178.1521
61.229859 88.527 -178.4088
61.673556 88.512 -178.6669
62.120468 88.497 -178.9266
62.570618 88.482 -179.1892
63.024031 88.467 -179.4551
63.480729 88.451 -179.7235
63.940736 88.435 -179.9927
64.404077 88.418 179.7384
64.870776 88.402 179.4702
65.340856 88.386 179.2026
65.814343 88.370 178.9362
66.291261 88.354 178.6709
66.771635 88.338 178.4064
67.255489 88.322 178.1417
67.742850 88.306 177.8772
68.233743 88.289 177.6149
68.728193 88.271 177.3583
69.226226 88.252 177.1109
69.727867 88.234 176.8734
70.233144 88.215 176.6439
70.742083 88.198 176.4178
71.254709 88.181 176.1904
71.771050 88.164 175.9578
72.291132 88.147 175.7196
72.814984 88.128 175.4791
73.342631 88.108 175.2416
73.874102 88.087 175.0099
74.409424 88.066 174.7827
74.948626 88.046 174.5557
75.491734 88.026 174.3243
76.038779 88.005 174.0873
76.589787 87.983 173.8463
77.144788 87.960 173.6052
77.703811 87.935 173.3683
78.266885 87.910 173.1390
78.834039 87.886 172.9182
79.405303 87.862 172.7030
79.980706 87.839 172.4891
80.560280 87.817 172.2725
81.144053 87.796 172.0521
81.732056 87.774 171.8276
82.324320 87.753 171.5989
82.920876 87.730 171.3661
83.521755 87.706 171.1317
84.126988 87.680 170.9006
84.736607 87.652 170.6783
85.350643 87.623 170.4681
85.969129 87.594 170.2690
86.592097 87.566 170.0769
87.219579 87.538 169.8870
87.851608 87.512 169.6953
88.488217 87.487 169.4985
89.129439 87.464 169.2925
89.775308 87.441 169.0721
90.425856 87.419 168.8346
91.081119 87.394 168.5831
91.741131 87.365 168.3273
92.405925 87.333 168.0797
93.075536 87.297 167.8521
93.750000 87.259 167.6541
94.429351 87.219 167.4916
95.113625 87.180 167.3629
95.802858 87.144 167.2580
96.497085 87.111 167.1617
97.196342 87.083 167.0584
97.900667 87.057 166.9374
98.610096 87.032 166.7949
99.324665 87.008 166.6327
100.044413 86.982 166.4550
100.769376 86.955 166.2656
101.499592 86.926 166.0694
102.235100 86.893 165.8740
102.975938 86.856 165.6880
103.722144 86.816 165.5178
104.473757 86.773 165.3655
105.230817 86.728 165.2313
105.993363 86.680 165.1154
106.761435 86.633 165.0174
107.535072 86.587 164.9341
108.314315 86.544 164.8585
109.099206 86.504 164.7828
109.889783 86.466 164.7049
110.686090 86.429 164.6302
111.488167 86.393 164.5699
112.296056 86.359 164.5341
113.109800 86.325 164.5278
113.929440 86.294 164.5501
114.755020 86.264 164.5966
115.586582 86.235 164.6631
116.424170 86.206 164.7502
117.267827 86.177 164.8630
118.117598 86.153 165.0006
118.973527 86.134 165.1486
119.835658 86.123 165.2811
120.704037 86.119 165.3714
121.578708 86.120 165.4036
122.459718 86.123 165.3755
123.347111 86.126 165.2950
124.240935 86.128 165.1771
125.141236 86.130 165.0376
126.048061 86.132 164.8863
126.961458 86.134 164.7250
127.881473 86.138 164.5524
128.808154 86.141 164.3674
129.741551 86.143 164.1705
130.681712 86.142 163.9632
131.628686 86.138 163.7477
132.582521 86.129 163.5271
133.543269 86.116 163.3054
134.510979 86.099 163.0853
135.485701 86.079 162.8669
136.467486 86.056 162.6496
137.456386 86.031 162.4341
138.452451 86.005 162.2228
139.455735 85.977 162.0170
140.466288 85.948 161.8165
141.484165 85.918 161.6203
142.509418 85.886 161.4276
143.542100 85.852 161.2386
144.582265 85.816 161.0547
145.629968 85.779 160.8776
146.685262 85.740 160.7089
147.748204 85.701 160.5502
148.818849 85.661 160.4021
149.897251 85.620 160.2644
150.983469 85.580 160.1358
152.077557 85.540 160.0140
153.179574 85.502 159.8976
154.289576 85.464 159.7870
155.407622 85.428 159.6833
156.533770 85.393 159.5866
157.668078 85.360 159.4941
158.810606 85.327 159.4034
159.961413 85.294 159.3138
161.120559 85.260 159.2253
162.288105 85.226 159.1385
163.464112 85.191 159.0535
164.648640 85.157 158.9703
165.841752 85.123 158.8897
167.043510 85.088 158.8124
168.253976 85.053 158.7400
169.473213 85.018 158.6749
170.701286 84.981 158.6195
171.938258 84.943 158.5730
173.184194 84.905 158.5318
174.439158 84.867 158.4908
175.703216 84.830 158.4448
176.976434 84.792 158.3908
178.258878 84.754 158.3300
179.550615 84.716 158.2676
180.851713 84.678 158.2090
182.162239 84.641 158.1556
183.482262 84.604 158.1069
184.811850 84.569 158.0630
186.151073 84.534 158.0247
187.500000 84.499 157.9927
188.858702 84.464 157.9672
190.227250 84.429 157.9477
191.605715 84.392 157.9326
192.994169 84.356 157.9186
194.392685 84.318 157.9009
195.801334 84.280 157.8768
197.220191 84.242 157.8473
198.649330 84.203 157.8162
200.088825 84.165 157.7867
201.538751 84.127 157.7614
202.999184 84.090 157.7412
204.470200 84.052 157.7266
205.951875 84.014 157.7170
207.444287 83.975 157.7125
208.947514 83.937 157.7131
210.461634 83.898 157.7197
211.986726 83.859 157.7330
213.522869 83.819 157.7526
215.070144 83.778 157.7783
216.628631 83.736 157.8106
218.198411 83.694 157.8508
219.779567 83.651 157.8998
221.372180 83.611 157.9587
222.976334 83.572 158.0279
224.592112 83.534 158.1072
226.219600 83.499 158.1951
227.858880 83.466 158.2886
229.510039 83.435 158.3837
231.173164 83.406 158.4761
232.848340 83.379 158.5628
234.535655 83.353 158.6417
236.235197 83.328 158.7114
237.947054 83.303 158.7692
239.671317 83.279 158.8134
241.408074 83.253 158.8444
243.157416 83.227 158.8642
244.919435 83.200 158.8760
246.694223 83.171 158.8843
248.481871 83.142 158.8933
250.282473 83.111 158.9055
252.096123 83.080 158.9206
253.922915 83.048 158.9370
255.762945 83.015 158.9532
257.616309 82.982 158.9697
259.483103 82.948 158.9875
261.363424 82.914 159.0073
263.257372 82.879 159.0286
265.165043 82.842 159.0521
267.086538 82.805 159.0798
269.021957 82.767 159.1152
270.971401 82.729 159.1614
272.934972 82.691 159.2198
274.912771 82.654 159.2891
276.904902 82.619 159.3654
278.911469 82.584 159.4460
280.932577 82.549 159.5292
282.968330 82.514 159.6135
285.018835 82.479 159.6978
287.084199 82.444 159.7815
289.164530 82.408 159.8654
291.259935 82.373 159.9514
293.370525 82.338 160.0416
295.496408 82.304 160.1366
297.637697 82.271 160.2358
299.794503 82.237 160.3380
301.966937 82.204 160.4421
304.155114 82.170 160.5485
306.359147 82.136 160.6577
308.579152 82.101 160.7698
310.815244 82.067 160.8832
313.067539 82.033 160.9957
315.336156 81.998 161.1066
317.621211 81.964 161.2175
319.922826 81.930 161.3302
322.241118 81.896 161.4457
324.576210 81.863 161.5641
326.928223 81.829 161.6859
329.297280 81.795 161.8110
331.683504 81.762 161.9398
334.087019 81.730 162.0720
336.507952 81.698 162.2074
338.946427 81.667 162.3461
341.402572 81.636 162.4880
343.876516 81.605 162.6329
346.368387 81.574 162.7802
348.878315 81.542 162.9287
351.406431 81.511 163.0764
353.952867 81.479 163.2223
356.517756 81.448 163.3670
359.101230 81.417 163.5121
361.703426 81.386 163.6591
364.324478 81.355 163.8087
366.964523 81.324 163.9617
369.623699 81.293 164.1192
372.302145 81.263 164.2819
375.000000 81.233 164.4493
377.717405 81.203 164.6195
380.454501 81.173 164.7911
383.211431 81.143 164.9631
385.988339 81.113 165.1359
388.785369 81.084 165.3099
391.602668 81.054 165.4862
394.440383 81.026 165.6649
397.298660 80.998 165.8458
400.177650 80.970 166.0281
403.077502 80.942 166.2116
405.998368 80.915 166.3969
408.940400 80.887 166.5847
411.903750 80.859 166.7755
414.888575 80.831 166.9685
417.895028 80.803 167.1630
420.923268 80.775 167.3586
423.973452 80.748 167.5558
427.045738 80.720 167.7560
430.140287 80.694 167.9603
433.257261 80.667 168.1688
436.396822 80.641 168.3809
439.559133 80.615 168.5951
442.744360 80.589 168.8104
445.952668 80.563 169.0262
449.184225 80.538 169.2425
452.439199 80.513 169.4596
455.717760 80.488 169.6780
459.020079 80.463 169.8978
462.346327 80.438 170.1190
465.696680 80.414 170.3414
469.071310 80.390 170.5655
472.470394 80.366 170.7916
475.894109 80.341 171.0201
479.342634 80.317 171.2515
482.816148 80.293 171.4866
486.314833 80.269 171.7258
489.838871 80.244 171.9697
493.388445 80.220 172.2176
496.963741 80.195 172.4691
500.564945 80.171 172.7236
504.192245 80.147 172.9805
507.845830 80.123 173.2389
511.525890 80.099 173.4979
515.232618 80.076 173.7562
518.966206 80.054 174.0137
522.726849 80.032 174.2706
526.514743 80.010 174.5282
530.330086 79.989 174.7880
534.173076 79.969 175.0514
538.043915 79.949 175.3193
541.942803 79.930 175.5919
545.869944 79.910 175.8683
549.825542 79.890 176.1479
553.809805 79.871 176.4302
557.822939 79.852 176.7149
561.865154 79.833 177.0024
565.936660 79.814 177.2928
570.037671 79.796 177.5859
574.168399 79.778 177.8815
578.329060 79.760 178.1796
582.519870 79.743 178.4802
586.741049 79.727 178.7836
590.992817 79.710 179.0901
595.275394 79.695 179.4001
599.589005 79.679 179.7143
603.933874 79.664 -179.9667
608.310228 79.649 -179.6427
612.718295 79.635 -179.3140
617.158304 79.621 -178.9818
621.630488 79.608 -178.6471
626.135079 79.595 -178.3107
630.672311 79.583 -177.9725
635.242423 79.571 -177.6318
639.845651 79.560 -177.2882
644.482237 79.549 -176.9417
649.152421 79.538 -176.5925
653.856447 79.528 -176.2407
658.594560 79.518 -175.8865
663.367008 79.508 -175.5309
668.174039 79.500 -175.1746
673.015903 79.492 -174.8170
677.892854 79.484 -174.4565
682.805145 79.477 -174.0916
687.753032 79.470 -173.7211
692.736774 79.463 -173.3455
697.756631 79.457 -172.9657
702.812863 79.452 -172.5828
707.905735 79.448 -172.1971
713.035511 79.445 -171.8085
718.202461 79.443 -171.4169
723.406852 79.442 -171.0221
728.648956 79.442 -170.6239
733.929047 79.442 -170.2218
739.247399 79.443 -169.8152
744.604290 79.445 -169.4033
750.000000 79.447 -168.9864
755.434809 79.450 -168.5663
760.909001 79.455 -168.1450
766.422861 79.460 -167.7232
771.976677 79.466 -167.3001
777.570739 79.474 -166.8745
783.205337 79.482 -166.4460
788.880766 79.491 -166.0148
794.597321 79.501 -165.5809
800.355301 79.512 -165.1445
806.155005 79.524 -164.7063
811.996736 79.537 -164.2665
817.880799 79.551 -163.8257
823.807501 79.567 -163.3844
829.777150 79.584 -162.9426
835.790057 79.602 -162.4999
841.846536 79.622 -162.0558
847.946903 79.643 -161.6101
854.091476 79.665 -161.1629
860.280575 79.688 -160.7146
866.514523 79.713 -160.2656
872.793644 79.739 -159.8165
879.118267 79.767 -159.3680
885.488720 79.797 -158.9205
891.905336 79.829 -158.4742
898.368450 79.863 -158.0293
904.878398 79.898 -157.5860
911.435520 79.934 -157.1452
918.040157 79.971 -156.7078
924.692655 80.010 -156.2742
931.393359 80.050 -155.8448
938.142619 80.092 -155.4197
944.940787 80.135 -154.9991
951.788218 80.179 -154.5830
958.685268 80.226 -154.1719
965.632296 80.274 -153.7670
972.629666 80.324 -153.3701
979.677741 80.376 -152.9830
986.776890 80.430 -152.6065
993.927482 80.485 -152.2406
1001.129891 80.541 -151.8848
1008.384491 80.598 -151.5378
1015.691660 80.657 -151.1987
1023.051781 80.716 -150.8663
1030.465236 80.775 -150.5403
1037.932411 80.834 -150.2214
1045.453698 80.894 -149.9113
1053.029486 80.954 -149.6114
1060.660172 81.014 -149.3223
1068.346153 81.074 -149.0437
1076.087829 81.135 -148.7751
1083.885605 81.197 -148.5165
1091.739887 81.258 -148.2677
1099.651084 81.320 -148.0288
1107.619609 81.382 -147.7996
1115.645878 81.444 -147.5800
1123.730308 81.505 -147.3698
1131.873321 81.567 -147.1688
1140.075341 81.628 -146.9769
1148.336797 81.689 -146.7937
1156.658119 81.750 -146.6189
1165.039741 81.810 -146.4518
1173.482099 81.870 -146.2915
1181.985634 81.930 -146.1375
1190.550789 81.989 -145.9891
1199.178011 82.047 -145.8459
1207.867749 82.105 -145.7073
1216.620457 82.162 -145.5732
1225.436590 82.219 -145.4437
1234.316609 82.275 -145.3190
1243.260976 82.331 -145.1989
1252.270157 82.386 -145.0829
1261.344623 82.441 -144.9708
1270.484846 82.496 -144.8620
1279.691303 82.549 -144.7562
1288.964474 82.603 -144.6527
1298.304842 82.656 -144.5506
1307.712894 82.708 -144.4490
1317.189120 82.760 -144.3476
1326.734016 82.811 -144.2460
1336.348077 82.863 -144.1439
1346.031806 82.913 -144.0416
1355.785708 82.964 -143.9390
1365.610290 83.014 -143.8367
1375.506065 83.064 -143.7350
1385.473549 83.114 -143.6338
1395.513261 83.164 -143.5325
1405.625726 83.213 -143.4309
1415.811469 83.263 -143.3287
1426.071023 83.313 -143.2258
1436.404921 83.362 -143.1216
1446.813703 83.412 -143.0162
1457.297912 83.462 -142.9095
1467.858093 83.512 -142.8016
1478.494798 83.562 -142.6926
1489.208581 83.613 -142.5824
1500.000000 83.664 -142.4710
1510.869618 83.715 -142.3585
1521.818002 83.767 -142.2451
1532.845723 83.819 -142.1309
1543.953355 83.871 -142.0160
1555.141477 83.924 -141.9005
1566.410674 83.977 -141.7847
1577.761531 84.031 -141.6686
1589.194642 84.085 -141.5524
1600.710601 84.140 -141.4363
1612.310010 84.196 -141.3202
1623.993473 84.253 -141.2042
1635.761599 84.310 -141.0883
1647.615002 84.369 -140.9726
1659.554299 84.428 -140.8571
1671.580114 84.487 -140.7420
1683.693072 84.548 -140.6277
1695.893807 84.609 -140.5145
1708.182952 84.671 -140.4026
1720.561150 84.735 -140.2923
1733.029045 84.799 -140.1837
1745.587288 84.864 -140.0769
1758.236533 84.930 -139.9720
1770.977440 84.998 -139.8694
1783.810673 85.067 -139.7695
1796.736900 85.136 -139.6725
1809.756796 85.208 -139.5786
1822.871040 85.280 -139.4879
1836.080315 85.355 -139.4008
1849.385310 85.430 -139.3180
1862.786718 85.507 -139.2404
1876.285239 85.585 -139.1687
1889.881575 85.665 -139.1034
1903.576436 85.747 -139.0451
1917.370535 85.830 -138.9944
1931.264593 85.914 -138.9518
1945.259332 86.001 -138.9179
1959.355483 86.089 -138.8940
1973.553781 86.179 -138.8815
1987.854965 86.270 -138.8823
2002.259781 86.364 -138.8979
2016.768981 86.459 -138.9301
2031.383320 86.556 -138.9802
2046.103561 86.654 -139.0502
2060.930471 86.754 -139.1416
2075.864823 86.854 -139.2556
2090.907395 86.954 -139.3928
2106.058972 87.054 -139.5531
2121.320344 87.154 -139.7361
2136.692305 87.254 -139.9409
2152.175658 87.352 -140.1660
2167.771210 87.450 -140.4102
2183.479774 87.547 -140.6722
2199.302169 87.643 -140.9514
2215.239219 87.738 -141.2468
2231.291755 87.831 -141.5579
2247.460615 87.924 -141.8840
2263.746641 88.015 -142.2246
2280.150683 88.105 -142.5796
2296.673595 88.194 -142.9489
2313.316238 88.282 -143.3324
2330.079481 88.368 -143.7301
2346.964198 88.453 -144.1416
2363.971268 88.537 -144.5667
2381.101578 88.620 -145.0052
2398.356022 88.702 -145.4576
2415.735498 88.782 -145.9241
2433.240913 88.861 -146.4048
2450.873180 88.938 -146.8998
2468.633217 89.013 -147.4089
2486.521951 89.087 -147.9323
2504.540314 89.159 -148.4697
2522.689246 89.229 -149.0211
2540.969692 89.298 -149.5864
2559.382606 89.364 -150.1655
2577.928947 89.428 -150.7579
2596.609683 89.490 -151.3633
2615.425787 89.549 -151.9816
2634.378241 89.606 -152.6124
2653.468031 89.661 -153.2556
2672.696154 89.712 -153.9109
2692.063613 89.761 -154.5781
2711.571415 89.808 -155.2568
2731.220579 89.851 -155.9468
2751.012130 89.891 -156.6473
2770.947098 89.928 -157.3578
2791.026522 89.961 -158.0771
2811.251451 89.991 -158.8045
2831.622938 90.018 -159.5388
2852.142045 90.040 -160.2790
2872.809842 90.058 -161.0236
2893.627406 90.072 -161.7711
2914.595823 90.083 -162.5200
2935.716186 90.089 -163.2685
2956.989596 90.091 -164.0150
2978.417161 90.089 -164.7581
3000.000000 90.083 -165.4965
3021.739237 90.073 -166.2289
3043.636005 90.060 -166.9542
3065.691446 90.042 -167.6708
3087.906710 90.021 -168.3777
3110.282955 89.997 -169.0737
3132.821347 89.969 -169.7578
3155.523062 89.938 -170.4290
3178.389283 89.903 -171.0867
3201.421202 89.866 -171.7299
3224.620020 89.826 -172.3578
3247.986946 89.783 -172.9697
3271.523198 89.737 -173.5647
3295.230004 89.689 -174.1421
3319.108599 89.638 -174.7012
3343.160228 89.585 -175.2411
3367.386145 89.530 -175.7613
3391.787613 89.473 -176.2606
3416.365904 89.415 -176.7382
3441.122300 89.355 -177.1935
3466.058091 89.294 -177.6259
3491.174576 89.232 -178.0346
3516.473066 89.169 -178.4193
3541.954880 89.107 -178.7799
3567.621345 89.044 -179.1169
3593.473800 88.983 -179.4318
3619.513592 88.922 -179.7267
3645.742080 88.863 179.9953
3672.160630 88.806 179.7308
3698.770620 88.751 179.4760
3725.573436 88.697 179.2271
3752.570477 88.645 178.9809
3779.763150 88.594 178.7350
3807.152872 88.543 178.4883
3834.741071 88.492 178.2411
3862.529185 88.440 177.9944
3890.518664 88.388 177.7501
3918.710966 88.335 177.5099
3947.107561 88.281 177.2756
3975.709929 88.227 177.0490
4004.519563 88.172 176.8311
4033.537962 88.116 176.6224
4062.766641 88.060 176.4224
4092.207123 88.004 176.2298
4121.860942 87.949 176.0434
4151.729646 87.893 175.8621
4181.814790 87.837 175.6852
4212.117944 87.780 175.5128
4242.640687 87.723 175.3454
4273.384610 87.666 175.1838
4304.351317 87.607 175.0293
4335.542421 87.548 174.8827
4366.959549 87.489 174.7448
4398.604338 87.429 174.6157
4430.478438 87.369 174.4954
4462.583511 87.308 174.3839
4494.921231 87.248 174.2808
4527.493283 87.187 174.1854
4560.301365 87.126 174.0973
4593.347189 87.065 174.0161
4626.632476 87.004 173.9413
4660.158962 86.943 173.8729
4693.928395 86.881 173.8107
4727.942535 86.819 173.7551
4762.203156 86.757 173.7065
4796.712043 86.695 173.6651
4831.470996 86.633 173.6312
4866.481826 86.570 173.6049
4901.746360 86.506 173.5868
4937.266434 86.442 173.5771
4973.043902 86.378 173.5764
5009.080628 86.314 173.5850
5045.378492 86.249 173.6035
5081.939384 86.184 173.6323
5118.765212 86.118 173.6725
5155.857894 86.052 173.7251
5193.219366 85.986 173.7914
5230.851574 85.919 173.8727
5268.756481 85.852 173.9706
5306.936062 85.784 174.0863
5345.392309 85.717 174.2211
5384.127225 85.650 174.3763
5423.142830 85.583 174.5530
5462.441159 85.517 174.7523
5502.024259 85.452 174.9748
5541.894195 85.388 175.2213
5582.053045 85.326 175.4924
5622.502902 85.266 175.7885
5663.245876 85.208 176.1100
5704.284090 85.153 176.4565
5745.619684 85.101 176.8273
5787.254813 85.052 177.2208
5829.191647 85.008 177.6354
5871.432373 84.968 178.0692
5913.979192 84.932 178.5204
5956.834323 84.901 178.9871
6000.000000 84.875 179.4676
6043.478473 84.854 179.9599
6087.272010 84.839 -179.5377
6131.382892 84.829 -179.0270
6175.813420 84.825 -178.5099
6220.565910 84.827 -177.9880
6265.642695 84.836 -177.4636
6311.046124 84.852 -176.9388
6356.778566 84.874 -176.4163
6402.842404 84.904 -175.8992
6449.240040 84.941 -175.3904
6495.973891 84.987 -174.8936
6543.046396 85.041 -174.4125
6590.460007 85.103 -173.9509
6638.217197 85.175 -173.5134
6686.320456 85.256 -173.1041
6734.772290 85.347 -172.7277
6783.575226 85.449 -172.3896
6832.731809 85.562 -172.0978
6882.244600 85.686 -171.8615
6932.116181 85.822 -171.6918
6982.349153 85.970 -171.6011
7032.946133 86.130 -171.6037
7083.909760 86.302 -171.7159
7135.242690 86.485 -171.9561
7186.947600 86.678 -172.3436
7239.027185 86.879 -172.8987
7291.484160 87.086 -173.6406
7344.321260 87.294 -174.5872
7397.541239 87.499 -175.7530
7451.146872 87.697 -177.1487
7505.140954 87.882 -178.7795
7559.526299 88.048 179.3560
7614.305743 88.190 177.2663
7669.482141 88.299 174.9685
7725.058371 88.372 172.4879
7781.037328 88.403 169.8578
7837.421932 88.387 167.1188
7894.215122 88.322 164.3169
7951.419859 88.205 161.5015
8009.039125 88.038 158.7227
8067.075924 87.821 156.0289
8125.533282 87.557 153.4643
8184.414245 87.252 151.0661
8243.721885 86.909 148.8638
8303.459292 86.535 146.8778
8363.629581 86.135 145.1204
8424.235888 85.714 143.5957
8485.281374 85.278 142.3021
8546.769221 84.830 141.2341
8608.702634 84.374 140.3842
8671.084842 83.912 139.7450
8733.919097 83.447 139.3104
8797.208675 82.979 139.0764
8860.956876 82.510 139.0411
8925.167022 82.042 139.2040
8989.842461 81.577 139.5654
9054.986566 81.116 140.1254
9120.602731 80.662 140.8820
9186.694378 80.217 141.8309
9253.264952 79.784 142.9645
9320.317925 79.366 144.2715
9387.856790 78.963 145.7375
9455.885071 78.579 147.3450
9524.406312 78.216 149.0747
9593.424086 77.874 150.9070
9662.941992 77.553 152.8237
9732.963653 77.253 154.8091
9803.492719 76.973 156.8513
9874.532869 76.713 158.9414
9946.087805 76.472 161.0725
10018.161257 76.249 163.2391
10090.756983 76.045 165.4358
10163.878768 75.858 167.6578
10237.530423 75.689 169.9012
10311.715789 75.537 172.1625
10386.438732 75.402 174.4379
10461.703149 75.286 176.7233
10537.512962 75.187 179.0139
10613.872125 75.107 -178.6959
10690.784618 75.045 -176.4122
10768.254450 75.003 -174.1429
10846.285661 74.981 -171.8982
10924.882318 74.980 -169.6924
11004.048518 75.002 -167.5461
11083.788390 75.047 -165.4888
11164.106090 75.115 -163.5616
11245.005805 75.206 -161.8183
11326.491752 75.315 -160.3234
11408.568180 75.434 -159.1431
11491.239368 75.548 -158.3229
11574.509626 75.631 -157.8451
11658.383294 75.654 -157.5603
11742.864745 75.587 -157.0963
11827.958384 75.420 -155.7911
11913.668646 75.194 -152.8206
12000.000000 75.014 -147.8047
12086.956947 75.002 -141.5452
12174.544019 75.212 -135.5740
12262.765784 75.605 -130.8805
12351.626840 76.109 -127.5627
12441.131819 76.667 -125.3016
12531.285389 77.249 -123.7626
12622.092249 77.843 -122.7266
12713.557132 78.450 -122.0874
12805.684808 79.069 -121.8185
12898.480079 79.700 -121.9395
12991.947783 80.339 -122.4929
13086.092792 80.979 -123.5281
13180.920015 81.609 -125.0894
13276.434395 82.215 -127.2064
13372.640911 82.781 -129.8879
13469.544580 83.289 -133.1156
13567.150452 83.723 -136.8405
13665.463617 84.067 -140.9821
13764.489200 84.309 -145.4299
13864.232362 84.442 -150.0501
13964.698305 84.465 -154.6967
14065.892266 84.381 -159.2255
14167.819519 84.201 -163.5086
14270.485380 83.941 -167.4451
14373.895200 83.618 -170.9673
14478.054370 83.251 -174.0426
14582.968320 82.859 -176.6723
14688.642520 82.459 -178.8871
14795.082478 82.067 179.2586
14902.293745 81.693 177.6932
15010.281908 81.344 176.3350
15119.052599 81.026 175.0983
15228.611486 80.736 173.8997
15338.964283 80.473 172.6631
15450.116741 80.230 171.3248
15562.074656 79.997 169.8370
15674.843864 79.765 168.1705
15788.430244 79.523 166.3167
15902.839718 79.259 164.2886
16018.078250 78.962 162.1190
16134.151848 78.623 159.8572
16251.066563 78.235 157.5655
16368.828491 77.793 155.3141
16487.443769 77.296 153.1768
16606.918584 76.746 151.2258
16727.259161 76.147 149.5264
16848.471777 75.507 148.1318
16970.562748 74.834 147.0813
17093.538442 74.139 146.3975
17217.405268 73.432 146.0871
17342.169684 72.725 146.1421
17467.838194 72.029 146.5406
17594.417350 71.352 147.2490
17721.913751 70.705 148.2236
17850.334044 70.093 149.4126
17979.684923 69.523 150.7579
18109.973131 69.000 152.1967
18241.205462 68.525 153.6608
18373.388756 68.101 155.0783
18506.529905 67.724 156.3746
18640.635849 67.393 157.4751
18775.713581 67.099 158.3082
18911.770141 66.833 158.8101
19048.812624 66.581 158.9323
19186.848172 66.329 158.6487
19325.883983 66.063 157.9664
19465.927305 65.775 156.9375
19606.985439 65.470 155.6745
19749.065738 65.171 154.3623
19892.175609 64.922 153.2519
20036.322514 64.778 152.6075
