* Measurement data measured by REW V5.31.3
* Source: Input device not selected, no input selected, R, volume: no control
* Format: 256k Log Swept Sine, 1 sweep at -12.0 dBFS with no timing reference
* Dated: Feb 6, 2026 4:28:56 PM
* REW Settings:
*  C-weighting compensation: Off
*  Target level: 75.0 dB
* Note: ; 
* Measurement: Moondrop KATO Blue R
* Smoothing: 1/24 octave
* Frequency Step: 96 ppo
* Start Frequency: 0.36621094 Hz
*
* Freq(Hz) SPL(dB) Phase(degrees)
0.366211 35.401 157.4344
0.368865 35.413 157.2423
0.371538 35.431 156.9614
0.374230 35.451 156.6379
0.376942 35.472 156.2929
0.379673 35.493 155.9338
0.382424 35.515 155.5629
0.385196 35.536 155.1805
0.387987 35.558 154.7866
0.390798 35.580 154.3810
0.393630 35.603 153.9632
0.396483 35.625 153.5330
0.399356 35.648 153.0899
0.402250 35.670 152.6336
0.405165 35.693 152.1637
0.408101 35.716 151.6799
0.411058 35.739 151.1816
0.414037 35.763 150.6685
0.417037 35.786 150.1402
0.420059 35.810 149.5962
0.423103 35.834 149.0360
0.426169 35.858 148.4592
0.429257 35.882 147.8654
0.432368 35.907 147.2540
0.435501 35.931 146.6246
0.438656 35.956 145.9765
0.441835 35.981 145.3095
0.445037 36.006 144.6228
0.448262 36.032 143.9161
0.451510 36.057 143.1888
0.454782 36.083 142.4403
0.458077 36.109 141.6701
0.461397 36.135 140.8778
0.464740 36.161 140.0627
0.468108 36.187 139.2245
0.471500 36.214 138.3625
0.474917 36.241 137.4762
0.478358 36.268 136.5653
0.481825 36.295 135.6293
0.485316 36.323 134.6677
0.488833 36.350 133.6801
0.492375 36.378 132.6662
0.495943 36.406 131.6257
0.499537 36.434 130.5583
0.503157 36.463 129.4637
0.506803 36.491 128.3419
0.510475 36.520 127.1928
0.514175 36.549 126.0163
0.517900 36.578 124.8126
0.521653 36.608 123.5817
0.525434 36.638 122.3240
0.529241 36.667 121.0398
0.533076 36.698 119.7296
0.536939 36.728 118.3940
0.540830 36.758 117.0336
0.544749 36.789 115.6494
0.548696 36.820 114.2423
0.552673 36.851 112.8133
0.556677 36.883 111.3637
0.560711 36.915 109.8948
0.564774 36.946 108.4080
0.568867 36.979 106.9050
0.572989 37.011 105.3873
0.577141 37.044 103.8568
0.581324 37.076 102.3153
0.585536 37.110 100.7648
0.589779 37.143 99.2072
0.594053 37.176 97.6446
0.598358 37.210 96.0790
0.602694 37.244 94.5126
0.607061 37.279 92.9472
0.611460 37.313 91.3851
0.615891 37.348 89.8282
0.620354 37.383 88.2784
0.624849 37.418 86.7377
0.629377 37.454 85.2078
0.633938 37.490 83.6904
0.638532 37.526 82.1871
0.643159 37.562 80.6995
0.647819 37.599 79.2289
0.652514 37.635 77.7765
0.657242 37.673 76.3435
0.662005 37.710 74.9309
0.666802 37.748 73.5395
0.671634 37.786 72.1700
0.676501 37.824 70.8232
0.681403 37.862 69.4996
0.686341 37.901 68.1995
0.691314 37.940 66.9233
0.696324 37.979 65.6711
0.701370 38.019 64.4431
0.706452 38.059 63.2394
0.711571 38.100 62.0599
0.716728 38.141 60.9046
0.721921 38.185 59.7739
0.727153 38.236 58.6685
0.732422 38.302 57.5908
0.737729 38.391 56.5451
0.743075 38.498 55.5353
0.748460 38.615 54.5627
0.753883 38.740 53.6269
0.759346 38.870 52.7269
0.764849 39.006 51.8613
0.770391 39.147 51.0285
0.775974 39.293 50.2270
0.781597 39.445 49.4554
0.787261 39.601 48.7121
0.792966 39.763 47.9958
0.798712 39.930 47.3049
0.804500 40.102 46.6382
0.810329 40.278 45.9944
0.816201 40.460 45.3720
0.822116 40.646 44.7699
0.828073 40.837 44.1869
0.834074 41.032 43.6219
0.840118 41.232 43.0737
0.846206 41.436 42.5413
0.852338 41.644 42.0236
0.858514 41.857 41.5198
0.864735 42.073 41.0289
0.871001 42.293 40.5499
0.877313 42.517 40.0821
0.883670 42.744 39.6247
0.890074 42.975 39.1768
0.896524 43.209 38.7378
0.903020 43.446 38.3069
0.909564 43.686 37.8835
0.916155 43.928 37.4669
0.922794 44.173 37.0565
0.929481 44.420 36.6518
0.936216 44.669 36.2522
0.943000 44.920 35.8571
0.949834 45.172 35.4661
0.956717 45.425 35.0787
0.963649 45.680 34.6943
0.970632 45.935 34.3127
0.977666 46.190 33.9333
0.984750 46.445 33.5557
0.991886 46.701 33.1796
0.999074 46.955 32.8047
1.006314 47.209 32.4305
1.013606 47.461 32.0568
1.020951 47.712 31.6831
1.028349 47.961 31.3093
1.035801 48.207 30.9351
1.043307 48.450 30.5601
1.050867 48.690 30.1841
1.058482 48.926 29.8069
1.066152 49.158 29.4282
1.073878 49.385 29.0479
1.081660 49.607 28.6661
1.089498 49.824 28.2832
1.097393 50.036 27.9006
1.105345 50.243 27.5212
1.113355 50.448 27.1482
1.121423 50.650 26.7830
1.129549 50.851 26.4260
1.137734 51.050 26.0768
1.145979 51.247 25.7350
1.154283 51.443 25.4001
1.162647 51.637 25.0715
1.171072 51.829 24.7487
1.179558 52.020 24.4312
1.188106 52.209 24.1184
1.196715 52.397 23.8099
1.205387 52.583 23.5052
1.214122 52.768 23.2039
1.222920 52.952 22.9054
1.231782 53.135 22.6093
1.240708 53.316 22.3152
1.249699 53.496 22.0228
1.258754 53.675 21.7315
1.267876 53.853 21.4410
1.277063 54.030 21.1510
1.286318 54.206 20.8610
1.295639 54.381 20.5706
1.305027 54.556 20.2796
1.314484 54.730 19.9876
1.324009 54.904 19.6943
1.333604 55.077 19.3993
1.343268 55.250 19.1023
1.353002 55.422 18.8031
1.362806 55.595 18.5012
1.372681 55.768 18.1965
1.382628 55.940 17.8887
1.392647 56.114 17.5773
1.402739 56.287 17.2623
1.412904 56.461 16.9433
1.423142 56.636 16.6201
1.433455 56.812 16.2925
1.443843 56.989 15.9605
1.454305 57.166 15.6246
1.464844 57.345 15.2860
1.475459 57.523 14.9474
1.486150 57.701 14.6114
1.496920 57.878 14.2789
1.507767 58.055 13.9501
1.518693 58.230 13.6247
1.529698 58.404 13.3023
1.540783 58.577 12.9823
1.551948 58.749 12.6642
1.563194 58.920 12.3477
1.574521 59.091 12.0320
1.585931 59.260 11.7169
1.597423 59.429 11.4018
1.608999 59.596 11.0863
1.620658 59.764 10.7699
1.632402 59.930 10.4521
1.644232 60.096 10.1326
1.656146 60.261 9.8110
1.668147 60.426 9.4867
1.680235 60.590 9.1594
1.692411 60.754 8.8287
1.704675 60.917 8.4942
1.717028 61.081 8.1555
1.729470 61.244 7.8123
1.742003 61.407 7.4641
1.754626 61.570 7.1106
1.767341 61.732 6.7515
1.780147 61.895 6.3863
1.793047 62.059 6.0149
1.806040 62.222 5.6370
1.819128 62.386 5.2528
1.832310 62.550 4.8633
1.845587 62.713 4.4702
1.858961 62.876 4.0753
1.872432 63.038 3.6796
1.886001 63.199 3.2833
1.899667 63.360 2.8866
1.913433 63.519 2.4894
1.927299 63.678 2.0916
1.941265 63.836 1.6931
1.955332 63.993 1.2939
1.969501 64.149 0.8936
1.983773 64.305 0.4923
1.998148 64.460 0.0898
2.012627 64.614 -0.3143
2.027212 64.768 -0.7199
2.041902 64.921 -1.1274
2.056698 65.074 -1.5370
2.071602 65.226 -1.9489
2.086614 65.378 -2.3633
2.101734 65.530 -2.7806
2.116964 65.681 -3.2009
2.132304 65.833 -3.6245
2.147756 65.984 -4.0518
2.163320 66.135 -4.4829
2.178996 66.286 -4.9181
2.194786 66.436 -5.3572
2.210690 66.587 -5.7999
2.226710 66.736 -6.2455
2.242845 66.885 -6.6934
2.259098 67.033 -7.1434
2.275468 67.180 -7.5952
2.291957 67.326 -8.0486
2.308566 67.471 -8.5035
2.325295 67.616 -8.9597
2.342145 67.759 -9.4173
2.359117 67.902 -9.8761
2.376212 68.045 -10.3362
2.393431 68.186 -10.7974
2.410775 68.327 -11.2598
2.428244 68.468 -11.7235
2.445840 68.608 -12.1885
2.463564 68.747 -12.6548
2.481416 68.886 -13.1226
2.499397 69.025 -13.5920
2.517509 69.164 -14.0630
2.535752 69.302 -14.5360
2.554127 69.440 -15.0111
2.572635 69.578 -15.4887
2.591277 69.714 -15.9691
2.610055 69.850 -16.4523
2.628968 69.985 -16.9381
2.648019 70.120 -17.4261
2.667208 70.253 -17.9162
2.686535 70.385 -18.4080
2.706003 70.516 -18.9012
2.725612 70.647 -19.3956
2.745363 70.777 -19.8909
2.765257 70.907 -20.3870
2.785295 71.035 -20.8837
2.805478 71.163 -21.3807
2.825808 71.291 -21.8781
2.846285 71.418 -22.3756
2.866910 71.545 -22.8731
2.887685 71.672 -23.3708
2.908611 71.798 -23.8686
2.929688 71.924 -24.3671
2.950917 72.049 -24.8667
2.972301 72.174 -25.3683
2.993839 72.297 -25.8718
3.015534 72.420 -26.3772
3.037386 72.542 -26.8842
3.059396 72.663 -27.3925
3.081565 72.783 -27.9018
3.103896 72.903 -28.4120
3.126388 73.022 -28.9227
3.149043 73.140 -29.4336
3.171862 73.258 -29.9446
3.194847 73.375 -30.4555
3.217998 73.492 -30.9661
3.241317 73.609 -31.4763
3.264805 73.726 -31.9859
3.288463 73.842 -32.4952
3.312293 73.958 -33.0046
3.336295 74.073 -33.5148
3.360471 74.187 -34.0259
3.384822 74.301 -34.5380
3.409350 74.414 -35.0512
3.434056 74.526 -35.5653
3.458940 74.638 -36.0803
3.484005 74.749 -36.5959
3.509252 74.860 -37.1123
3.534681 74.970 -37.6292
3.560295 75.080 -38.1466
3.586094 75.189 -38.6646
3.612081 75.298 -39.1830
3.638255 75.407 -39.7020
3.664620 75.516 -40.2217
3.691175 75.624 -40.7423
3.717923 75.732 -41.2640
3.744864 75.840 -41.7871
3.772001 75.946 -42.3114
3.799335 76.052 -42.8372
3.826866 76.158 -43.3643
3.854597 76.263 -43.8929
3.882529 76.368 -44.4231
3.910664 76.472 -44.9548
3.939002 76.575 -45.4883
3.967546 76.679 -46.0238
3.996296 76.782 -46.5613
4.025255 76.884 -47.1012
4.054423 76.986 -47.6439
4.083804 77.088 -48.1896
4.113396 77.188 -48.7382
4.143204 77.289 -49.2896
4.173227 77.389 -49.8437
4.203468 77.488 -50.4002
4.233928 77.586 -50.9591
4.264609 77.684 -51.5201
4.295512 77.780 -52.0834
4.326639 77.876 -52.6490
4.357992 77.972 -53.2171
4.389572 78.066 -53.7885
4.421380 78.159 -54.3641
4.453419 78.252 -54.9448
4.485691 78.344 -55.5307
4.518196 78.434 -56.1211
4.550936 78.524 -56.7150
4.583914 78.612 -57.3115
4.617131 78.700 -57.9096
4.650589 78.786 -58.5087
4.684289 78.871 -59.1079
4.718233 78.954 -59.7072
4.752424 79.036 -60.3072
4.786862 79.116 -60.9099
4.821549 79.195 -61.5175
4.856488 79.272 -62.1302
4.891680 79.348 -62.7470
4.927127 79.422 -63.3659
4.962831 79.494 -63.9850
4.998794 79.565 -64.6020
5.035017 79.634 -65.2151
5.071503 79.701 -65.8228
5.108253 79.766 -66.4247
5.145270 79.829 -67.0228
5.182555 79.890 -67.6203
5.220110 79.949 -68.2187
5.257937 80.005 -68.8170
5.296038 80.060 -69.4129
5.334415 80.113 -70.0037
5.373071 80.164 -70.5863
5.412006 80.213 -71.1579
5.451224 80.260 -71.7162
5.490725 80.306 -72.2606
5.530514 80.350 -72.7933
5.570590 80.392 -73.3168
5.610957 80.431 -73.8320
5.651616 80.469 -74.3376
5.692570 80.505 -74.8316
5.733821 80.539 -75.3117
5.775370 80.574 -75.7752
5.817221 80.608 -76.2197
5.859375 80.641 -76.6436
5.901834 80.674 -77.0471
5.944602 80.706 -77.4312
5.987679 80.737 -77.7971
6.031068 80.767 -78.1458
6.074771 80.798 -78.4778
6.118792 80.829 -78.7933
6.163131 80.863 -79.0924
6.207792 80.898 -79.3740
6.252776 80.935 -79.6363
6.298086 80.974 -79.8772
6.343725 81.014 -80.0981
6.389694 81.056 -80.3021
6.435996 81.100 -80.4938
6.482634 81.147 -80.6779
6.529610 81.198 -80.8582
6.576926 81.251 -81.0366
6.624585 81.309 -81.2112
6.672590 81.371 -81.3787
6.720942 81.436 -81.5400
6.769645 81.504 -81.6998
6.818700 81.576 -81.8647
6.868111 81.650 -82.0413
6.917881 81.728 -82.2349
6.968010 81.808 -82.4473
7.018504 81.891 -82.6761
7.069362 81.978 -82.9190
7.120590 82.068 -83.1770
7.172189 82.159 -83.4534
7.224161 82.252 -83.7521
7.276511 82.344 -84.0769
7.329239 82.437 -84.4303
7.382350 82.530 -84.8124
7.435845 82.623 -85.2214
7.489729 82.716 -85.6546
7.544002 82.808 -86.1101
7.598669 82.899 -86.5861
7.653732 82.987 -87.0825
7.709194 83.072 -87.6003
7.765058 83.154 -88.1420
7.821327 83.233 -88.7060
7.878004 83.309 -89.2876
7.935091 83.382 -89.8803
7.992592 83.452 -90.4787
8.050510 83.517 -91.0800
8.108847 83.578 -91.6862
8.167607 83.634 -92.2995
8.226793 83.687 -92.9173
8.286408 83.736 -93.5331
8.346454 83.781 -94.1397
8.406936 83.823 -94.7318
8.467856 83.861 -95.3086
8.529218 83.896 -95.8725
8.591024 83.928 -96.4235
8.653278 83.957 -96.9589
8.715983 83.985 -97.4746
8.779143 84.013 -97.9669
8.842760 84.039 -98.4339
8.906839 84.065 -98.8767
8.971381 84.090 -99.2979
9.036392 84.117 -99.7001
9.101873 84.144 -100.0852
9.167829 84.175 -100.4534
9.234263 84.207 -100.8031
9.301178 84.243 -101.1361
9.368578 84.280 -101.4580
9.436467 84.321 -101.7758
9.504847 84.364 -102.0950
9.573723 84.411 -102.4172
9.643099 84.462 -102.7415
9.712976 84.516 -103.0708
9.783361 84.572 -103.4107
9.854255 84.629 -103.7669
9.925663 84.688 -104.1429
9.997588 84.749 -104.5382
10.070035 84.810 -104.9517
10.143007 84.872 -105.3830
10.216507 84.932 -105.8329
10.290540 84.991 -106.3025
10.365109 85.049 -106.7921
10.440219 85.104 -107.2983
10.515873 85.157 -107.8159
10.592076 85.207 -108.3401
10.668830 85.253 -108.8694
10.746141 85.297 -109.4039
10.824012 85.336 -109.9399
10.902447 85.373 -110.4709
10.981451 85.407 -110.9913
11.061027 85.439 -111.4990
11.141180 85.467 -111.9941
11.221913 85.494 -112.4749
11.303232 85.520 -112.9384
11.385140 85.545 -113.3820
11.467641 85.571 -113.8054
11.550741 85.596 -114.2106
11.634442 85.623 -114.6008
11.718750 85.651 -114.9780
11.803669 85.681 -115.3429
11.889203 85.714 -115.6975
11.975357 85.748 -116.0474
12.062136 85.785 -116.3983
12.149543 85.824 -116.7537
12.237583 85.866 -117.1146
12.326262 85.909 -117.4837
12.415583 85.953 -117.8654
12.505552 85.997 -118.2625
12.596172 86.041 -118.6752
12.687449 86.085 -119.1022
12.779387 86.127 -119.5425
12.871992 86.167 -119.9956
12.965268 86.205 -120.4606
13.059220 86.240 -120.9336
13.153852 86.272 -121.4094
13.249170 86.300 -121.8850
13.345179 86.325 -122.3587
13.441884 86.347 -122.8266
13.539289 86.367 -123.2837
13.637401 86.383 -123.7269
13.736223 86.397 -124.1555
13.835761 86.410 -124.5680
13.936021 86.421 -124.9624
14.037007 86.432 -125.3381
14.138725 86.442 -125.6961
14.241180 86.453 -126.0379
14.344377 86.464 -126.3645
14.448323 86.476 -126.6769
14.553021 86.488 -126.9772
14.658478 86.502 -127.2676
14.764700 86.517 -127.5495
14.871691 86.533 -127.8237
14.979457 86.550 -128.0916
15.088005 86.568 -128.3541
15.197339 86.588 -128.6118
15.307465 86.609 -128.8654
15.418389 86.631 -129.1161
15.530117 86.656 -129.3647
15.642655 86.682 -129.6136
15.756008 86.711 -129.8661
15.870182 86.743 -130.1245
15.985184 86.778 -130.3931
16.101019 86.815 -130.6777
16.217694 86.855 -130.9831
16.335214 86.897 -131.3128
16.453586 86.940 -131.6722
16.572815 86.983 -132.0651
16.692909 87.026 -132.4925
16.813872 87.067 -132.9536
16.935713 87.104 -133.4476
17.058436 87.137 -133.9704
17.182048 87.165 -134.5138
17.306556 87.187 -135.0700
17.431967 87.201 -135.6312
17.558286 87.210 -136.1844
17.685521 87.211 -136.7186
17.813677 87.208 -137.2261
17.942762 87.201 -137.6967
18.072783 87.191 -138.1237
18.203746 87.181 -138.5058
18.335658 87.174 -138.8437
18.468526 87.171 -139.1406
18.602356 87.173 -139.4063
18.737156 87.182 -139.6534
18.872934 87.200 -139.8929
19.009695 87.224 -140.1398
19.147447 87.255 -140.4082
19.286197 87.291 -140.7059
19.425953 87.329 -141.0396
19.566721 87.368 -141.4119
19.708510 87.405 -141.8180
19.851326 87.439 -142.2496
19.995177 87.468 -142.6972
20.140070 87.492 -143.1452
20.286013 87.510 -143.5796
20.433014 87.524 -143.9885
20.581080 87.536 -144.3600
20.730219 87.548 -144.6895
20.880439 87.562 -144.9778
21.031747 87.582 -145.2298
21.184152 87.608 -145.4590
21.337661 87.643 -145.6833
21.492282 87.685 -145.9200
21.648024 87.735 -146.1902
21.804895 87.789 -146.5091
21.962902 87.844 -146.8871
22.122054 87.897 -147.3288
22.282360 87.943 -147.8279
22.443827 87.979 -148.3714
22.606464 88.002 -148.9405
22.770280 88.011 -149.5074
22.935283 88.005 -150.0466
23.101481 87.986 -150.5274
23.268884 87.956 -150.9250
23.437500 87.919 -151.2206
23.607338 87.882 -151.4028
23.778406 87.849 -151.4753
23.950714 87.825 -151.4523
24.124271 87.816 -151.3609
24.299086 87.824 -151.2388
24.475167 87.849 -151.1246
24.652524 87.889 -151.0601
24.831166 87.940 -151.0747
25.011103 87.997 -151.1904
25.192344 88.054 -151.4129
25.374898 88.104 -151.7347
25.558775 88.144 -152.1380
25.743984 88.170 -152.5938
25.930536 88.181 -153.0728
26.118439 88.178 -153.5419
26.307704 88.163 -153.9764
26.498341 88.139 -154.3564
26.690359 88.112 -154.6744
26.883768 88.085 -154.9328
27.078579 88.061 -155.1435
27.274801 88.043 -155.3257
27.472446 88.032 -155.4997
27.671522 88.027 -155.6843
27.872042 88.025 -155.8921
28.074014 88.024 -156.1282
28.277450 88.023 -156.3900
28.482360 88.020 -156.6699
28.688755 88.015 -156.9572
28.896645 88.007 -157.2428
29.106042 87.999 -157.5199
29.316957 87.992 -157.7863
29.529400 87.986 -158.0431
29.743382 87.982 -158.2930
29.958915 87.979 -158.5379
30.176009 87.979 -158.7779
30.394677 87.980 -159.0110
30.614929 87.983 -159.2343
30.836778 87.990 -159.4473
31.060234 88.001 -159.6543
31.285309 88.019 -159.8665
31.512015 88.043 -160.1003
31.740364 88.072 -160.3739
31.970368 88.103 -160.7022
32.202039 88.132 -161.0898
32.435388 88.155 -161.5286
32.670428 88.166 -161.9961
32.907171 88.165 -162.4610
33.145630 88.152 -162.8865
33.385817 88.131 -163.2436
33.627745 88.107 -163.5161
33.871425 88.087 -163.7066
34.116871 88.075 -163.8359
34.364096 88.073 -163.9368
34.613113 88.082 -164.0464
34.863934 88.099 -164.1921
35.116572 88.119 -164.3877
35.371041 88.137 -164.6313
35.627354 88.151 -164.9096
35.885525 88.161 -165.2067
36.145566 88.166 -165.5093
36.407492 88.169 -165.8119
36.671316 88.171 -166.1160
36.937051 88.170 -166.4255
37.204712 88.168 -166.7414
37.474313 88.161 -167.0577
37.745867 88.151 -167.3627
38.019389 88.137 -167.6431
38.294893 88.123 -167.8909
38.572394 88.113 -168.1101
38.851905 88.108 -168.3167
39.133442 88.109 -168.5349
39.417019 88.115 -168.7877
39.702651 88.121 -169.0851
39.990353 88.122 -169.4198
40.280140 88.116 -169.7684
40.572026 88.103 -170.0987
40.866028 88.085 -170.3838
41.162160 88.068 -170.6152
41.460438 88.058 -170.8070
41.760877 88.056 -170.9916
42.063494 88.062 -171.2071
42.368303 88.069 -171.4776
42.675322 88.072 -171.7974
42.984565 88.063 -172.1305
43.296048 88.043 -172.4220
43.609789 88.016 -172.6181
43.925804 87.993 -172.6919
44.244108 87.985 -172.6638
44.564719 88.001 -172.6023
44.887654 88.042 -172.5994
45.212928 88.099 -172.7348
45.540560 88.159 -173.0459
45.870565 88.205 -173.5161
46.202962 88.229 -174.0851
46.537768 88.227 -174.6721
46.875000 88.201 -175.2019
47.214676 88.158 -175.6225
47.556813 88.105 -175.9082
47.901429 88.051 -176.0527
48.248542 88.001 -176.0628
48.598171 87.963 -175.9599
48.950334 87.944 -175.7881
49.305048 87.946 -175.6153
49.662333 87.968 -175.5183
50.022206 88.000 -175.5535
50.384688 88.030 -175.7335
50.749796 88.048 -176.0250
51.117550 88.050 -176.3701
51.487969 88.038 -176.7157
51.861072 88.016 -177.0298
52.236879 87.989 -177.2981
52.615409 87.960 -177.5117
52.996681 87.934 -177.6654
53.380717 87.917 -177.7729
53.767536 87.914 -177.8802
54.157158 87.924 -178.0514
54.549603 87.936 -178.3241
54.944892 87.936 -178.6723
55.343045 87.919 -179.0130
55.744084 87.887 -179.2588
56.148028 87.854 -179.3747
56.554900 87.828 -179.3914
56.964720 87.812 -179.3612
57.377510 87.799 -179.3044
57.793291 87.788 -179.2061
58.212085 87.786 -179.0666
58.633914 87.800 -178.9464
59.058799 87.829 -178.9521
59.486764 87.857 -179.1701
59.917829 87.866 -179.6067
60.352019 87.840 179.8220
60.789354 87.775 179.2557
61.229859 87.686 178.8251
61.673556 87.599 178.5634
62.120468 87.543 178.3295
62.570618 87.520 177.8515
63.024031 87.490 176.9462
63.480729 87.394 175.7623
63.940736 87.201 174.8151
64.404077 86.959 174.7090
64.870776 86.790 175.6186
65.340856 86.799 176.9404
65.814343 86.970 177.7051
66.291261 87.179 177.4639
66.771635 87.317 176.5417
67.255489 87.361 175.5738
67.742850 87.357 174.9825
68.233743 87.359 174.7756
68.728193 87.385 174.7231
69.226226 87.421 174.6498
69.727867 87.450 174.5317
70.233144 87.466 174.3985
70.742083 87.468 174.2619
71.254709 87.455 174.1379
71.771050 87.431 174.0580
72.291132 87.407 174.0151
72.814984 87.390 173.9348
73.342631 87.376 173.7440
73.874102 87.354 173.4604
74.409424 87.323 173.1784
74.948626 87.294 172.9592
75.491734 87.282 172.7631
76.038779 87.283 172.5111
76.589787 87.284 172.1973
77.144788 87.278 171.8997
77.703811 87.271 171.6741
78.266885 87.270 171.4802
78.834039 87.265 171.2587
79.405303 87.245 171.0438
79.980706 87.212 170.9246
80.560280 87.183 170.9062
81.144053 87.167 170.8898
81.732056 87.159 170.7874
82.324320 87.154 170.5745
82.920876 87.148 170.2413
83.521755 87.134 169.8012
84.126988 87.106 169.3448
84.736607 87.075 168.9674
85.350643 87.053 168.6336
85.969129 87.032 168.2649
86.592097 86.993 167.9525
87.219579 86.944 167.8815
87.851608 86.918 168.0213
88.488217 86.916 168.1010
89.129439 86.903 167.9976
89.775308 86.851 167.9212
90.425856 86.784 168.1150
91.081119 86.744 168.4999
91.741131 86.739 168.7705
92.405925 86.742 168.7918
93.075536 86.734 168.6909
93.750000 86.726 168.5625
94.429351 86.726 168.3176
95.113625 86.711 167.9182
95.802858 86.670 167.5087
96.497085 86.613 167.1906
97.196342 86.549 166.9135
97.900667 86.470 166.6821
98.610096 86.383 166.6057
99.324665 86.315 166.6629
100.044413 86.277 166.6684
100.769376 86.259 166.5326
101.499592 86.253 166.3425
102.235100 86.273 166.1583
102.975938 86.325 165.8839
103.722144 86.389 165.3909
104.473757 86.426 164.7391
105.230817 86.417 164.2283
105.993363 86.386 164.1196
106.761435 86.378 164.2553
107.535072 86.386 164.2086
108.314315 86.357 163.9071
109.099206 86.281 163.7139
109.889783 86.205 163.8252
110.686090 86.169 163.9880
111.488167 86.156 163.9739
112.296056 86.141 163.9421
113.109800 86.129 164.0792
113.929440 86.118 164.3268
114.755020 86.080 164.7231
115.586582 86.009 165.4598
116.424170 85.922 166.5967
117.267827 85.850 168.2029
118.117598 85.862 169.9908
118.973527 85.967 170.7949
119.835658 86.025 169.9653
120.704037 85.931 168.3372
121.578708 85.740 166.9465
122.459718 85.560 165.9991
123.347111 85.448 165.2738
124.240935 85.400 164.6311
125.141236 85.390 164.0146
126.048061 85.378 163.4970
126.961458 85.350 163.2850
127.881473 85.328 163.4644
128.808154 85.344 163.7927
129.741551 85.390 163.8422
130.681712 85.421 163.4900
131.628686 85.412 163.0963
132.582521 85.392 163.0009
133.543269 85.398 163.1663
134.510979 85.431 163.3739
135.485701 85.467 163.5125
136.467486 85.491 163.5531
137.456386 85.486 163.3948
138.452451 85.433 163.0789
139.455735 85.344 162.8039
140.466288 85.252 162.6020
141.484165 85.179 162.4325
142.509418 85.136 162.3061
143.542100 85.122 162.1633
144.582265 85.112 162.0488
145.629968 85.097 162.1618
146.685262 85.086 162.4810
147.748204 85.072 162.8330
148.818849 85.041 163.1924
149.897251 84.998 163.5966
150.983469 84.965 164.0473
152.077557 84.968 164.3877
153.179574 85.006 164.3125
154.289576 85.037 163.7382
155.407622 85.027 163.0251
156.533770 84.989 162.5602
157.668078 84.948 162.3758
158.810606 84.909 162.4292
159.961413 84.877 162.6438
161.120559 84.852 162.8210
162.288105 84.820 162.8430
163.464112 84.781 162.7948
164.648640 84.756 162.7309
165.841752 84.747 162.5287
167.043510 84.730 162.2401
168.253976 84.692 162.1205
169.473213 84.645 162.2679
170.701286 84.601 162.5327
171.938258 84.566 162.6710
173.184194 84.536 162.5541
174.439158 84.513 162.2638
175.703216 84.505 161.9352
176.976434 84.511 161.6667
178.258878 84.514 161.5667
179.550615 84.500 161.6656
180.851713 84.458 161.9431
182.162239 84.403 162.3812
183.482262 84.362 162.7797
184.811850 84.337 162.9205
186.151073 84.302 162.8576
187.500000 84.238 162.8456
188.858702 84.145 162.9647
190.227250 84.028 163.0580
191.605715 83.905 162.9449
192.994169 83.804 162.5161
194.392685 83.755 161.8061
195.801334 83.763 161.0943
197.220191 83.822 160.7316
198.649330 83.902 160.7480
200.088825 83.958 160.9599
201.538751 83.958 161.2631
202.999184 83.917 161.6335
204.470200 83.875 161.9589
205.951875 83.859 162.0781
207.444287 83.856 161.9962
208.947514 83.843 161.8828
210.461634 83.804 161.8356
211.986726 83.741 161.8831
213.522869 83.671 161.9766
215.070144 83.611 162.0481
216.628631 83.573 162.1123
218.198411 83.554 162.1788
219.779567 83.540 162.2488
221.372180 83.519 162.3541
222.976334 83.490 162.4671
224.592112 83.453 162.5486
226.219600 83.418 162.6336
227.858880 83.397 162.7103
229.510039 83.387 162.7492
231.173164 83.380 162.8365
232.848340 83.375 163.0332
234.535655 83.372 163.2507
236.235197 83.365 163.3829
237.947054 83.351 163.3947
239.671317 83.327 163.3490
241.408074 83.298 163.3370
243.157416 83.267 163.3621
244.919435 83.235 163.3824
246.694223 83.201 163.3775
248.481871 83.166 163.3678
250.282473 83.133 163.3918
252.096123 83.104 163.4692
253.922915 83.078 163.6019
255.762945 83.055 163.7682
257.616309 83.030 163.9231
259.483103 82.997 164.0368
261.363424 82.956 164.1071
263.257372 82.913 164.1458
265.165043 82.879 164.2050
267.086538 82.860 164.3100
269.021957 82.850 164.4210
270.971401 82.838 164.5125
272.934972 82.817 164.5529
274.912771 82.789 164.5306
276.904902 82.759 164.4822
278.911469 82.727 164.4398
280.932577 82.685 164.4570
282.968330 82.635 164.5797
285.018835 82.584 164.7883
287.084199 82.543 164.9886
289.164530 82.514 165.1129
291.259935 82.493 165.1990
293.370525 82.474 165.3126
295.496408 82.455 165.4586
297.637697 82.437 165.5855
299.794503 82.419 165.6731
301.966937 82.397 165.7672
304.155114 82.370 165.8772
306.359147 82.337 165.9234
308.579152 82.296 165.8860
310.815244 82.258 165.8803
313.067539 82.234 165.9776
315.336156 82.221 166.1719
317.621211 82.208 166.3898
319.922826 82.176 166.5875
322.241118 82.129 166.8380
324.576210 82.088 167.1063
326.928223 82.062 167.2172
329.297280 82.041 167.1251
331.683504 82.011 167.0184
334.087019 81.977 167.1011
336.507952 81.956 167.3713
338.946427 81.955 167.6617
341.402572 81.960 167.8409
343.876516 81.952 167.9297
346.368387 81.927 168.0141
348.878315 81.897 168.1323
351.406431 81.872 168.2668
353.952867 81.852 168.3834
356.517756 81.826 168.5023
359.101230 81.792 168.6902
361.703426 81.759 168.9409
364.324478 81.731 169.1906
366.964523 81.709 169.4047
369.623699 81.689 169.6168
372.302145 81.670 169.8618
375.000000 81.653 170.1176
377.717405 81.638 170.3414
380.454501 81.626 170.4917
383.211431 81.617 170.5446
385.988339 81.609 170.5713
388.785369 81.596 170.6996
391.602668 81.575 170.9506
394.440383 81.548 171.1928
397.298660 81.524 171.3213
400.177650 81.511 171.4026
403.077502 81.500 171.5530
405.998368 81.481 171.7681
408.940400 81.455 171.9976
411.903750 81.425 172.2386
414.888575 81.392 172.4985
417.895028 81.357 172.7253
420.923268 81.325 172.8757
423.973452 81.301 173.0035
427.045738 81.286 173.1604
430.140287 81.274 173.3249
433.257261 81.258 173.4854
436.396822 81.238 173.6483
439.559133 81.216 173.8196
442.744360 81.193 174.0121
445.952668 81.172 174.2182
449.184225 81.150 174.4293
452.439199 81.131 174.6470
455.717760 81.120 174.8674
459.020079 81.115 175.0897
462.346327 81.107 175.3277
465.696680 81.091 175.5837
469.071310 81.071 175.8367
472.470394 81.047 176.0708
475.894109 81.020 176.2965
479.342634 80.996 176.5234
482.816148 80.976 176.7321
486.314833 80.959 176.9173
489.838871 80.944 177.1217
493.388445 80.930 177.3703
496.963741 80.918 177.6444
500.564945 80.908 177.9336
504.192245 80.899 178.2158
507.845830 80.888 178.4660
511.525890 80.874 178.6902
515.232618 80.859 178.8973
518.966206 80.844 179.0986
522.726849 80.829 179.3038
526.514743 80.816 179.5193
530.330086 80.806 179.7590
534.173076 80.796 -179.9778
538.043915 80.783 -179.7136
541.942803 80.766 -179.4527
545.869944 80.750 -179.1841
549.825542 80.739 -178.9068
553.809805 80.732 -178.6447
557.822939 80.725 -178.4061
561.865154 80.717 -178.1804
565.936660 80.709 -177.9528
570.037671 80.699 -177.7044
574.168399 80.688 -177.4183
578.329060 80.675 -177.0824
582.519870 80.664 -176.7167
586.741049 80.661 -176.3669
590.992817 80.667 -176.0361
595.275394 80.677 -175.7088
599.589005 80.677 -175.4446
603.933874 80.659 -175.2438
608.310228 80.635 -175.0228
612.718295 80.617 -174.7639
617.158304 80.605 -174.4885
621.630488 80.599 -174.2037
626.135079 80.595 -173.9149
630.672311 80.592 -173.6192
635.242423 80.587 -173.3153
639.845651 80.582 -173.0051
644.482237 80.577 -172.7000
649.152421 80.572 -172.4093
653.856447 80.568 -172.1219
658.594560 80.566 -171.8253
663.367008 80.567 -171.5119
668.174039 80.571 -171.1879
673.015903 80.574 -170.8481
677.892854 80.573 -170.4830
682.805145 80.568 -170.1341
687.753032 80.562 -169.8370
692.736774 80.560 -169.5627
697.756631 80.566 -169.2655
702.812863 80.575 -168.9250
707.905735 80.584 -168.5706
713.035511 80.593 -168.2279
718.202461 80.599 -167.8841
723.406852 80.599 -167.5334
728.648956 80.597 -167.1859
733.929047 80.598 -166.8393
739.247399 80.602 -166.4846
744.604290 80.611 -166.1206
750.000000 80.623 -165.7504
755.434809 80.636 -165.3838
760.909001 80.652 -165.0197
766.422861 80.669 -164.6567
771.976677 80.686 -164.2953
777.570739 80.699 -163.9324
783.205337 80.712 -163.5621
788.880766 80.725 -163.1602
794.597321 80.740 -162.7523
800.355301 80.756 -162.3676
806.155005 80.773 -162.0129
811.996736 80.791 -161.6706
817.880799 80.809 -161.3304
823.807501 80.828 -160.9920
829.777150 80.847 -160.6398
835.790057 80.869 -160.2594
841.846536 80.891 -159.8599
847.946903 80.914 -159.4726
854.091476 80.936 -159.1079
860.280575 80.958 -158.7461
866.514523 80.982 -158.3793
872.793644 81.008 -158.0127
879.118267 81.033 -157.6548
885.488720 81.058 -157.3046
891.905336 81.082 -156.9585
898.368450 81.108 -156.6010
904.878398 81.138 -156.2185
911.435520 81.169 -155.8174
918.040157 81.200 -155.4174
924.692655 81.229 -155.0313
931.393359 81.258 -154.6554
938.142619 81.290 -154.2707
944.940787 81.328 -153.8645
951.788218 81.371 -153.4587
958.685268 81.418 -153.0611
965.632296 81.466 -152.6564
972.629666 81.514 -152.2434
979.677741 81.562 -151.8186
986.776890 81.611 -151.3955
993.927482 81.661 -150.9860
1001.129891 81.713 -150.5861
1008.384491 81.768 -150.1949
1015.691660 81.828 -149.8203
1023.051781 81.892 -149.4795
1030.465236 81.958 -149.1752
1037.932411 82.023 -148.8804
1045.453698 82.086 -148.5772
1053.029486 82.148 -148.2727
1060.660172 82.210 -147.9740
1068.346153 82.274 -147.6846
1076.087829 82.340 -147.4157
1083.885605 82.409 -147.1657
1091.739887 82.479 -146.9310
1099.651084 82.549 -146.7097
1107.619609 82.619 -146.5013
1115.645878 82.689 -146.3058
1123.730308 82.761 -146.1161
1131.873321 82.833 -145.9263
1140.075341 82.905 -145.7480
1148.336797 82.976 -145.5869
1156.658119 83.045 -145.4339
1165.039741 83.112 -145.2795
1173.482099 83.179 -145.1325
1181.985634 83.244 -145.0031
1190.550789 83.311 -144.8968
1199.178011 83.377 -144.8060
1207.867749 83.443 -144.7174
1216.620457 83.509 -144.6267
1225.436590 83.576 -144.5376
1234.316609 83.646 -144.4568
1243.260976 83.716 -144.3831
1252.270157 83.784 -144.3051
1261.344623 83.849 -144.2197
1270.484846 83.913 -144.1430
1279.691303 83.977 -144.0863
1288.964474 84.041 -144.0431
1298.304842 84.104 -144.0057
1307.712894 84.168 -143.9727
1317.189120 84.233 -143.9331
1326.734016 84.296 -143.8874
1336.348077 84.359 -143.8464
1346.031806 84.420 -143.8132
1355.785708 84.480 -143.7832
1365.610290 84.540 -143.7609
1375.506065 84.602 -143.7550
1385.473549 84.664 -143.7649
1395.513261 84.727 -143.7818
1405.625726 84.787 -143.8007
1415.811469 84.847 -143.8184
1426.071023 84.905 -143.8328
1436.404921 84.963 -143.8423
1446.813703 85.021 -143.8459
1457.297912 85.079 -143.8522
1467.858093 85.136 -143.8629
1478.494798 85.193 -143.8705
1489.208581 85.250 -143.8778
1500.000000 85.309 -143.8937
1510.869618 85.367 -143.9188
1521.818002 85.425 -143.9460
1532.845723 85.482 -143.9706
1543.953355 85.540 -143.9935
1555.141477 85.597 -144.0144
1566.410674 85.654 -144.0343
1577.761531 85.711 -144.0620
1589.194642 85.769 -144.1017
1600.710601 85.826 -144.1496
1612.310010 85.883 -144.1992
1623.993473 85.940 -144.2428
1635.761599 85.997 -144.2782
1647.615002 86.055 -144.3103
1659.554299 86.113 -144.3460
1671.580114 86.171 -144.3855
1683.693072 86.230 -144.4259
1695.893807 86.290 -144.4683
1708.182952 86.350 -144.5137
1720.561150 86.411 -144.5617
1733.029045 86.471 -144.6158
1745.587288 86.532 -144.6772
1758.236533 86.592 -144.7404
1770.977440 86.652 -144.8039
1783.810673 86.713 -144.8724
1796.736900 86.775 -144.9470
1809.756796 86.838 -145.0256
1822.871040 86.902 -145.1090
1836.080315 86.966 -145.1972
1849.385310 87.030 -145.2887
1862.786718 87.095 -145.3840
1876.285239 87.161 -145.4858
1889.881575 87.227 -145.5977
1903.576436 87.293 -145.7184
1917.370535 87.360 -145.8454
1931.264593 87.427 -145.9795
1945.259332 87.494 -146.1218
1959.355483 87.561 -146.2718
1973.553781 87.629 -146.4302
1987.854965 87.698 -146.5971
2002.259781 87.767 -146.7713
2016.768981 87.835 -146.9538
2031.383320 87.904 -147.1467
2046.103561 87.972 -147.3495
2060.930471 88.040 -147.5619
2075.864823 88.109 -147.7844
2090.907395 88.177 -148.0182
2106.058972 88.246 -148.2625
2121.320344 88.315 -148.5156
2136.692305 88.383 -148.7782
2152.175658 88.451 -149.0529
2167.771210 88.518 -149.3416
2183.479774 88.585 -149.6437
2199.302169 88.652 -149.9574
2215.239219 88.719 -150.2822
2231.291755 88.784 -150.6185
2247.460615 88.849 -150.9677
2263.746641 88.914 -151.3307
2280.150683 88.977 -151.7072
2296.673595 89.039 -152.0946
2313.316238 89.099 -152.4916
2330.079481 89.158 -152.8998
2346.964198 89.216 -153.3215
2363.971268 89.273 -153.7552
2381.101578 89.329 -154.1994
2398.356022 89.383 -154.6555
2415.735498 89.435 -155.1261
2433.240913 89.485 -155.6104
2450.873180 89.533 -156.1051
2468.633217 89.579 -156.6075
2486.521951 89.623 -157.1174
2504.540314 89.665 -157.6346
2522.689246 89.704 -158.1580
2540.969692 89.741 -158.6879
2559.382606 89.775 -159.2258
2577.928947 89.807 -159.7724
2596.609683 89.837 -160.3274
2615.425787 89.864 -160.8883
2634.378241 89.888 -161.4511
2653.468031 89.910 -162.0136
2672.696154 89.929 -162.5776
2692.063613 89.945 -163.1450
2711.571415 89.958 -163.7136
2731.220579 89.969 -164.2813
2751.012130 89.977 -164.8474
2770.947098 89.982 -165.4118
2791.026522 89.984 -165.9742
2811.251451 89.984 -166.5345
2831.622938 89.981 -167.0915
2852.142045 89.975 -167.6435
2872.809842 89.966 -168.1889
2893.627406 89.956 -168.7263
2914.595823 89.943 -169.2556
2935.716186 89.927 -169.7765
2956.989596 89.910 -170.2892
2978.417161 89.889 -170.7932
3000.000000 89.867 -171.2886
3021.739237 89.843 -171.7758
3043.636005 89.817 -172.2531
3065.691446 89.790 -172.7182
3087.906710 89.760 -173.1696
3110.282955 89.729 -173.6084
3132.821347 89.696 -174.0360
3155.523062 89.661 -174.4519
3178.389283 89.626 -174.8546
3201.421202 89.590 -175.2447
3224.620020 89.552 -175.6226
3247.986946 89.514 -175.9882
3271.523198 89.474 -176.3397
3295.230004 89.433 -176.6770
3319.108599 89.392 -177.0021
3343.160228 89.350 -177.3165
3367.386145 89.307 -177.6196
3391.787613 89.264 -177.9109
3416.365904 89.221 -178.1908
3441.122300 89.177 -178.4583
3466.058091 89.133 -178.7109
3491.174576 89.089 -178.9490
3516.473066 89.044 -179.1744
3541.954880 88.999 -179.3878
3567.621345 88.954 -179.5866
3593.473800 88.910 -179.7680
3619.513592 88.866 -179.9322
3645.742080 88.823 179.9201
3672.160630 88.782 179.7871
3698.770620 88.742 179.6664
3725.573436 88.704 179.5551
3752.570477 88.668 179.4505
3779.763150 88.635 179.3516
3807.152872 88.604 179.2552
3834.741071 88.576 179.1551
3862.529185 88.550 179.0457
3890.518664 88.526 178.9238
3918.710966 88.502 178.7879
3947.107561 88.479 178.6378
3975.709929 88.454 178.4753
4004.519563 88.428 178.3050
4033.537962 88.400 178.1331
4062.766641 88.371 177.9631
4092.207123 88.341 177.7949
4121.860942 88.310 177.6296
4151.729646 88.279 177.4680
4181.814790 88.247 177.3075
4212.117944 88.214 177.1479
4242.640687 88.181 176.9902
4273.384610 88.149 176.8331
4304.351317 88.116 176.6744
4335.542421 88.082 176.5148
4366.959549 88.048 176.3558
4398.604338 88.014 176.1962
4430.478438 87.978 176.0344
4462.583511 87.942 175.8698
4494.921231 87.905 175.7048
4527.493283 87.867 175.5422
4560.301365 87.828 175.3835
4593.347189 87.786 175.2300
4626.632476 87.744 175.0823
4660.158962 87.701 174.9424
4693.928395 87.660 174.8118
4727.942535 87.619 174.6864
4762.203156 87.580 174.5565
4796.712043 87.541 174.4137
4831.470996 87.502 174.2535
4866.481826 87.460 174.0785
4901.746360 87.416 173.8955
4937.266434 87.368 173.7126
4973.043902 87.316 173.5361
5009.080628 87.262 173.3694
5045.378492 87.206 173.2126
5081.939384 87.147 173.0689
5118.765212 87.087 172.9402
5155.857894 87.025 172.8218
5193.219366 86.962 172.7133
5230.851574 86.897 172.6189
5268.756481 86.830 172.5401
5306.936062 86.761 172.4796
5345.392309 86.691 172.4411
5384.127225 86.620 172.4252
5423.142830 86.549 172.4326
5462.441159 86.477 172.4625
5502.024259 86.405 172.5128
5541.894195 86.332 172.5856
5582.053045 86.260 172.6838
5622.502902 86.188 172.8085
5663.245876 86.118 172.9608
5704.284090 86.048 173.1412
5745.619684 85.979 173.3499
5787.254813 85.911 173.5873
5829.191647 85.844 173.8515
5871.432373 85.779 174.1406
5913.979192 85.717 174.4590
5956.834323 85.659 174.8133
6000.000000 85.604 175.2013
6043.478473 85.555 175.6168
6087.272010 85.510 176.0544
6131.382892 85.469 176.5110
6175.813420 85.433 176.9831
6220.565910 85.402 177.4711
6265.642695 85.377 177.9757
6311.046124 85.357 178.4932
6356.778566 85.343 179.0208
6402.842404 85.335 179.5591
6449.240040 85.334 -179.8888
6495.973891 85.339 -179.3204
6543.046396 85.352 -178.7369
6590.460007 85.373 -178.1409
6638.217197 85.403 -177.5374
6686.320456 85.444 -176.9339
6734.772290 85.496 -176.3374
6783.575226 85.559 -175.7524
6832.731809 85.635 -175.1834
6882.244600 85.723 -174.6373
6932.116181 85.824 -174.1230
6982.349153 85.939 -173.6509
7032.946133 86.067 -173.2306
7083.909760 86.209 -172.8694
7135.242690 86.365 -172.5756
7186.947600 86.536 -172.3629
7239.027185 86.723 -172.2489
7291.484160 86.924 -172.2533
7344.321260 87.140 -172.3952
7397.541239 87.370 -172.6953
7451.146872 87.610 -173.1761
7505.140954 87.861 -173.8593
7559.526299 88.118 -174.7677
7614.305743 88.378 -175.9295
7669.482141 88.637 -177.3737
7725.058371 88.889 -179.1240
7781.037328 89.126 178.8025
7837.421932 89.338 176.3990
7894.215122 89.514 173.6731
7951.419859 89.643 170.6474
8009.039125 89.716 167.3674
8067.075924 89.722 163.8990
8125.533282 89.655 160.3214
8184.414245 89.512 156.7234
8243.721885 89.294 153.2001
8303.459292 89.002 149.8459
8363.629581 88.645 146.7422
8424.235888 88.232 143.9498
8485.281374 87.773 141.5089
8546.769221 87.281 139.4442
8608.702634 86.764 137.7618
8671.084842 86.233 136.4537
8733.919097 85.695 135.5051
8797.208675 85.159 134.8935
8860.956876 84.629 134.5926
8925.167022 84.110 134.5731
8989.842461 83.606 134.8031
9054.986566 83.117 135.2558
9120.602731 82.645 135.9059
9186.694378 82.191 136.7296
9253.264952 81.754 137.7094
9320.317925 81.336 138.8317
9387.856790 80.937 140.0781
9455.885071 80.555 141.4266
9524.406312 80.191 142.8611
9593.424086 79.843 144.3682
9662.941992 79.513 145.9381
9732.963653 79.199 147.5615
9803.492719 78.901 149.2233
9874.532869 78.615 150.9119
9946.087805 78.341 152.6201
10018.161257 78.075 154.3408
10090.756983 77.815 156.0762
10163.878768 77.557 157.8379
10237.530423 77.301 159.6461
10311.715789 77.044 161.5280
10386.438732 76.788 163.5168
10461.703149 76.534 165.6405
10537.512962 76.289 167.9138
10613.872125 76.059 170.3467
10690.784618 75.851 172.9327
10768.254450 75.670 175.6425
10846.285661 75.516 178.4336
10924.882318 75.391 -178.7228
11004.048518 75.294 -175.8463
11083.788390 75.225 -172.9546
11164.106090 75.183 -170.0628
11245.005805 75.166 -167.1948
11326.491752 75.173 -164.3656
11408.568180 75.203 -161.5696
11491.239368 75.255 -158.8014
11574.509626 75.330 -156.0652
11658.383294 75.430 -153.3691
11742.864745 75.554 -150.7162
11827.958384 75.703 -148.1119
11913.668646 75.875 -145.5621
12000.000000 76.071 -143.0677
12086.956947 76.294 -140.6320
12174.544019 76.545 -138.2599
12262.765784 76.826 -135.9615
12351.626840 77.138 -133.7503
12441.131819 77.483 -131.6423
12531.285389 77.863 -129.6566
12622.092249 78.280 -127.8160
12713.557132 78.735 -126.1533
12805.684808 79.230 -124.7070
12898.480079 79.763 -123.5163
12991.947783 80.338 -122.6257
13086.092792 80.953 -122.0885
13180.920015 81.606 -121.9751
13276.434395 82.295 -122.3736
13372.640911 83.009 -123.3789
13469.544580 83.734 -125.0848
13567.150452 84.450 -127.5727
13665.463617 85.128 -130.8935
13764.489200 85.737 -135.0406
13864.232362 86.241 -139.9360
13964.698305 86.610 -145.4193
14065.892266 86.823 -151.2514
14167.819519 86.872 -157.1467
14270.485380 86.766 -162.8242
14373.895200 86.526 -168.0488
14478.054370 86.183 -172.6589
14582.968320 85.769 -176.5762
14688.642520 85.318 -179.7982
14795.082478 84.859 177.6207
14902.293745 84.412 175.5873
15010.281908 83.992 173.9880
15119.052599 83.608 172.7059
15228.611486 83.263 171.6304
15338.964283 82.957 170.6610
15450.116741 82.688 169.7084
15562.074656 82.448 168.6944
15674.843864 82.231 167.5509
15788.430244 82.030 166.2203
15902.839718 81.835 164.6523
16018.078250 81.637 162.7997
16134.151848 81.425 160.6053
16251.066563 81.188 157.9848
16368.828491 80.910 154.8235
16487.443769 80.564 150.9810
16606.918584 80.100 146.3482
16727.259161 79.431 141.0748
16848.471777 78.434 136.2244
16970.562748 77.038 135.1036
17093.538442 75.504 142.7920
17217.405268 74.466 155.1580
17342.169684 74.083 161.3881
17467.838194 73.899 162.1951
17594.417350 73.607 161.2977
17721.913751 73.162 160.4759
17850.334044 72.612 160.2674
17979.684923 72.013 160.7234
18109.973131 71.404 161.7463
18241.205462 70.807 163.2100
18373.388756 70.237 165.0013
18506.529905 69.703 167.0356
18640.635849 69.211 169.2519
18775.713581 68.764 171.5880
18911.770141 68.363 173.9869
19048.812624 68.005 176.3912
19186.848172 67.689 178.7509
19325.883983 67.409 -178.9688
19465.927305 67.156 -176.8338
19606.985439 66.924 -174.9378
19749.065738 66.716 -173.3668
19892.175609 66.555 -172.2188
20036.322514 66.468 -171.6093
