* Measurement data measured by REW V5.31.3
* Source: Headset (CX31993 HIFI AUDIO), MICROPHONE (Master Volume), R, volume: 0.250
* Format: 256k Log Swept Sine, 1 sweep at -12.0 dBFS with no timing reference
* Dated: 02 3, 25 11:24:00 AM
* REW Settings:
*  C-weighting compensation: Off
*  Target level: 75.0 dB
* Note: ; 
* Measurement: Moondrop Starfield 300 R
* Smoothing: 1/12 octave
* Frequency Step: 96 ppo
* Start Frequency: 0.36621094 Hz
*
* Freq(Hz) SPL(dB) Phase(degrees)
0.366211 41.941 138.8811
0.368865 41.949 138.7936
0.371538 41.960 138.6631
0.374230 41.974 138.5006
0.376942 41.990 138.3151
0.379673 42.006 138.1136
0.382424 42.024 137.9005
0.385196 42.042 137.6785
0.387987 42.060 137.4493
0.390798 42.078 137.2137
0.393630 42.097 136.9721
0.396483 42.116 136.7247
0.399356 42.135 136.4716
0.402250 42.154 136.2129
0.405165 42.173 135.9485
0.408101 42.193 135.6784
0.411058 42.212 135.4025
0.414037 42.232 135.1208
0.417037 42.252 134.8333
0.420059 42.271 134.5398
0.423103 42.292 134.2404
0.426169 42.312 133.9350
0.429257 42.332 133.6235
0.432368 42.353 133.3060
0.435501 42.373 132.9823
0.438656 42.394 132.6525
0.441835 42.415 132.3164
0.445037 42.436 131.9741
0.448262 42.458 131.6256
0.451510 42.479 131.2707
0.454782 42.501 130.9095
0.458077 42.522 130.5419
0.461397 42.544 130.1679
0.464740 42.566 129.7875
0.468108 42.589 129.4007
0.471500 42.611 129.0074
0.474917 42.633 128.6076
0.478358 42.656 128.2013
0.481825 42.679 127.7884
0.485316 42.702 127.3691
0.488833 42.725 126.9432
0.492375 42.749 126.5107
0.495943 42.772 126.0718
0.499537 42.796 125.6262
0.503157 42.820 125.1741
0.506803 42.844 124.7155
0.510475 42.868 124.2503
0.514175 42.893 123.7785
0.517900 42.917 123.3002
0.521653 42.942 122.8155
0.525434 42.967 122.3242
0.529241 42.992 121.8264
0.533076 43.017 121.3221
0.536939 43.043 120.8114
0.540830 43.068 120.2943
0.544749 43.094 119.7708
0.548696 43.120 119.2410
0.552673 43.147 118.7047
0.556677 43.173 118.1622
0.560711 43.200 117.6134
0.564774 43.226 117.0584
0.568867 43.253 116.4972
0.572989 43.281 115.9299
0.577141 43.308 115.3564
0.581324 43.336 114.7768
0.585536 43.363 114.1913
0.589779 43.391 113.5997
0.594053 43.420 113.0023
0.598358 43.448 112.3989
0.602694 43.477 111.7897
0.607061 43.505 111.1747
0.611460 43.535 110.5540
0.615891 43.564 109.9276
0.620354 43.593 109.2955
0.624849 43.623 108.6579
0.629377 43.653 108.0147
0.633938 43.683 107.3660
0.638532 43.713 106.7119
0.643159 43.744 106.0524
0.647819 43.774 105.3875
0.652514 43.805 104.7174
0.657242 43.837 104.0420
0.662005 43.868 103.3613
0.666802 43.900 102.6755
0.671634 43.932 101.9846
0.676501 43.964 101.2886
0.681403 43.996 100.5875
0.686341 44.029 99.8814
0.691314 44.062 99.1703
0.696324 44.095 98.4543
0.701370 44.129 97.7333
0.706452 44.164 97.0075
0.711571 44.199 96.2770
0.716728 44.236 95.5417
0.721921 44.276 94.8020
0.727153 44.319 94.0581
0.732422 44.366 93.3103
0.737729 44.417 92.5593
0.743075 44.474 91.8056
0.748460 44.534 91.0497
0.753883 44.598 90.2924
0.759346 44.665 89.5340
0.764849 44.734 88.7752
0.770391 44.805 88.0163
0.775974 44.878 87.2577
0.781597 44.954 86.4999
0.787261 45.031 85.7432
0.792966 45.110 84.9878
0.798712 45.191 84.2343
0.804500 45.274 83.4827
0.810329 45.359 82.7335
0.816201 45.446 81.9869
0.822116 45.534 81.2430
0.828073 45.624 80.5023
0.834074 45.716 79.7647
0.840118 45.810 79.0305
0.846206 45.905 78.2999
0.852338 46.002 77.5731
0.858514 46.101 76.8500
0.864735 46.201 76.1308
0.871001 46.303 75.4156
0.877313 46.407 74.7045
0.883670 46.512 73.9974
0.890074 46.618 73.2944
0.896524 46.726 72.5956
0.903020 46.835 71.9008
0.909564 46.946 71.2101
0.916155 47.058 70.5233
0.922794 47.172 69.8406
0.929481 47.286 69.1616
0.936216 47.402 68.4865
0.943000 47.519 67.8150
0.949834 47.637 67.1471
0.956717 47.756 66.4826
0.963649 47.876 65.8214
0.970632 47.996 65.1632
0.977666 48.118 64.5081
0.984750 48.240 63.8558
0.991886 48.363 63.2061
0.999074 48.486 62.5587
1.006314 48.610 61.9137
1.013606 48.734 61.2706
1.020951 48.859 60.6294
1.028349 48.983 59.9897
1.035801 49.108 59.3515
1.043307 49.232 58.7144
1.050867 49.357 58.0783
1.058482 49.481 57.4430
1.066152 49.605 56.8083
1.073878 49.729 56.1741
1.081660 49.852 55.5406
1.089498 49.976 54.9079
1.097393 50.099 54.2764
1.105345 50.222 53.6466
1.113355 50.346 53.0191
1.121423 50.470 52.3945
1.129549 50.595 51.7732
1.137734 50.721 51.1555
1.145979 50.848 50.5416
1.154283 50.976 49.9318
1.162647 51.105 49.3260
1.171072 51.234 48.7244
1.179558 51.365 48.1268
1.188106 51.496 47.5334
1.196715 51.628 46.9441
1.205387 51.761 46.3589
1.214122 51.895 45.7776
1.222920 52.030 45.2004
1.231782 52.165 44.6270
1.240708 52.301 44.0574
1.249699 52.438 43.4915
1.258754 52.575 42.9293
1.267876 52.713 42.3706
1.277063 52.852 41.8153
1.286318 52.991 41.2633
1.295639 53.130 40.7145
1.305027 53.271 40.1686
1.314484 53.411 39.6257
1.324009 53.552 39.0855
1.333604 53.693 38.5480
1.343268 53.834 38.0128
1.353002 53.976 37.4800
1.362806 54.118 36.9492
1.372681 54.260 36.4205
1.382628 54.402 35.8935
1.392647 54.544 35.3682
1.402739 54.686 34.8443
1.412904 54.827 34.3218
1.423142 54.969 33.8006
1.433455 55.110 33.2806
1.443843 55.252 32.7619
1.454305 55.392 32.2447
1.464844 55.533 31.7294
1.475459 55.673 31.2162
1.486150 55.814 30.7057
1.496920 55.954 30.1982
1.507767 56.094 29.6938
1.518693 56.234 29.1927
1.529698 56.373 28.6947
1.540783 56.513 28.1997
1.551948 56.652 27.7077
1.563194 56.792 27.2183
1.574521 56.931 26.7314
1.585931 57.070 26.2467
1.597423 57.210 25.7641
1.608999 57.349 25.2833
1.620658 57.488 24.8041
1.632402 57.627 24.3261
1.644232 57.766 23.8492
1.656146 57.905 23.3731
1.668147 58.043 22.8975
1.680235 58.182 22.4222
1.692411 58.321 21.9469
1.704675 58.459 21.4714
1.717028 58.598 20.9953
1.729470 58.737 20.5185
1.742003 58.875 20.0407
1.754626 59.014 19.5615
1.767341 59.152 19.0809
1.780147 59.291 18.5985
1.793047 59.430 18.1143
1.806040 59.568 17.6281
1.819128 59.707 17.1400
1.832310 59.845 16.6502
1.845587 59.983 16.1590
1.858961 60.121 15.6667
1.872432 60.258 15.1737
1.886001 60.395 14.6802
1.899667 60.531 14.1865
1.913433 60.668 13.6929
1.927299 60.803 13.1993
1.941265 60.939 12.7061
1.955332 61.074 12.2133
1.969501 61.209 11.7209
1.983773 61.343 11.2290
1.998148 61.477 10.7377
2.012627 61.611 10.2470
2.027212 61.744 9.7568
2.041902 61.877 9.2673
2.056698 62.010 8.7783
2.071602 62.143 8.2898
2.086614 62.276 7.8018
2.101734 62.409 7.3142
2.116964 62.541 6.8269
2.132304 62.674 6.3399
2.147756 62.806 5.8530
2.163320 62.938 5.3661
2.178996 63.070 4.8791
2.194786 63.202 4.3919
2.210690 63.334 3.9044
2.226710 63.465 3.4167
2.242845 63.596 2.9286
2.259098 63.726 2.4403
2.275468 63.856 1.9518
2.291957 63.986 1.4633
2.308566 64.115 0.9748
2.325295 64.243 0.4865
2.342145 64.371 -0.0016
2.359117 64.499 -0.4894
2.376212 64.626 -0.9768
2.393431 64.753 -1.4638
2.410775 64.880 -1.9503
2.428244 65.007 -2.4363
2.445840 65.133 -2.9218
2.463564 65.259 -3.4068
2.481416 65.385 -3.8912
2.499397 65.511 -4.3752
2.517509 65.637 -4.8587
2.535752 65.763 -5.3419
2.554127 65.888 -5.8248
2.572635 66.014 -6.3075
2.591277 66.139 -6.7900
2.610055 66.263 -7.2726
2.628968 66.388 -7.7551
2.648019 66.511 -8.2376
2.667208 66.635 -8.7201
2.686535 66.758 -9.2026
2.706003 66.880 -9.6851
2.725612 67.002 -10.1675
2.745363 67.124 -10.6499
2.765257 67.246 -11.1323
2.785295 67.367 -11.6146
2.805478 67.489 -12.0969
2.825808 67.610 -12.5793
2.846285 67.731 -13.0617
2.866910 67.852 -13.5441
2.887685 67.973 -14.0266
2.908611 68.094 -14.5093
2.929688 68.214 -14.9920
2.950917 68.335 -15.4748
2.972301 68.455 -15.9577
2.993839 68.575 -16.4408
3.015534 68.695 -16.9240
3.037386 68.814 -17.4074
3.059396 68.933 -17.8912
3.081565 69.052 -18.3753
3.103896 69.171 -18.8600
3.126388 69.289 -19.3453
3.149043 69.407 -19.8314
3.171862 69.526 -20.3184
3.194847 69.644 -20.8065
3.217998 69.761 -21.2956
3.241317 69.879 -21.7859
3.264805 69.997 -22.2774
3.288463 70.115 -22.7702
3.312293 70.232 -23.2640
3.336295 70.350 -23.7589
3.360471 70.467 -24.2548
3.384822 70.584 -24.7516
3.409350 70.701 -25.2496
3.434056 70.817 -25.7488
3.458940 70.934 -26.2493
3.484005 71.050 -26.7516
3.509252 71.166 -27.2557
3.534681 71.281 -27.7619
3.560295 71.397 -28.2705
3.586094 71.512 -28.7817
3.612081 71.627 -29.2958
3.638255 71.742 -29.8127
3.664620 71.857 -30.3328
3.691175 71.971 -30.8557
3.717923 72.085 -31.3816
3.744864 72.199 -31.9103
3.772001 72.313 -32.4417
3.799335 72.426 -32.9758
3.826866 72.539 -33.5126
3.854597 72.651 -34.0520
3.882529 72.763 -34.5942
3.910664 72.874 -35.1393
3.939002 72.985 -35.6876
3.967546 73.096 -36.2391
3.996296 73.206 -36.7942
4.025255 73.315 -37.3531
4.054423 73.424 -37.9161
4.083804 73.532 -38.4832
4.113396 73.640 -39.0542
4.143204 73.747 -39.6290
4.173227 73.853 -40.2074
4.203468 73.959 -40.7888
4.233928 74.063 -41.3730
4.264609 74.167 -41.9598
4.295512 74.271 -42.5490
4.326639 74.373 -43.1406
4.357992 74.474 -43.7349
4.389572 74.574 -44.3322
4.421380 74.674 -44.9330
4.453419 74.772 -45.5374
4.485691 74.869 -46.1456
4.518196 74.965 -46.7571
4.550936 75.061 -47.3712
4.583914 75.154 -47.9872
4.617131 75.247 -48.6044
4.650589 75.339 -49.2220
4.684289 75.429 -49.8395
4.718233 75.518 -50.4570
4.752424 75.606 -51.0745
4.786862 75.692 -51.6925
4.821549 75.777 -52.3115
4.856488 75.861 -52.9316
4.891680 75.943 -53.5523
4.927127 76.024 -54.1729
4.962831 76.103 -54.7922
4.998794 76.181 -55.4092
5.035017 76.258 -56.0229
5.071503 76.333 -56.6326
5.108253 76.407 -57.2381
5.145270 76.480 -57.8396
5.182555 76.551 -58.4376
5.220110 76.621 -59.0321
5.257937 76.689 -59.6230
5.296038 76.756 -60.2096
5.334415 76.822 -60.7910
5.373071 76.886 -61.3661
5.412006 76.950 -61.9338
5.451224 77.012 -62.4935
5.490725 77.073 -63.0447
5.530514 77.134 -63.5876
5.570590 77.193 -64.1222
5.610957 77.252 -64.6488
5.651616 77.309 -65.1673
5.692570 77.366 -65.6773
5.733821 77.422 -66.1784
5.775370 77.478 -66.6698
5.817221 77.534 -67.1512
5.859375 77.590 -67.6220
5.901834 77.645 -68.0824
5.944602 77.700 -68.5324
5.987679 77.756 -68.9725
6.031068 77.811 -69.4032
6.074771 77.867 -69.8250
6.118792 77.923 -70.2383
6.163131 77.980 -70.6435
6.207792 78.038 -71.0405
6.252776 78.097 -71.4296
6.298086 78.156 -71.8110
6.343725 78.217 -72.1852
6.389694 78.278 -72.5533
6.435996 78.341 -72.9166
6.482634 78.404 -73.2763
6.529610 78.469 -73.6337
6.576926 78.536 -73.9895
6.624585 78.603 -74.3442
6.672590 78.672 -74.6984
6.720942 78.743 -75.0527
6.769645 78.814 -75.4082
6.818700 78.887 -75.7663
6.868111 78.961 -76.1285
6.917881 79.036 -76.4960
6.968010 79.112 -76.8696
7.018504 79.189 -77.2497
7.069362 79.266 -77.6367
7.120590 79.345 -78.0311
7.172189 79.423 -78.4333
7.224161 79.502 -78.8440
7.276511 79.581 -79.2640
7.329239 79.660 -79.6936
7.382350 79.739 -80.1330
7.435845 79.818 -80.5821
7.489729 79.896 -81.0405
7.544002 79.973 -81.5077
7.598669 80.050 -81.9832
7.653732 80.125 -82.4668
7.709194 80.200 -82.9582
7.765058 80.273 -83.4570
7.821327 80.344 -83.9624
7.878004 80.414 -84.4734
7.935091 80.483 -84.9889
7.992592 80.550 -85.5074
8.050510 80.615 -86.0281
8.108847 80.679 -86.5503
8.167607 80.740 -87.0732
8.226793 80.800 -87.5957
8.286408 80.858 -88.1165
8.346454 80.915 -88.6342
8.406936 80.970 -89.1477
8.467856 81.023 -89.6561
8.529218 81.075 -90.1587
8.591024 81.126 -90.6550
8.653278 81.175 -91.1442
8.715983 81.224 -91.6256
8.779143 81.272 -92.0985
8.842760 81.319 -92.5626
8.906839 81.365 -93.0178
8.971381 81.412 -93.4642
9.036392 81.458 -93.9023
9.101873 81.505 -94.3322
9.167829 81.551 -94.7544
9.234263 81.598 -95.1693
9.301178 81.646 -95.5779
9.368578 81.694 -95.9809
9.436467 81.744 -96.3799
9.504847 81.793 -96.7758
9.573723 81.844 -97.1698
9.643099 81.896 -97.5628
9.712976 81.949 -97.9561
9.783361 82.002 -98.3510
9.854255 82.056 -98.7488
9.925663 82.111 -99.1504
9.997588 82.166 -99.5567
10.070035 82.221 -99.9683
10.143007 82.277 -100.3859
10.216507 82.333 -100.8099
10.290540 82.388 -101.2406
10.365109 82.443 -101.6782
10.440219 82.497 -102.1224
10.515873 82.551 -102.5727
10.592076 82.603 -103.0286
10.668830 82.655 -103.4895
10.746141 82.705 -103.9546
10.824012 82.754 -104.4229
10.902447 82.801 -104.8932
10.981451 82.847 -105.3644
11.061027 82.891 -105.8353
11.141180 82.934 -106.3049
11.221913 82.975 -106.7719
11.303232 83.015 -107.2353
11.385140 83.054 -107.6939
11.467641 83.092 -108.1468
11.550741 83.128 -108.5936
11.634442 83.164 -109.0334
11.718750 83.199 -109.4659
11.803669 83.233 -109.8908
11.889203 83.267 -110.3081
11.975357 83.301 -110.7180
12.062136 83.335 -111.1209
12.149543 83.369 -111.5172
12.237583 83.403 -111.9077
12.326262 83.438 -112.2930
12.415583 83.473 -112.6742
12.505552 83.509 -113.0523
12.596172 83.545 -113.4281
12.687449 83.582 -113.8026
12.779387 83.619 -114.1770
12.871992 83.657 -114.5521
12.965268 83.695 -114.9288
13.059220 83.733 -115.3076
13.153852 83.772 -115.6894
13.249170 83.810 -116.0744
13.345179 83.849 -116.4631
13.441884 83.887 -116.8555
13.539289 83.925 -117.2515
13.637401 83.962 -117.6511
13.736223 83.999 -118.0539
13.835761 84.035 -118.4593
13.936021 84.070 -118.8668
14.037007 84.104 -119.2756
14.138725 84.138 -119.6850
14.241180 84.170 -120.0940
14.344377 84.201 -120.5018
14.448323 84.232 -120.9076
14.553021 84.262 -121.3104
14.658478 84.291 -121.7096
14.764700 84.319 -122.1046
14.871691 84.347 -122.4951
14.979457 84.374 -122.8809
15.088005 84.402 -123.2620
15.197339 84.429 -123.6388
15.307465 84.457 -124.0120
15.418389 84.485 -124.3825
15.530117 84.514 -124.7513
15.642655 84.543 -125.1198
15.756008 84.573 -125.4894
15.870182 84.603 -125.8615
15.985184 84.634 -126.2374
16.101019 84.664 -126.6184
16.217694 84.695 -127.0052
16.335214 84.725 -127.3984
16.453586 84.755 -127.7980
16.572815 84.784 -128.2035
16.692909 84.812 -128.6141
16.813872 84.839 -129.0283
16.935713 84.863 -129.4444
17.058436 84.887 -129.8604
17.182048 84.909 -130.2742
17.306556 84.929 -130.6839
17.431967 84.948 -131.0875
17.558286 84.966 -131.4837
17.685521 84.984 -131.8718
17.813677 85.001 -132.2515
17.942762 85.018 -132.6234
18.072783 85.036 -132.9886
18.203746 85.055 -133.3490
18.335658 85.074 -133.7066
18.468526 85.094 -134.0639
18.602356 85.115 -134.4231
18.737156 85.136 -134.7860
18.872934 85.157 -135.1540
19.009695 85.178 -135.5275
19.147447 85.199 -135.9061
19.286197 85.218 -136.2887
19.425953 85.235 -136.6729
19.566721 85.251 -137.0562
19.708510 85.266 -137.4356
19.851326 85.279 -137.8082
19.995177 85.290 -138.1713
20.140070 85.302 -138.5232
20.286013 85.312 -138.8631
20.433014 85.324 -139.1912
20.581080 85.336 -139.5090
20.730219 85.350 -139.8192
20.880439 85.366 -140.1252
21.031747 85.383 -140.4309
21.184152 85.402 -140.7400
21.337661 85.422 -141.0561
21.492282 85.443 -141.3818
21.648024 85.465 -141.7186
21.804895 85.486 -142.0668
21.962902 85.506 -142.4255
22.122054 85.524 -142.7926
22.282360 85.541 -143.1654
22.443827 85.556 -143.5407
22.606464 85.569 -143.9153
22.770280 85.580 -144.2863
22.935283 85.590 -144.6514
23.101481 85.599 -145.0092
23.268884 85.607 -145.3589
23.437500 85.615 -145.7008
23.607338 85.623 -146.0355
23.778406 85.631 -146.3643
23.950714 85.639 -146.6884
24.124271 85.647 -147.0092
24.299086 85.656 -147.3277
24.475167 85.666 -147.6449
24.652524 85.675 -147.9614
24.831166 85.685 -148.2776
25.011103 85.695 -148.5938
25.192344 85.705 -148.9103
25.374898 85.716 -149.2274
25.558775 85.726 -149.5455
25.743984 85.737 -149.8649
25.930536 85.747 -150.1856
26.118439 85.758 -150.5076
26.307704 85.768 -150.8304
26.498341 85.777 -151.1535
26.690359 85.787 -151.4758
26.883768 85.796 -151.7962
27.078579 85.804 -152.1136
27.274801 85.812 -152.4275
27.472446 85.821 -152.7376
27.671522 85.829 -153.0443
27.872042 85.838 -153.3486
28.074014 85.848 -153.6520
28.277450 85.857 -153.9558
28.482360 85.867 -154.2614
28.688755 85.876 -154.5689
28.896645 85.885 -154.8778
29.106042 85.892 -155.1863
29.316957 85.898 -155.4916
29.529400 85.903 -155.7908
29.743382 85.907 -156.0811
29.958915 85.911 -156.3610
30.176009 85.915 -156.6308
30.394677 85.920 -156.8925
30.614929 85.925 -157.1501
30.836778 85.932 -157.4082
31.060234 85.940 -157.6713
31.285309 85.947 -157.9424
31.512015 85.954 -158.2222
31.740364 85.960 -158.5088
31.970368 85.963 -158.7985
32.202039 85.964 -159.0865
32.435388 85.964 -159.3688
32.670428 85.962 -159.6434
32.907171 85.960 -159.9106
33.145630 85.958 -160.1732
33.385817 85.957 -160.4349
33.627745 85.955 -160.6990
33.871425 85.953 -160.9666
34.116871 85.949 -161.2363
34.364096 85.944 -161.5042
34.613113 85.938 -161.7658
34.863934 85.932 -162.0180
35.116572 85.926 -162.2607
35.371041 85.922 -162.4976
35.627354 85.920 -162.7352
35.885525 85.920 -162.9802
36.145566 85.920 -163.2367
36.407492 85.920 -163.5042
36.671316 85.918 -163.7771
36.937051 85.915 -164.0461
37.204712 85.910 -164.3019
37.474313 85.906 -164.5390
37.745867 85.903 -164.7582
38.019389 85.905 -164.9670
38.294893 85.911 -165.1777
38.572394 85.921 -165.4031
38.851905 85.933 -165.6525
39.133442 85.946 -165.9285
39.417019 85.956 -166.2270
39.702651 85.963 -166.5388
39.990353 85.967 -166.8532
40.280140 85.967 -167.1608
40.572026 85.966 -167.4561
40.866028 85.963 -167.7375
41.162160 85.959 -168.0059
41.460438 85.955 -168.2639
41.760877 85.951 -168.5136
42.063494 85.947 -168.7568
42.368303 85.943 -168.9947
42.675322 85.940 -169.2288
42.984565 85.936 -169.4610
43.296048 85.932 -169.6931
43.609789 85.928 -169.9269
43.925804 85.924 -170.1631
44.244108 85.919 -170.4014
44.564719 85.913 -170.6408
44.887654 85.906 -170.8799
45.212928 85.899 -171.1175
45.540560 85.891 -171.3530
45.870565 85.884 -171.5867
46.202962 85.876 -171.8196
46.537768 85.869 -172.0532
46.875000 85.862 -172.2890
47.214676 85.855 -172.5277
47.556813 85.847 -172.7684
47.901429 85.839 -173.0090
48.248542 85.830 -173.2469
48.598171 85.820 -173.4801
48.950334 85.811 -173.7079
49.305048 85.802 -173.9312
49.662333 85.793 -174.1519
50.022206 85.784 -174.3714
50.384688 85.776 -174.5902
50.749796 85.768 -174.8079
51.117550 85.759 -175.0241
51.487969 85.750 -175.2385
51.861072 85.742 -175.4516
52.236879 85.733 -175.6641
52.615409 85.724 -175.8762
52.996681 85.715 -176.0878
53.380717 85.706 -176.2992
53.767536 85.697 -176.5108
54.157158 85.687 -176.7233
54.549603 85.677 -176.9364
54.944892 85.666 -177.1490
55.343045 85.654 -177.3593
55.744084 85.642 -177.5659
56.148028 85.630 -177.7681
56.554900 85.617 -177.9662
56.964720 85.604 -178.1606
57.377510 85.590 -178.3513
57.793291 85.577 -178.5382
58.212085 85.564 -178.7211
58.633914 85.551 -178.9009
59.058799 85.539 -179.0796
59.486764 85.527 -179.2610
59.917829 85.516 -179.4491
60.352019 85.505 -179.6460
60.789354 85.492 -179.8501
61.229859 85.478 179.9441
61.673556 85.462 179.7427
62.120468 85.446 179.5484
62.570618 85.431 179.3596
63.024031 85.415 179.1732
63.480729 85.400 178.9876
63.940736 85.385 178.8036
64.404077 85.370 178.6212
64.870776 85.356 178.4392
65.340856 85.340 178.2570
65.814343 85.325 178.0768
66.291261 85.308 177.9020
66.771635 85.291 177.7326
67.255489 85.275 177.5646
67.742850 85.258 177.3948
68.233743 85.239 177.2250
68.728193 85.220 177.0594
69.226226 85.201 176.8986
69.727867 85.181 176.7388
70.233144 85.162 176.5786
70.742083 85.141 176.4234
71.254709 85.122 176.2783
71.771050 85.104 176.1391
72.291132 85.088 175.9935
72.814984 85.074 175.8337
73.342631 85.059 175.6644
73.874102 85.044 175.4943
74.409424 85.029 175.3257
74.948626 85.013 175.1537
75.491734 84.997 174.9782
76.038779 84.980 174.8068
76.589787 84.961 174.6459
77.144788 84.943 174.4914
77.703811 84.926 174.3341
78.266885 84.907 174.1732
78.834039 84.887 174.0169
79.405303 84.867 173.8707
79.980706 84.847 173.7288
80.560280 84.828 173.5822
81.144053 84.808 173.4314
81.732056 84.788 173.2861
82.324320 84.767 173.1521
82.920876 84.748 173.0233
83.521755 84.730 172.8893
84.126988 84.711 172.7495
84.736607 84.691 172.6130
85.350643 84.670 172.4864
85.969129 84.650 172.3651
86.592097 84.630 172.2396
87.219579 84.609 172.1078
87.851608 84.586 171.9772
88.488217 84.562 171.8549
89.129439 84.538 171.7401
89.775308 84.515 171.6266
90.425856 84.492 171.5108
91.081119 84.469 171.3923
91.741131 84.446 171.2738
92.405925 84.422 171.1620
93.075536 84.399 171.0620
93.750000 84.379 170.9644
94.429351 84.360 170.8496
95.113625 84.339 170.7163
95.802858 84.315 170.5926
96.497085 84.290 170.5009
97.196342 84.269 170.4228
97.900667 84.250 170.3202
98.610096 84.229 170.1876
99.324665 84.202 170.0624
100.044413 84.172 169.9807
100.769376 84.146 169.9340
101.499592 84.125 169.8780
102.235100 84.105 169.7807
102.975938 84.081 169.6553
103.722144 84.051 169.5445
104.473757 84.020 169.4757
105.230817 83.993 169.4332
105.993363 83.972 169.3741
106.761435 83.952 169.2710
107.535072 83.928 169.1392
108.314315 83.898 169.0230
109.099206 83.865 168.9566
109.889783 83.836 168.9335
110.686090 83.813 168.9117
111.488167 83.794 168.8480
112.296056 83.772 168.7330
113.109800 83.743 168.5966
113.929440 83.709 168.4811
114.755020 83.675 168.4065
115.586582 83.646 168.3580
116.424170 83.623 168.3058
117.267827 83.605 168.2321
118.117598 83.586 168.1427
118.973527 83.565 168.0562
119.835658 83.540 167.9871
120.704037 83.511 167.9404
121.578708 83.477 167.9215
122.459718 83.439 167.9414
123.347111 83.401 167.9980
124.240935 83.369 168.0576
125.141236 83.342 168.0662
126.048061 83.314 167.9891
126.961458 83.277 167.8449
127.881473 83.226 167.7054
128.808154 83.165 167.6582
129.741551 83.103 167.7576
130.681712 83.055 167.9876
131.628686 83.029 168.2612
132.582521 83.023 168.4647
133.543269 83.026 168.5217
134.510979 83.023 168.4323
135.485701 83.004 168.2737
136.467486 82.968 168.1631
137.456386 82.928 168.1897
138.452451 82.902 168.3505
139.455735 82.901 168.5338
140.466288 82.924 168.5782
141.484165 82.951 168.3756
142.509418 82.955 167.9351
143.542100 82.917 167.3787
144.582265 82.829 166.8896
145.629968 82.699 166.6537
146.685262 82.544 166.8093
147.748204 82.393 167.4105
148.818849 82.274 168.4097
149.897251 82.212 169.6641
150.983469 82.215 170.9709
152.077557 82.282 172.1219
153.179574 82.394 172.9599
154.289576 82.529 173.4164
155.407622 82.662 173.5114
156.533770 82.778 173.3237
157.668078 82.865 172.9540
158.810606 82.922 172.4958
159.961413 82.949 172.0201
161.120559 82.951 171.5710
162.288105 82.931 171.1708
163.464112 82.895 170.8266
164.648640 82.847 170.5355
165.841752 82.792 170.2887
167.043510 82.732 170.0741
168.253976 82.670 169.8800
169.473213 82.609 169.6957
170.701286 82.551 169.5134
171.938258 82.496 169.3305
173.184194 82.448 169.1504
174.439158 82.406 168.9824
175.703216 82.372 168.8402
176.976434 82.343 168.7384
178.258878 82.319 168.6860
179.550615 82.296 168.6813
180.851713 82.270 168.7098
182.162239 82.240 168.7478
183.482262 82.206 168.7714
184.811850 82.172 168.7667
186.151073 82.140 168.7371
187.500000 82.113 168.7018
188.858702 82.090 168.6854
190.227250 82.069 168.7048
191.605715 82.047 168.7592
192.994169 82.020 168.8312
194.392685 81.990 168.8981
195.801334 81.958 168.9453
197.220191 81.927 168.9752
198.649330 81.898 169.0034
200.088825 81.870 169.0465
201.538751 81.843 169.1109
202.999184 81.815 169.1899
204.470200 81.784 169.2708
205.951875 81.753 169.3450
207.444287 81.721 169.4136
208.947514 81.691 169.4846
210.461634 81.662 169.5659
211.986726 81.633 169.6598
213.522869 81.605 169.7629
215.070144 81.578 169.8719
216.628631 81.551 169.9884
218.198411 81.526 170.1183
219.779567 81.502 170.2667
221.372180 81.478 170.4334
222.976334 81.454 170.6121
224.592112 81.431 170.7941
226.219600 81.409 170.9745
227.858880 81.390 171.1525
229.510039 81.374 171.3297
231.173164 81.360 171.5054
232.848340 81.350 171.6734
234.535655 81.340 171.8217
236.235197 81.332 171.9387
237.947054 81.325 172.0237
239.671317 81.317 172.0886
241.408074 81.308 172.1504
243.157416 81.298 172.2198
244.919435 81.287 172.2966
246.694223 81.276 172.3718
248.481871 81.262 172.4345
250.282473 81.247 172.4816
252.096123 81.230 172.5190
253.922915 81.212 172.5568
255.762945 81.193 172.6034
257.616309 81.175 172.6635
259.483103 81.155 172.7381
261.363424 81.135 172.8244
263.257372 81.114 172.9177
265.165043 81.092 173.0140
267.086538 81.070 173.1118
269.021957 81.049 173.2109
270.971401 81.028 173.3118
272.934972 81.007 173.4159
274.912771 80.986 173.5250
276.904902 80.965 173.6402
278.911469 80.944 173.7627
280.932577 80.923 173.8936
282.968330 80.902 174.0322
285.018835 80.881 174.1752
287.084199 80.860 174.3173
289.164530 80.840 174.4540
291.259935 80.821 174.5847
293.370525 80.802 174.7126
295.496408 80.784 174.8414
297.637697 80.765 174.9723
299.794503 80.747 175.1054
301.966937 80.729 175.2411
304.155114 80.711 175.3802
306.359147 80.693 175.5227
308.579152 80.675 175.6680
310.815244 80.657 175.8147
313.067539 80.640 175.9625
315.336156 80.622 176.1121
317.621211 80.605 176.2638
319.922826 80.587 176.4177
322.241118 80.570 176.5732
324.576210 80.553 176.7301
326.928223 80.535 176.8878
329.297280 80.518 177.0470
331.683504 80.502 177.2087
334.087019 80.485 177.3740
336.507952 80.469 177.5427
338.946427 80.453 177.7138
341.402572 80.437 177.8863
343.876516 80.422 178.0599
346.368387 80.406 178.2347
348.878315 80.390 178.4111
351.406431 80.374 178.5886
353.952867 80.358 178.7667
356.517756 80.343 178.9453
359.101230 80.328 179.1246
361.703426 80.314 179.3052
364.324478 80.300 179.4875
366.964523 80.287 179.6721
369.623699 80.273 179.8584
372.302145 80.259 -179.9539
375.000000 80.246 -179.7649
377.717405 80.233 -179.5745
380.454501 80.219 -179.3823
383.211431 80.206 -179.1879
385.988339 80.194 -178.9914
388.785369 80.181 -178.7925
391.602668 80.169 -178.5912
394.440383 80.156 -178.3880
397.298660 80.144 -178.1837
400.177650 80.132 -177.9785
403.077502 80.120 -177.7727
405.998368 80.108 -177.5658
408.940400 80.097 -177.3578
411.903750 80.086 -177.1484
414.888575 80.075 -176.9376
417.895028 80.064 -176.7249
420.923268 80.053 -176.5099
423.973452 80.043 -176.2923
427.045738 80.033 -176.0724
430.140287 80.024 -175.8509
433.257261 80.014 -175.6285
436.396822 80.005 -175.4055
439.559133 79.996 -175.1820
442.744360 79.987 -174.9576
445.952668 79.979 -174.7318
449.184225 79.970 -174.5042
452.439199 79.962 -174.2745
455.717760 79.954 -174.0422
459.020079 79.946 -173.8073
462.346327 79.938 -173.5697
465.696680 79.930 -173.3297
469.071310 79.922 -173.0875
472.470394 79.915 -172.8435
475.894109 79.908 -172.5981
479.342634 79.901 -172.3520
482.816148 79.894 -172.1054
486.314833 79.887 -171.8580
489.838871 79.881 -171.6088
493.388445 79.875 -171.3568
496.963741 79.869 -171.1019
500.564945 79.863 -170.8442
504.192245 79.858 -170.5842
507.845830 79.853 -170.3221
511.525890 79.849 -170.0583
515.232618 79.844 -169.7927
518.966206 79.841 -169.5255
522.726849 79.837 -169.2569
526.514743 79.834 -168.9867
530.330086 79.830 -168.7149
534.173076 79.827 -168.4413
538.043915 79.825 -168.1656
541.942803 79.822 -167.8872
545.869944 79.820 -167.6060
549.825542 79.818 -167.3220
553.809805 79.816 -167.0355
557.822939 79.815 -166.7465
561.865154 79.814 -166.4553
565.936660 79.813 -166.1619
570.037671 79.813 -165.8662
574.168399 79.813 -165.5682
578.329060 79.813 -165.2678
582.519870 79.814 -164.9651
586.741049 79.815 -164.6599
590.992817 79.816 -164.3524
595.275394 79.818 -164.0423
599.589005 79.820 -163.7293
603.933874 79.823 -163.4132
608.310228 79.825 -163.0937
612.718295 79.829 -162.7707
617.158304 79.832 -162.4444
621.630488 79.836 -162.1149
626.135079 79.840 -161.7827
630.672311 79.845 -161.4479
635.242423 79.850 -161.1105
639.845651 79.856 -160.7701
644.482237 79.862 -160.4262
649.152421 79.868 -160.0781
653.856447 79.874 -159.7248
658.594560 79.881 -159.3655
663.367008 79.887 -158.9996
668.174039 79.895 -158.6263
673.015903 79.902 -158.2441
677.892854 79.910 -157.8510
682.805145 79.919 -157.4443
687.753032 79.930 -157.0211
692.736774 79.941 -156.5787
697.756631 79.956 -156.1149
702.812863 79.975 -155.6292
707.905735 80.000 -155.1253
713.035511 80.032 -154.6134
718.202461 80.073 -154.1118
723.406852 80.123 -153.6464
728.648956 80.178 -153.2447
733.929047 80.236 -152.9248
739.247399 80.291 -152.6861
744.604290 80.337 -152.5067
750.000000 80.374 -152.3532
755.434809 80.402 -152.1932
760.909001 80.423 -152.0049
766.422861 80.440 -151.7786
771.976677 80.456 -151.5145
777.570739 80.472 -151.2181
783.205337 80.490 -150.8969
788.880766 80.510 -150.5582
794.597321 80.533 -150.2084
800.355301 80.558 -149.8524
806.155005 80.586 -149.4942
811.996736 80.615 -149.1371
817.880799 80.647 -148.7842
823.807501 80.680 -148.4383
829.777150 80.715 -148.1019
835.790057 80.750 -147.7766
841.846536 80.785 -147.4632
847.946903 80.819 -147.1610
854.091476 80.851 -146.8674
860.280575 80.882 -146.5776
866.514523 80.910 -146.2850
872.793644 80.936 -145.9812
879.118267 80.960 -145.6581
885.488720 80.983 -145.3091
891.905336 81.007 -144.9304
898.368450 81.031 -144.5216
904.878398 81.059 -144.0863
911.435520 81.091 -143.6306
918.040157 81.127 -143.1621
924.692655 81.168 -142.6884
931.393359 81.214 -142.2161
938.142619 81.263 -141.7502
944.940787 81.316 -141.2940
951.788218 81.373 -140.8496
958.685268 81.432 -140.4178
965.632296 81.493 -139.9989
972.629666 81.556 -139.5928
979.677741 81.621 -139.1993
986.776890 81.688 -138.8179
993.927482 81.755 -138.4487
1001.129891 81.824 -138.0912
1008.384491 81.894 -137.7455
1015.691660 81.965 -137.4112
1023.051781 82.037 -137.0878
1030.465236 82.109 -136.7748
1037.932411 82.182 -136.4719
1045.453698 82.256 -136.1791
1053.029486 82.331 -135.8964
1060.660172 82.406 -135.6239
1068.346153 82.481 -135.3613
1076.087829 82.557 -135.1085
1083.885605 82.633 -134.8652
1091.739887 82.710 -134.6312
1099.651084 82.786 -134.4065
1107.619609 82.863 -134.1907
1115.645878 82.940 -133.9837
1123.730308 83.017 -133.7848
1131.873321 83.094 -133.5937
1140.075341 83.171 -133.4102
1148.336797 83.248 -133.2341
1156.658119 83.325 -133.0654
1165.039741 83.401 -132.9038
1173.482099 83.478 -132.7492
1181.985634 83.554 -132.6010
1190.550789 83.630 -132.4588
1199.178011 83.706 -132.3218
1207.867749 83.781 -132.1898
1216.620457 83.856 -132.0623
1225.436590 83.931 -131.9388
1234.316609 84.006 -131.8191
1243.260976 84.081 -131.7028
1252.270157 84.155 -131.5896
1261.344623 84.230 -131.4790
1270.484846 84.304 -131.3709
1279.691303 84.378 -131.2649
1288.964474 84.452 -131.1611
1298.304842 84.526 -131.0593
1307.712894 84.600 -130.9594
1317.189120 84.674 -130.8608
1326.734016 84.748 -130.7632
1336.348077 84.822 -130.6661
1346.031806 84.896 -130.5693
1355.785708 84.970 -130.4728
1365.610290 85.045 -130.3765
1375.506065 85.120 -130.2804
1385.473549 85.195 -130.1844
1395.513261 85.270 -130.0885
1405.625726 85.346 -129.9929
1415.811469 85.423 -129.8977
1426.071023 85.500 -129.8031
1436.404921 85.578 -129.7091
1446.813703 85.656 -129.6156
1457.297912 85.735 -129.5228
1467.858093 85.815 -129.4306
1478.494798 85.896 -129.3392
1489.208581 85.978 -129.2487
1500.000000 86.060 -129.1593
1510.869618 86.144 -129.0711
1521.818002 86.229 -128.9846
1532.845723 86.314 -128.8999
1543.953355 86.401 -128.8175
1555.141477 86.489 -128.7375
1566.410674 86.579 -128.6602
1577.761531 86.670 -128.5859
1589.194642 86.762 -128.5148
1600.710601 86.855 -128.4474
1612.310010 86.950 -128.3840
1623.993473 87.046 -128.3252
1635.761599 87.144 -128.2712
1647.615002 87.244 -128.2225
1659.554299 87.345 -128.1796
1671.580114 87.448 -128.1431
1683.693072 87.552 -128.1134
1695.893807 87.658 -128.0909
1708.182952 87.766 -128.0762
1720.561150 87.875 -128.0698
1733.029045 87.987 -128.0725
1745.587288 88.100 -128.0849
1758.236533 88.216 -128.1078
1770.977440 88.333 -128.1422
1783.810673 88.452 -128.1888
1796.736900 88.573 -128.2484
1809.756796 88.697 -128.3217
1822.871040 88.822 -128.4097
1836.080315 88.949 -128.5132
1849.385310 89.078 -128.6333
1862.786718 89.210 -128.7710
1876.285239 89.343 -128.9274
1889.881575 89.479 -129.1036
1903.576436 89.616 -129.3009
1917.370535 89.756 -129.5203
1931.264593 89.897 -129.7633
1945.259332 90.040 -130.0313
1959.355483 90.184 -130.3258
1973.553781 90.331 -130.6483
1987.854965 90.479 -131.0003
2002.259781 90.629 -131.3832
2016.768981 90.779 -131.7987
2031.383320 90.931 -132.2483
2046.103561 91.084 -132.7338
2060.930471 91.238 -133.2569
2075.864823 91.392 -133.8195
2090.907395 91.547 -134.4231
2106.058972 91.701 -135.0694
2121.320344 91.855 -135.7597
2136.692305 92.008 -136.4954
2152.175658 92.160 -137.2780
2167.771210 92.310 -138.1086
2183.479774 92.458 -138.9884
2199.302169 92.603 -139.9180
2215.239219 92.745 -140.8979
2231.291755 92.883 -141.9285
2247.460615 93.017 -143.0094
2263.746641 93.145 -144.1404
2280.150683 93.268 -145.3205
2296.673595 93.385 -146.5486
2313.316238 93.494 -147.8229
2330.079481 93.596 -149.1410
2346.964198 93.689 -150.5001
2363.971268 93.774 -151.8968
2381.101578 93.848 -153.3271
2398.356022 93.913 -154.7868
2415.735498 93.967 -156.2714
2433.240913 94.010 -157.7759
2450.873180 94.042 -159.2948
2468.633217 94.062 -160.8225
2486.521951 94.071 -162.3532
2504.540314 94.068 -163.8810
2522.689246 94.054 -165.4002
2540.969692 94.028 -166.9051
2559.382606 93.991 -168.3900
2577.928947 93.943 -169.8496
2596.609683 93.884 -171.2787
2615.425787 93.815 -172.6725
2634.378241 93.737 -174.0264
2653.468031 93.650 -175.3365
2672.696154 93.554 -176.5993
2692.063613 93.451 -177.8119
2711.571415 93.340 -178.9717
2731.220579 93.223 179.9233
2751.012130 93.101 178.8748
2770.947098 92.974 177.8837
2791.026522 92.842 176.9507
2811.251451 92.707 176.0759
2831.622938 92.569 175.2592
2852.142045 92.429 174.5000
2872.809842 92.287 173.7976
2893.627406 92.143 173.1511
2914.595823 91.999 172.5593
2935.716186 91.855 172.0211
2956.989596 91.710 171.5348
2978.417161 91.566 171.0989
3000.000000 91.424 170.7117
3021.739237 91.282 170.3716
3043.636005 91.142 170.0770
3065.691446 91.003 169.8265
3087.906710 90.867 169.6183
3110.282955 90.732 169.4507
3132.821347 90.600 169.3219
3155.523062 90.471 169.2302
3178.389283 90.345 169.1741
3201.421202 90.221 169.1520
3224.620020 90.101 169.1627
3247.986946 89.984 169.2046
3271.523198 89.870 169.2766
3295.230004 89.759 169.3774
3319.108599 89.652 169.5059
3343.160228 89.549 169.6607
3367.386145 89.449 169.8409
3391.787613 89.353 170.0456
3416.365904 89.260 170.2739
3441.122300 89.172 170.5252
3466.058091 89.087 170.7988
3491.174576 89.007 171.0941
3516.473066 88.931 171.4106
3541.954880 88.860 171.7479
3567.621345 88.793 172.1052
3593.473800 88.732 172.4814
3619.513592 88.676 172.8753
3645.742080 88.626 173.2847
3672.160630 88.582 173.7066
3698.770620 88.545 174.1374
3725.573436 88.515 174.5721
3752.570477 88.492 175.0051
3779.763150 88.475 175.4305
3807.152872 88.465 175.8429
3834.741071 88.461 176.2374
3862.529185 88.462 176.6110
3890.518664 88.467 176.9626
3918.710966 88.476 177.2932
3947.107561 88.487 177.6052
3975.709929 88.501 177.9020
4004.519563 88.517 178.1872
4033.537962 88.535 178.4638
4062.766641 88.556 178.7341
4092.207123 88.580 178.9993
4121.860942 88.608 179.2599
4151.729646 88.639 179.5159
4181.814790 88.674 179.7667
4212.117944 88.713 -179.9890
4242.640687 88.758 -179.7526
4273.384610 88.808 -179.5267
4304.351317 88.864 -179.3143
4335.542421 88.926 -179.1193
4366.959549 88.995 -178.9460
4398.604338 89.071 -178.7996
4430.478438 89.154 -178.6855
4462.583511 89.245 -178.6096
4494.921231 89.342 -178.5785
4527.493283 89.447 -178.5991
4560.301365 89.559 -178.6791
4593.347189 89.677 -178.8266
4626.632476 89.802 -179.0501
4660.158962 89.932 -179.3582
4693.928395 90.066 -179.7594
4727.942535 90.203 179.7381
4762.203156 90.342 179.1273
4796.712043 90.480 178.4027
4831.470996 90.617 177.5605
4866.481826 90.749 176.5980
4901.746360 90.876 175.5126
4937.266434 90.995 174.3027
4973.043902 91.103 172.9686
5009.080628 91.197 171.5139
5045.378492 91.276 169.9452
5081.939384 91.335 168.2722
5118.765212 91.374 166.5079
5155.857894 91.388 164.6680
5193.219366 91.377 162.7716
5230.851574 91.338 160.8407
5268.756481 91.270 158.9007
5306.936062 91.173 156.9797
5345.392309 91.046 155.1090
5384.127225 90.891 153.3212
5423.142830 90.711 151.6483
5462.441159 90.510 150.1175
5502.024259 90.294 148.7444
5541.894195 90.071 147.5263
5582.053045 89.846 146.4377
5622.502902 89.625 145.4359
5663.245876 89.406 144.4774
5704.284090 89.183 143.5378
5745.619684 88.952 142.6215
5787.254813 88.707 141.7557
5829.191647 88.447 140.9760
5871.432373 88.173 140.3138
5913.979192 87.889 139.7906
5956.834323 87.598 139.4164
6000.000000 87.305 139.1925
6043.478473 87.012 139.1144
6087.272010 86.723 139.1738
6131.382892 86.439 139.3609
6175.813420 86.163 139.6655
6220.565910 85.895 140.0775
6265.642695 85.636 140.5874
6311.046124 85.387 141.1865
6356.778566 85.149 141.8668
6402.842404 84.921 142.6214
6449.240040 84.705 143.4440
6495.973891 84.501 144.3292
6543.046396 84.308 145.2720
6590.460007 84.128 146.2682
6638.217197 83.960 147.3134
6686.320456 83.805 148.4029
6734.772290 83.662 149.5322
6783.575226 83.533 150.6967
6832.731809 83.418 151.8925
6882.244600 83.316 153.1156
6932.116181 83.230 154.3625
6982.349153 83.158 155.6288
7032.946133 83.102 156.9100
7083.909760 83.061 158.2010
7135.242690 83.038 159.4957
7186.947600 83.031 160.7878
7239.027185 83.042 162.0706
7291.484160 83.072 163.3371
7344.321260 83.120 164.5804
7397.541239 83.188 165.7928
7451.146872 83.276 166.9655
7505.140954 83.386 168.0878
7559.526299 83.518 169.1467
7614.305743 83.673 170.1264
7669.482141 83.854 171.0081
7725.058371 84.060 171.7690
7781.037328 84.292 172.3828
7837.421932 84.552 172.8185
7894.215122 84.837 173.0411
7951.419859 85.147 173.0106
8009.039125 85.479 172.6831
8067.075924 85.830 172.0127
8125.533282 86.191 170.9536
8184.414245 86.555 169.4640
8243.721885 86.911 167.5108
8303.459292 87.245 165.0745
8363.629581 87.543 162.1543
8424.235888 87.788 158.7723
8485.281374 87.965 154.9766
8546.769221 88.059 150.8412
8608.702634 88.060 146.4646
8671.084842 87.958 141.9632
8733.919097 87.751 137.4639
8797.208675 87.439 133.0938
8860.956876 87.029 128.9705
8925.167022 86.530 125.1943
8989.842461 85.954 121.8430
9054.986566 85.316 118.9701
9120.602731 84.629 116.6053
9186.694378 83.908 114.7571
9253.264952 83.165 113.4170
9320.317925 82.412 112.5632
9387.856790 81.659 112.1649
9455.885071 80.912 112.1862
9524.406312 80.179 112.5883
9593.424086 79.463 113.3326
9662.941992 78.768 114.3822
9732.963653 78.095 115.7031
9803.492719 77.445 117.2648
9874.532869 76.819 119.0410
9946.087805 76.215 121.0087
10018.161257 75.635 123.1479
10090.756983 75.078 125.4425
10163.878768 74.542 127.8801
10237.530423 74.027 130.4514
10311.715789 73.531 133.1509
10386.438732 73.054 135.9766
10461.703149 72.594 138.9305
10537.512962 72.150 142.0183
10613.872125 71.723 145.2499
10690.784618 71.312 148.6385
10768.254450 70.919 152.2029
10846.285661 70.544 155.9673
10924.882318 70.191 159.9617
11004.048518 69.866 164.2180
11083.788390 69.576 168.7650
11164.106090 69.331 173.6200
11245.005805 69.144 178.7754
11326.491752 69.030 -175.8171
11408.568180 69.003 -170.2612
11491.239368 69.070 -164.7197
11574.509626 69.233 -159.3959
11658.383294 69.481 -154.4959
11742.864745 69.795 -150.1818
11827.958384 70.148 -146.5384
11913.668646 70.515 -143.5636
12000.000000 70.870 -141.1823
12086.956947 71.198 -139.2711
12174.544019 71.488 -137.6855
12262.765784 71.738 -136.2829
12351.626840 71.952 -134.9384
12441.131819 72.137 -133.5541
12531.285389 72.303 -132.0620
12622.092249 72.461 -130.4218
12713.557132 72.621 -128.6157
12805.684808 72.793 -126.6435
12898.480079 72.989 -124.5183
12991.947783 73.217 -122.2631
13086.092792 73.485 -119.9081
13180.920015 73.804 -117.4907
13276.434395 74.181 -115.0553
13372.640911 74.626 -112.6563
13469.544580 75.149 -110.3619
13567.150452 75.757 -108.2580
13665.463617 76.459 -106.4523
13764.489200 77.255 -105.0760
13864.232362 78.141 -104.2826
13964.698305 79.103 -104.2397
14065.892266 80.117 -105.1162
14167.819519 81.148 -107.0638
14270.485380 82.154 -110.1966
14373.895200 83.088 -114.5700
14478.054370 83.895 -120.1578
14582.968320 84.525 -126.8288
14688.642520 84.931 -134.3297
14795.082478 85.079 -142.2887
14902.293745 84.958 -150.2572
15010.281908 84.580 -157.7838
15119.052599 83.975 -164.4890
15228.611486 83.190 -170.1049
15338.964283 82.276 -174.4804
15450.116741 81.287 -177.5677
15562.074656 80.274 -179.4040
15674.843864 79.281 179.9075
15788.430244 78.347 -179.7820
15902.839718 77.499 -178.6475
16018.078250 76.756 -176.8697
16134.151848 76.128 -174.6210
16251.066563 75.617 -172.0562
16368.828491 75.220 -169.3101
16487.443769 74.934 -166.5016
16606.918584 74.755 -163.7413
16727.259161 74.678 -161.1405
16848.471777 74.698 -158.8201
16970.562748 74.809 -156.9140
17093.538442 75.001 -155.5654
17217.405268 75.256 -154.9171
17342.169684 75.551 -155.0962
17467.838194 75.855 -156.1954
17594.417350 76.128 -158.2522
17721.913751 76.328 -161.2298
17850.334044 76.407 -164.9976
17979.684923 76.324 -169.3171
18109.973131 76.049 -173.8470
18241.205462 75.576 -178.2018
18373.388756 74.926 177.9215
18506.529905 74.139 174.6349
18640.635849 73.250 171.9242
18775.713581 72.278 169.7778
18911.770141 71.230 168.2454
19048.812624 70.112 167.4423
19186.848172 68.929 167.5199
19325.883983 67.704 168.5925
19465.927305 66.474 170.6441
19606.985439 65.294 173.4594
19749.065738 64.249 176.5753
19892.175609 63.447 179.3131
20036.322514 63.005 -179.0638
