* Measurement data measured by REW V5.31.3
* Source: Input device not selected, no input selected, R, volume: no control
* Format: 256k Log Swept Sine, 1 sweep at -12.0 dBFS with no timing reference
* Dated: Feb 6, 2026 4:39:44 PM
* REW Settings:
*  C-weighting compensation: Off
*  Target level: 75.0 dB
* Note: ; 
* Measurement: Roseselsa Ceramics Mk2 R
* Smoothing: 1/24 octave
* Frequency Step: 96 ppo
* Start Frequency: 0.36621094 Hz
*
* Freq(Hz) SPL(dB) Phase(degrees)
0.366211 57.104 39.1344
0.368865 57.147 39.0977
0.371538 57.207 39.0462
0.374230 57.276 38.9900
0.376942 57.348 38.9337
0.379673 57.421 38.8789
0.382424 57.495 38.8260
0.385196 57.569 38.7752
0.387987 57.644 38.7264
0.390798 57.719 38.6796
0.393630 57.795 38.6348
0.396483 57.872 38.5917
0.399356 57.949 38.5505
0.402250 58.026 38.5110
0.405165 58.104 38.4732
0.408101 58.183 38.4369
0.411058 58.263 38.4022
0.414037 58.342 38.3689
0.417037 58.423 38.3369
0.420059 58.504 38.3062
0.423103 58.586 38.2768
0.426169 58.668 38.2484
0.429257 58.751 38.2211
0.432368 58.834 38.1947
0.435501 58.918 38.1692
0.438656 59.003 38.1444
0.441835 59.088 38.1203
0.445037 59.174 38.0968
0.448262 59.261 38.0738
0.451510 59.348 38.0512
0.454782 59.435 38.0289
0.458077 59.524 38.0068
0.461397 59.613 37.9848
0.464740 59.703 37.9628
0.468108 59.793 37.9408
0.471500 59.884 37.9186
0.474917 59.976 37.8960
0.478358 60.068 37.8731
0.481825 60.161 37.8498
0.485316 60.255 37.8258
0.488833 60.349 37.8012
0.492375 60.444 37.7757
0.495943 60.540 37.7494
0.499537 60.636 37.7221
0.503157 60.733 37.6937
0.506803 60.831 37.6641
0.510475 60.929 37.6332
0.514175 61.029 37.6009
0.517900 61.129 37.5671
0.521653 61.229 37.5317
0.525434 61.331 37.4946
0.529241 61.433 37.4557
0.533076 61.536 37.4149
0.536939 61.639 37.3721
0.540830 61.744 37.3272
0.544749 61.849 37.2801
0.548696 61.955 37.2308
0.552673 62.062 37.1790
0.556677 62.169 37.1247
0.560711 62.277 37.0679
0.564774 62.386 37.0084
0.568867 62.496 36.9461
0.572989 62.607 36.8810
0.577141 62.718 36.8129
0.581324 62.830 36.7418
0.585536 62.943 36.6676
0.589779 63.057 36.5901
0.594053 63.172 36.5094
0.598358 63.287 36.4253
0.602694 63.403 36.3377
0.607061 63.521 36.2467
0.611460 63.639 36.1519
0.615891 63.758 36.0535
0.620354 63.877 35.9514
0.624849 63.998 35.8453
0.629377 64.119 35.7354
0.633938 64.242 35.6215
0.638532 64.365 35.5035
0.643159 64.489 35.3814
0.647819 64.614 35.2552
0.652514 64.740 35.1246
0.657242 64.867 34.9898
0.662005 64.995 34.8506
0.666802 65.123 34.7070
0.671634 65.253 34.5588
0.676501 65.384 34.4062
0.681403 65.515 34.2490
0.686341 65.648 34.0871
0.691314 65.781 33.9205
0.696324 65.915 33.7493
0.701370 66.051 33.5732
0.706452 66.187 33.3924
0.711571 66.324 33.2067
0.716728 66.463 33.0163
0.721921 66.601 32.8213
0.727153 66.739 32.6222
0.732422 66.873 32.4206
0.737729 67.003 32.2190
0.743075 67.130 32.0198
0.748460 67.256 31.8243
0.753883 67.381 31.6328
0.759346 67.506 31.4453
0.764849 67.632 31.2614
0.770391 67.758 31.0811
0.775974 67.884 30.9039
0.781597 68.010 30.7297
0.787261 68.137 30.5581
0.792966 68.264 30.3888
0.798712 68.391 30.2217
0.804500 68.518 30.0564
0.810329 68.646 29.8927
0.816201 68.774 29.7303
0.822116 68.902 29.5689
0.828073 69.030 29.4084
0.834074 69.158 29.2483
0.840118 69.287 29.0886
0.846206 69.416 28.9289
0.852338 69.545 28.7689
0.858514 69.675 28.6085
0.864735 69.805 28.4474
0.871001 69.935 28.2854
0.877313 70.065 28.1222
0.883670 70.195 27.9576
0.890074 70.326 27.7913
0.896524 70.457 27.6232
0.903020 70.588 27.4531
0.909564 70.720 27.2806
0.916155 70.852 27.1057
0.922794 70.984 26.9280
0.929481 71.116 26.7474
0.936216 71.249 26.5636
0.943000 71.382 26.3766
0.949834 71.515 26.1859
0.956717 71.648 25.9916
0.963649 71.782 25.7933
0.970632 71.916 25.5909
0.977666 72.051 25.3842
0.984750 72.186 25.1729
0.991886 72.321 24.9570
0.999074 72.456 24.7363
1.006314 72.592 24.5105
1.013606 72.728 24.2794
1.020951 72.865 24.0430
1.028349 73.002 23.8010
1.035801 73.139 23.5533
1.043307 73.277 23.2996
1.050867 73.415 23.0399
1.058482 73.554 22.7740
1.066152 73.693 22.5017
1.073878 73.832 22.2229
1.081660 73.972 21.9377
1.089498 74.113 21.6464
1.097393 74.253 21.3501
1.105345 74.394 21.0510
1.113355 74.536 20.7517
1.121423 74.677 20.4534
1.129549 74.818 20.1567
1.137734 74.959 19.8616
1.145979 75.100 19.5679
1.154283 75.242 19.2755
1.162647 75.383 18.9843
1.171072 75.524 18.6939
1.179558 75.665 18.4041
1.188106 75.806 18.1148
1.196715 75.947 17.8258
1.205387 76.088 17.5368
1.214122 76.229 17.2477
1.222920 76.371 16.9581
1.231782 76.512 16.6679
1.240708 76.653 16.3769
1.249699 76.794 16.0849
1.258754 76.935 15.7916
1.267876 77.077 15.4967
1.277063 77.218 15.2002
1.286318 77.359 14.9018
1.295639 77.501 14.6012
1.305027 77.642 14.2982
1.314484 77.784 13.9926
1.324009 77.925 13.6843
1.333604 78.067 13.3728
1.343268 78.209 13.0581
1.353002 78.351 12.7399
1.362806 78.493 12.4180
1.372681 78.636 12.0922
1.382628 78.778 11.7621
1.392647 78.921 11.4277
1.402739 79.064 11.0886
1.412904 79.207 10.7447
1.423142 79.350 10.3957
1.433455 79.494 10.0415
1.443843 79.638 9.6820
1.454305 79.782 9.3174
1.464844 79.926 8.9490
1.475459 80.071 8.5785
1.486150 80.215 8.2082
1.496920 80.359 7.8389
1.507767 80.503 7.4708
1.518693 80.646 7.1038
1.529698 80.789 6.7376
1.540783 80.932 6.3720
1.551948 81.075 6.0066
1.563194 81.218 5.6411
1.574521 81.360 5.2751
1.585931 81.502 4.9084
1.597423 81.643 4.5405
1.608999 81.785 4.1712
1.620658 81.926 3.8001
1.632402 82.067 3.4268
1.644232 82.208 3.0510
1.656146 82.349 2.6724
1.668147 82.490 2.2906
1.680235 82.630 1.9052
1.692411 82.771 1.5159
1.704675 82.911 1.1223
1.717028 83.051 0.7241
1.729470 83.191 0.3209
1.742003 83.331 -0.0877
1.754626 83.471 -0.5020
1.767341 83.612 -0.9225
1.780147 83.752 -1.3494
1.793047 83.892 -1.7831
1.806040 84.032 -2.2239
1.819128 84.172 -2.6718
1.832310 84.312 -3.1261
1.845587 84.452 -3.5856
1.858961 84.592 -4.0490
1.872432 84.731 -4.5153
1.886001 84.870 -4.9841
1.899667 85.008 -5.4553
1.913433 85.146 -5.9286
1.927299 85.283 -6.4040
1.941265 85.420 -6.8814
1.955332 85.556 -7.3607
1.969501 85.692 -7.8420
1.983773 85.827 -8.3253
1.998148 85.962 -8.8105
2.012627 86.097 -9.2978
2.027212 86.231 -9.7872
2.041902 86.365 -10.2789
2.056698 86.499 -10.7729
2.071602 86.632 -11.2695
2.086614 86.765 -11.7688
2.101734 86.898 -12.2710
2.116964 87.031 -12.7764
2.132304 87.163 -13.2852
2.147756 87.295 -13.7976
2.163320 87.427 -14.3139
2.178996 87.559 -14.8344
2.194786 87.691 -15.3595
2.210690 87.822 -15.8890
2.226710 87.953 -16.4230
2.242845 88.083 -16.9611
2.259098 88.212 -17.5029
2.275468 88.341 -18.0481
2.291957 88.469 -18.5963
2.308566 88.597 -19.1472
2.325295 88.723 -19.7005
2.342145 88.849 -20.2560
2.359117 88.975 -20.8135
2.376212 89.100 -21.3728
2.393431 89.224 -21.9338
2.410775 89.348 -22.4964
2.428244 89.472 -23.0605
2.445840 89.595 -23.6260
2.463564 89.717 -24.1930
2.481416 89.840 -24.7614
2.499397 89.961 -25.3314
2.517509 90.083 -25.9031
2.535752 90.204 -26.4767
2.554127 90.325 -27.0528
2.572635 90.445 -27.6320
2.591277 90.565 -28.2155
2.610055 90.684 -28.8036
2.628968 90.802 -29.3961
2.648019 90.919 -29.9926
2.667208 91.035 -30.5926
2.686535 91.151 -31.1955
2.706003 91.266 -31.8010
2.725612 91.380 -32.4085
2.745363 91.493 -33.0176
2.765257 91.606 -33.6279
2.785295 91.718 -34.2391
2.805478 91.829 -34.8508
2.825808 91.940 -35.4628
2.846285 92.051 -36.0748
2.866910 92.161 -36.6866
2.887685 92.270 -37.2982
2.908611 92.379 -37.9098
2.929688 92.488 -38.5223
2.950917 92.596 -39.1372
2.972301 92.703 -39.7558
2.993839 92.809 -40.3785
3.015534 92.915 -41.0051
3.037386 93.019 -41.6349
3.059396 93.122 -42.2674
3.081565 93.225 -42.9019
3.103896 93.327 -43.5379
3.126388 93.428 -44.1747
3.149043 93.529 -44.8118
3.171862 93.628 -45.4485
3.194847 93.728 -46.0845
3.217998 93.826 -46.7192
3.241317 93.925 -47.3523
3.264805 94.022 -47.9837
3.288463 94.120 -48.6139
3.312293 94.216 -49.2441
3.336295 94.312 -49.8763
3.360471 94.407 -50.5112
3.384822 94.501 -51.1489
3.409350 94.594 -51.7888
3.434056 94.687 -52.4306
3.458940 94.778 -53.0735
3.484005 94.869 -53.7169
3.509252 94.959 -54.3603
3.534681 95.048 -55.0030
3.560295 95.137 -55.6445
3.586094 95.226 -56.2841
3.612081 95.314 -56.9216
3.638255 95.401 -57.5569
3.664620 95.488 -58.1905
3.691175 95.575 -58.8239
3.717923 95.660 -59.4585
3.744864 95.745 -60.0947
3.772001 95.829 -60.7323
3.799335 95.913 -61.3711
3.826866 95.995 -62.0104
3.854597 96.077 -62.6497
3.882529 96.159 -63.2886
3.910664 96.239 -63.9264
3.939002 96.320 -64.5628
3.967546 96.400 -65.1972
3.996296 96.479 -65.8293
4.025255 96.559 -66.4596
4.054423 96.638 -67.0889
4.083804 96.716 -67.7183
4.113396 96.793 -68.3484
4.143204 96.870 -68.9793
4.173227 96.946 -69.6106
4.203468 97.022 -70.2420
4.233928 97.097 -70.8732
4.264609 97.172 -71.5039
4.295512 97.246 -72.1336
4.326639 97.320 -72.7620
4.357992 97.394 -73.3890
4.389572 97.467 -74.0148
4.421380 97.540 -74.6399
4.453419 97.612 -75.2654
4.485691 97.684 -75.8914
4.518196 97.755 -76.5181
4.550936 97.826 -77.1452
4.583914 97.896 -77.7726
4.617131 97.966 -78.3998
4.650589 98.036 -79.0268
4.684289 98.105 -79.6531
4.718233 98.174 -80.2787
4.752424 98.242 -80.9038
4.786862 98.310 -81.5288
4.821549 98.378 -82.1545
4.856488 98.445 -82.7812
4.891680 98.511 -83.4089
4.927127 98.577 -84.0373
4.962831 98.643 -84.6662
4.998794 98.708 -85.2952
5.035017 98.773 -85.9242
5.071503 98.837 -86.5529
5.108253 98.901 -87.1813
5.145270 98.964 -87.8100
5.182555 99.027 -88.4397
5.220110 99.090 -89.0707
5.257937 99.152 -89.7031
5.296038 99.213 -90.3365
5.334415 99.274 -90.9706
5.373071 99.334 -91.6049
5.412006 99.394 -92.2391
5.451224 99.454 -92.8731
5.490725 99.512 -93.5069
5.530514 99.571 -94.1413
5.570590 99.628 -94.7770
5.610957 99.686 -95.4141
5.651616 99.742 -96.0523
5.692570 99.798 -96.6913
5.733821 99.853 -97.3305
5.775370 99.908 -97.9695
5.817221 99.963 -98.6081
5.859375 100.016 -99.2463
5.901834 100.069 -99.8848
5.944602 100.122 -100.5243
5.987679 100.174 -101.1649
6.031068 100.225 -101.8064
6.074771 100.276 -102.4482
6.118792 100.326 -103.0898
6.163131 100.375 -103.7310
6.207792 100.424 -104.3715
6.252776 100.472 -105.0117
6.298086 100.520 -105.6524
6.343725 100.567 -106.2939
6.389694 100.613 -106.9360
6.435996 100.658 -107.5782
6.482634 100.703 -108.2202
6.529610 100.748 -108.8616
6.576926 100.792 -109.5022
6.624585 100.835 -110.1424
6.672590 100.877 -110.7828
6.720942 100.919 -111.4238
6.769645 100.960 -112.0649
6.818700 101.000 -112.7059
6.868111 101.040 -113.3462
6.917881 101.079 -113.9855
6.968010 101.118 -114.6240
7.018504 101.155 -115.2621
7.069362 101.192 -115.9004
7.120590 101.229 -116.5386
7.172189 101.264 -117.1764
7.224161 101.299 -117.8131
7.276511 101.333 -118.4483
7.329239 101.366 -119.0820
7.382350 101.399 -119.7147
7.435845 101.431 -120.3468
7.489729 101.462 -120.9781
7.544002 101.492 -121.6083
7.598669 101.521 -122.2365
7.653732 101.550 -122.8624
7.709194 101.578 -123.4858
7.765058 101.605 -124.1074
7.821327 101.632 -124.7273
7.878004 101.658 -125.3453
7.935091 101.683 -125.9610
7.992592 101.707 -126.5737
8.050510 101.731 -127.1831
8.108847 101.754 -127.7894
8.167607 101.776 -128.3929
8.226793 101.798 -128.9936
8.286408 101.819 -129.5915
8.346454 101.840 -130.1861
8.406936 101.860 -130.7773
8.467856 101.880 -131.3651
8.529218 101.899 -131.9495
8.591024 101.918 -132.5308
8.653278 101.937 -133.1092
8.715983 101.955 -133.6847
8.779143 101.973 -134.2573
8.842760 101.990 -134.8271
8.906839 102.007 -135.3941
8.971381 102.024 -135.9585
9.036392 102.041 -136.5207
9.101873 102.057 -137.0810
9.167829 102.073 -137.6395
9.234263 102.089 -138.1963
9.301178 102.105 -138.7515
9.368578 102.120 -139.3053
9.436467 102.135 -139.8578
9.504847 102.150 -140.4093
9.573723 102.165 -140.9600
9.643099 102.179 -141.5099
9.712976 102.192 -142.0589
9.783361 102.206 -142.6071
9.854255 102.218 -143.1544
9.925663 102.231 -143.7008
9.997588 102.242 -144.2464
10.070035 102.254 -144.7913
10.143007 102.264 -145.3349
10.216507 102.275 -145.8771
10.290540 102.284 -146.4178
10.365109 102.293 -146.9570
10.440219 102.302 -147.4946
10.515873 102.310 -148.0304
10.592076 102.317 -148.5641
10.668830 102.324 -149.0956
10.746141 102.331 -149.6249
10.824012 102.337 -150.1521
10.902447 102.342 -150.6771
10.981451 102.347 -151.1998
11.061027 102.352 -151.7204
11.141180 102.357 -152.2388
11.221913 102.361 -152.7553
11.303232 102.364 -153.2701
11.385140 102.368 -153.7834
11.467641 102.370 -154.2953
11.550741 102.373 -154.8058
11.634442 102.375 -155.3153
11.718750 102.377 -155.8239
11.803669 102.379 -156.3319
11.889203 102.380 -156.8392
11.975357 102.380 -157.3458
12.062136 102.380 -157.8517
12.149543 102.380 -158.3570
12.237583 102.379 -158.8617
12.326262 102.377 -159.3654
12.415583 102.375 -159.8679
12.505552 102.371 -160.3690
12.596172 102.368 -160.8687
12.687449 102.363 -161.3667
12.779387 102.358 -161.8627
12.871992 102.353 -162.3564
12.965268 102.346 -162.8477
13.059220 102.340 -163.3367
13.153852 102.332 -163.8233
13.249170 102.324 -164.3073
13.345179 102.316 -164.7888
13.441884 102.307 -165.2679
13.539289 102.298 -165.7450
13.637401 102.288 -166.2201
13.736223 102.278 -166.6934
13.835761 102.268 -167.1649
13.936021 102.257 -167.6351
14.037007 102.245 -168.1040
14.138725 102.233 -168.5716
14.241180 102.221 -169.0379
14.344377 102.207 -169.5028
14.448323 102.194 -169.9663
14.553021 102.179 -170.4281
14.658478 102.164 -170.8880
14.764700 102.148 -171.3457
14.871691 102.132 -171.8010
14.979457 102.115 -172.2538
15.088005 102.097 -172.7037
15.197339 102.079 -173.1507
15.307465 102.060 -173.5948
15.418389 102.041 -174.0363
15.530117 102.021 -174.4749
15.642655 102.001 -174.9111
15.756008 101.981 -175.3449
15.870182 101.960 -175.7766
15.985184 101.938 -176.2061
16.101019 101.916 -176.6333
16.217694 101.893 -177.0582
16.335214 101.869 -177.4803
16.453586 101.844 -177.8988
16.572815 101.819 -178.3130
16.692909 101.793 -178.7224
16.813872 101.766 -179.1257
16.935713 101.739 -179.5222
17.058436 101.711 -179.9113
17.182048 101.683 179.7072
17.306556 101.656 179.3335
17.431967 101.628 178.9670
17.558286 101.601 178.6065
17.685521 101.575 178.2507
17.813677 101.549 177.8979
17.942762 101.525 177.5458
18.072783 101.501 177.1924
18.203746 101.477 176.8362
18.335658 101.454 176.4756
18.468526 101.431 176.1099
18.602356 101.407 175.7397
18.737156 101.382 175.3662
18.872934 101.356 174.9911
19.009695 101.328 174.6176
19.147447 101.299 174.2492
19.286197 101.268 173.8889
19.425953 101.236 173.5400
19.566721 101.204 173.2048
19.708510 101.172 172.8838
19.851326 101.141 172.5764
19.995177 101.111 172.2806
20.140070 101.084 171.9913
20.286013 101.060 171.7035
20.433014 101.038 171.4111
20.581080 101.019 171.1071
20.730219 101.001 170.7869
20.880439 100.983 170.4470
21.031747 100.965 170.0858
21.184152 100.944 169.7060
21.337661 100.919 169.3126
21.492282 100.890 168.9127
21.648024 100.856 168.5169
21.804895 100.817 168.1351
21.962902 100.774 167.7781
22.122054 100.727 167.4554
22.282360 100.679 167.1723
22.443827 100.631 166.9315
22.606464 100.586 166.7306
22.770280 100.545 166.5624
22.935283 100.510 166.4177
23.101481 100.482 166.2826
23.268884 100.459 166.1444
23.437500 100.442 165.9910
23.607338 100.428 165.8127
23.778406 100.416 165.6053
23.950714 100.404 165.3680
24.124271 100.390 165.1050
24.299086 100.372 164.8242
24.475167 100.351 164.5345
24.652524 100.325 164.2467
24.831166 100.296 163.9692
25.011103 100.264 163.7094
25.192344 100.231 163.4710
25.374898 100.197 163.2549
25.558775 100.163 163.0595
25.743984 100.131 162.8810
25.930536 100.101 162.7153
26.118439 100.072 162.5577
26.307704 100.044 162.4053
26.498341 100.018 162.2557
26.690359 99.992 162.1080
26.883768 99.967 161.9620
27.078579 99.943 161.8175
27.274801 99.919 161.6744
27.472446 99.897 161.5320
27.671522 99.874 161.3892
27.872042 99.853 161.2450
28.074014 99.831 161.0984
28.277450 99.810 160.9492
28.482360 99.789 160.7979
28.688755 99.767 160.6456
28.896645 99.745 160.4935
29.106042 99.723 160.3433
29.316957 99.701 160.1955
29.529400 99.678 160.0507
29.743382 99.656 159.9086
29.958915 99.634 159.7687
30.176009 99.613 159.6305
30.394677 99.591 159.4939
30.614929 99.570 159.3588
30.836778 99.550 159.2252
31.060234 99.529 159.0930
31.285309 99.510 158.9611
31.512015 99.491 158.8284
31.740364 99.472 158.6936
31.970368 99.454 158.5560
32.202039 99.436 158.4160
32.435388 99.417 158.2755
32.670428 99.397 158.1376
32.907171 99.377 158.0058
33.145630 99.357 157.8826
33.385817 99.338 157.7681
33.627745 99.321 157.6601
33.871425 99.306 157.5531
34.116871 99.293 157.4409
34.364096 99.281 157.3177
34.613113 99.270 157.1802
34.863934 99.258 157.0287
35.116572 99.245 156.8675
35.371041 99.229 156.7036
35.627354 99.211 156.5445
35.885525 99.191 156.3961
36.145566 99.171 156.2615
36.407492 99.152 156.1394
36.671316 99.134 156.0259
36.937051 99.118 155.9155
37.204712 99.103 155.8026
37.474313 99.089 155.6841
37.745867 99.076 155.5590
38.019389 99.062 155.4287
38.294893 99.048 155.2958
38.572394 99.033 155.1630
38.851905 99.019 155.0316
39.133442 99.005 154.9014
39.417019 98.992 154.7704
39.702651 98.979 154.6359
39.990353 98.968 154.4953
40.280140 98.956 154.3470
40.572026 98.945 154.1908
40.866028 98.933 154.0280
41.162160 98.920 153.8607
41.460438 98.906 153.6906
41.760877 98.892 153.5196
42.063494 98.877 153.3489
42.368303 98.861 153.1802
42.675322 98.844 153.0163
42.984565 98.827 152.8601
43.296048 98.810 152.7141
43.609789 98.793 152.5782
43.925804 98.779 152.4486
44.244108 98.767 152.3177
44.564719 98.757 152.1771
44.887654 98.748 152.0216
45.212928 98.738 151.8517
45.540560 98.725 151.6740
45.870565 98.711 151.4980
46.202962 98.695 151.3313
46.537768 98.679 151.1757
46.875000 98.663 151.0264
47.214676 98.649 150.8756
47.556813 98.635 150.7180
47.901429 98.620 150.5546
48.248542 98.604 150.3920
48.598171 98.586 150.2373
48.950334 98.569 150.0926
49.305048 98.553 149.9526
49.662333 98.539 149.8083
50.022206 98.526 149.6518
50.384688 98.512 149.4818
50.749796 98.497 149.3033
51.117550 98.480 149.1235
51.487969 98.462 148.9467
51.861072 98.444 148.7729
52.236879 98.426 148.5992
52.615409 98.408 148.4247
52.996681 98.389 148.2515
53.380717 98.370 148.0836
53.767536 98.350 147.9235
54.157158 98.331 147.7702
54.549603 98.312 147.6212
54.944892 98.293 147.4745
55.343045 98.275 147.3306
55.744084 98.256 147.1903
56.148028 98.237 147.0534
56.554900 98.218 146.9189
56.964720 98.198 146.7863
57.377510 98.179 146.6567
57.793291 98.159 146.5305
58.212085 98.140 146.4034
58.633914 98.122 146.2660
59.058799 98.104 146.1075
59.486764 98.085 145.9243
59.917829 98.062 145.7246
60.352019 98.035 145.5257
60.789354 98.007 145.3418
61.229859 97.979 145.1726
61.673556 97.954 145.0040
62.120468 97.932 144.8214
62.570618 97.909 144.6267
63.024031 97.886 144.4380
63.480729 97.866 144.2660
63.940736 97.852 144.0904
64.404077 97.844 143.8664
64.870776 97.833 143.5690
65.340856 97.807 143.2353
65.814343 97.765 142.9565
66.291261 97.714 142.8142
66.771635 97.671 142.8120
67.255489 97.645 142.8715
67.742850 97.634 142.8982
68.233743 97.625 142.8550
68.728193 97.612 142.7680
69.226226 97.594 142.6775
69.727867 97.574 142.5948
70.233144 97.554 142.5059
70.742083 97.531 142.3995
71.254709 97.506 142.2799
71.771050 97.479 142.1557
72.291132 97.451 142.0275
72.814984 97.423 141.8899
73.342631 97.394 141.7398
73.874102 97.365 141.5790
74.409424 97.336 141.4121
74.948626 97.307 141.2426
75.491734 97.278 141.0713
76.038779 97.249 140.8973
76.589787 97.220 140.7211
77.144788 97.191 140.5463
77.703811 97.162 140.3736
78.266885 97.133 140.1971
78.834039 97.103 140.0111
79.405303 97.070 139.8234
79.980706 97.034 139.6495
80.560280 96.998 139.4905
81.144053 96.964 139.3247
81.732056 96.930 139.1319
82.324320 96.893 138.9205
82.920876 96.852 138.7186
83.521755 96.811 138.5370
84.126988 96.775 138.3572
84.736607 96.742 138.1564
85.350643 96.710 137.9310
85.969129 96.679 137.6874
86.592097 96.647 137.4302
87.219579 96.614 137.1709
87.851608 96.580 136.9297
88.488217 96.549 136.7142
89.129439 96.521 136.5097
89.775308 96.495 136.3004
90.425856 96.470 136.0847
91.081119 96.444 135.8663
91.741131 96.416 135.6496
92.405925 96.385 135.4436
93.075536 96.353 135.2513
93.750000 96.320 135.0599
94.429351 96.286 134.8602
95.113625 96.248 134.6631
95.802858 96.210 134.4757
96.497085 96.172 134.2874
97.196342 96.135 134.0932
97.900667 96.098 133.9007
98.610096 96.063 133.7049
99.324665 96.029 133.4937
100.044413 95.994 133.2802
100.769376 95.958 133.0833
101.499592 95.924 132.8864
102.235100 95.889 132.6687
102.975938 95.849 132.4514
103.722144 95.809 132.2597
104.473757 95.770 132.0757
105.230817 95.732 131.8770
105.993363 95.694 131.6779
106.761435 95.657 131.4861
107.535072 95.623 131.2751
108.314315 95.587 131.0386
109.099206 95.546 130.8185
109.889783 95.505 130.6382
110.686090 95.467 130.4642
111.488167 95.429 130.2718
112.296056 95.389 130.0828
113.109800 95.352 129.8975
113.929440 95.317 129.6740
114.755020 95.279 129.4179
115.586582 95.238 129.1953
116.424170 95.203 129.0256
117.267827 95.180 128.8482
118.117598 95.159 128.5976
118.973527 95.128 128.2793
119.835658 95.076 127.9908
120.704037 95.009 127.8199
121.578708 94.938 127.7461
122.459718 94.865 127.7139
123.347111 94.793 127.6923
124.240935 94.723 127.6356
125.141236 94.649 127.5318
126.048061 94.570 127.4537
126.961458 94.497 127.4619
127.881473 94.438 127.5262
128.808154 94.390 127.6255
129.741551 94.352 127.8305
130.681712 94.337 128.1615
131.628686 94.350 128.4654
132.582521 94.373 128.6013
133.543269 94.389 128.6466
134.510979 94.404 128.7098
135.485701 94.432 128.6872
136.467486 94.460 128.4402
137.456386 94.468 128.0449
138.452451 94.458 127.6838
139.455735 94.447 127.4051
140.466288 94.442 127.0998
141.484165 94.431 126.6947
142.509418 94.402 126.2673
143.542100 94.358 125.9425
144.582265 94.318 125.7324
145.629968 94.288 125.5253
146.685262 94.261 125.2281
147.748204 94.225 124.8796
148.818849 94.179 124.5916
149.897251 94.134 124.4070
150.983469 94.098 124.2599
152.077557 94.070 124.0609
153.179574 94.038 123.7932
154.289576 93.998 123.5211
155.407622 93.953 123.3028
156.533770 93.913 123.1335
157.668078 93.881 122.9645
158.810606 93.852 122.7456
159.961413 93.817 122.4874
161.120559 93.775 122.2467
162.288105 93.730 122.0613
163.464112 93.687 121.9258
164.648640 93.652 121.8052
165.841752 93.623 121.6580
167.043510 93.596 121.4587
168.253976 93.564 121.2177
169.473213 93.524 120.9706
170.701286 93.478 120.7487
171.938258 93.430 120.5646
173.184194 93.385 120.4104
174.439158 93.346 120.2655
175.703216 93.315 120.1056
176.976434 93.287 119.9152
178.258878 93.259 119.7027
179.550615 93.226 119.4876
180.851713 93.189 119.2801
182.162239 93.148 119.0853
183.482262 93.106 118.8989
184.811850 93.065 118.7125
186.151073 93.027 118.5251
187.500000 92.991 118.3462
188.858702 92.955 118.1866
190.227250 92.920 118.0432
191.605715 92.885 117.8975
192.994169 92.851 117.7315
194.392685 92.816 117.5401
195.801334 92.783 117.3312
197.220191 92.751 117.1165
198.649330 92.720 116.9047
200.088825 92.688 116.7036
201.538751 92.655 116.5051
202.999184 92.620 116.2999
204.470200 92.584 116.0872
205.951875 92.549 115.8731
207.444287 92.513 115.6690
208.947514 92.479 115.4827
210.461634 92.445 115.3133
211.986726 92.411 115.1531
213.522869 92.375 114.9920
215.070144 92.339 114.8181
216.628631 92.300 114.6234
218.198411 92.261 114.4089
219.779567 92.222 114.1802
221.372180 92.184 113.9437
222.976334 92.148 113.7083
224.592112 92.111 113.4833
226.219600 92.075 113.2689
227.858880 92.039 113.0575
229.510039 92.005 112.8409
231.173164 91.974 112.6173
232.848340 91.945 112.3939
234.535655 91.916 112.1885
236.235197 91.885 112.0161
237.947054 91.849 111.8691
239.671317 91.807 111.7116
241.408074 91.760 111.5074
243.157416 91.713 111.2494
244.919435 91.674 110.9545
246.694223 91.648 110.6530
248.481871 91.630 110.3883
250.282473 91.610 110.2044
252.096123 91.582 110.0953
253.922915 91.545 110.0116
255.762945 91.499 109.9191
257.616309 91.446 109.8019
259.483103 91.393 109.6143
261.363424 91.344 109.2856
263.257372 91.304 108.8318
265.165043 91.272 108.4102
267.086538 91.245 108.1607
269.021957 91.211 108.0461
270.971401 91.163 107.9236
272.934972 91.104 107.6877
274.912771 91.053 107.3617
276.904902 91.019 107.0702
278.911469 90.995 106.8918
280.932577 90.961 106.7949
282.968330 90.906 106.6874
285.018835 90.838 106.4980
287.084199 90.773 106.2183
289.164530 90.720 105.8956
291.259935 90.676 105.6089
293.370525 90.636 105.3901
295.496408 90.595 105.2018
297.637697 90.548 105.0077
299.794503 90.496 104.8189
301.966937 90.441 104.6782
304.155114 90.387 104.6137
306.359147 90.342 104.6129
308.579152 90.303 104.6562
310.815244 90.266 104.7393
313.067539 90.231 104.8157
315.336156 90.200 104.8123
317.621211 90.181 104.7188
319.922826 90.172 104.5986
322.241118 90.167 104.4838
324.576210 90.163 104.3301
326.928223 90.158 104.1066
329.297280 90.157 103.8260
331.683504 90.157 103.4994
334.087019 90.152 103.1554
336.507952 90.135 102.8405
338.946427 90.106 102.5760
341.402572 90.071 102.3340
343.876516 90.035 102.0761
346.368387 89.999 101.7963
348.878315 89.964 101.5180
351.406431 89.928 101.2744
353.952867 89.891 101.0853
356.517756 89.856 100.9377
359.101230 89.824 100.7800
361.703426 89.797 100.5555
364.324478 89.775 100.2594
366.964523 89.754 99.9349
369.623699 89.730 99.6146
372.302145 89.700 99.3087
375.000000 89.664 99.0311
377.717405 89.627 98.7948
380.454501 89.588 98.5963
383.211431 89.548 98.4220
385.988339 89.507 98.2747
388.785369 89.468 98.1649
391.602668 89.433 98.1040
394.440383 89.402 98.0951
397.298660 89.375 98.1294
400.177650 89.353 98.1887
403.077502 89.336 98.2744
405.998368 89.322 98.4097
408.940400 89.310 98.5961
411.903750 89.297 98.8233
414.888575 89.282 99.0850
417.895028 89.264 99.3700
420.923268 89.242 99.6535
423.973452 89.216 99.9250
427.045738 89.189 100.1927
430.140287 89.163 100.4656
433.257261 89.138 100.7456
436.396822 89.114 101.0324
439.559133 89.089 101.3362
442.744360 89.064 101.6588
445.952668 89.040 101.9827
449.184225 89.018 102.2971
452.439199 88.999 102.6063
455.717760 88.981 102.9231
459.020079 88.963 103.2568
462.346327 88.944 103.6023
465.696680 88.925 103.9507
469.071310 88.907 104.3040
472.470394 88.890 104.6690
475.894109 88.874 105.0490
479.342634 88.857 105.4407
482.816148 88.841 105.8419
486.314833 88.826 106.2520
489.838871 88.812 106.6578
493.388445 88.799 107.0507
496.963741 88.784 107.4467
500.564945 88.770 107.8561
504.192245 88.758 108.2691
507.845830 88.746 108.6816
511.525890 88.734 109.1026
515.232618 88.722 109.5436
518.966206 88.711 110.0032
522.726849 88.700 110.4617
526.514743 88.691 110.9060
530.330086 88.684 111.3491
534.173076 88.679 111.8185
538.043915 88.674 112.3155
541.942803 88.667 112.8097
545.869944 88.661 113.2887
549.825542 88.656 113.7665
553.809805 88.650 114.2550
557.822939 88.644 114.7515
561.865154 88.638 115.2505
565.936660 88.634 115.7584
570.037671 88.631 116.2894
574.168399 88.629 116.8499
578.329060 88.629 117.4263
582.519870 88.630 118.0029
586.741049 88.629 118.5764
590.992817 88.628 119.1567
595.275394 88.627 119.7563
599.589005 88.630 120.3646
603.933874 88.638 120.9573
608.310228 88.646 121.5193
612.718295 88.654 122.0668
617.158304 88.660 122.6347
621.630488 88.666 123.2281
626.135079 88.672 123.8363
630.672311 88.680 124.4617
635.242423 88.690 125.1015
639.845651 88.701 125.7388
644.482237 88.713 126.3784
649.152421 88.724 127.0347
653.856447 88.734 127.7108
658.594560 88.744 128.3941
663.367008 88.756 129.0666
668.174039 88.770 129.7325
673.015903 88.784 130.4099
677.892854 88.798 131.1102
682.805145 88.813 131.8303
687.753032 88.829 132.5608
692.736774 88.848 133.2877
697.756631 88.870 133.9984
702.812863 88.895 134.6928
707.905735 88.920 135.3900
713.035511 88.946 136.1099
718.202461 88.969 136.8596
723.406852 88.992 137.6252
728.648956 89.014 138.3923
733.929047 89.037 139.1589
739.247399 89.061 139.9262
744.604290 89.087 140.6938
750.000000 89.115 141.4678
755.434809 89.146 142.2451
760.909001 89.177 143.0091
766.422861 89.209 143.7619
771.976677 89.241 144.5204
777.570739 89.271 145.2927
783.205337 89.299 146.0672
788.880766 89.328 146.8286
794.597321 89.359 147.5858
800.355301 89.394 148.3586
806.155005 89.428 149.1534
811.996736 89.462 149.9628
817.880799 89.495 150.7738
823.807501 89.525 151.5718
829.777150 89.555 152.3514
835.790057 89.586 153.1263
841.846536 89.616 153.9016
847.946903 89.643 154.6731
854.091476 89.668 155.4471
860.280575 89.691 156.2371
866.514523 89.714 157.0469
872.793644 89.734 157.8736
879.118267 89.750 158.7155
885.488720 89.764 159.5710
891.905336 89.778 160.4380
898.368450 89.792 161.3107
904.878398 89.805 162.1882
911.435520 89.815 163.0815
918.040157 89.824 164.0050
924.692655 89.831 164.9634
931.393359 89.837 165.9486
938.142619 89.840 166.9496
944.940787 89.842 167.9682
951.788218 89.843 169.0161
958.685268 89.845 170.1023
965.632296 89.846 171.2267
972.629666 89.848 172.3844
979.677741 89.850 173.5715
986.776890 89.853 174.7881
993.927482 89.856 176.0355
1001.129891 89.860 177.3113
1008.384491 89.866 178.6116
1015.691660 89.873 179.9334
1023.051781 89.881 -178.7247
1030.465236 89.892 -177.3574
1037.932411 89.906 -175.9586
1045.453698 89.923 -174.5307
1053.029486 89.943 -173.0773
1060.660172 89.964 -171.6073
1068.346153 89.987 -170.1245
1076.087829 90.013 -168.6208
1083.885605 90.042 -167.0969
1091.739887 90.071 -165.5612
1099.651084 90.101 -164.0005
1107.619609 90.134 -162.3920
1115.645878 90.177 -160.7433
1123.730308 90.233 -159.1075
1131.873321 90.300 -157.5551
1140.075341 90.371 -156.1413
1148.336797 90.438 -154.8982
1156.658119 90.494 -153.8414
1165.039741 90.537 -152.9763
1173.482099 90.569 -152.2982
1181.985634 90.595 -151.7977
1190.550789 90.624 -151.4511
1199.178011 90.663 -151.1973
1207.867749 90.714 -150.9604
1216.620457 90.771 -150.7005
1225.436590 90.830 -150.4326
1234.316609 90.887 -150.1857
1243.260976 90.944 -149.9648
1252.270157 91.000 -149.7550
1261.344623 91.056 -149.5469
1270.484846 91.111 -149.3397
1279.691303 91.165 -149.1408
1288.964474 91.219 -148.9595
1298.304842 91.272 -148.7921
1307.712894 91.327 -148.6338
1317.189120 91.382 -148.4818
1326.734016 91.438 -148.3356
1336.348077 91.491 -148.1962
1346.031806 91.544 -148.0569
1355.785708 91.596 -147.9074
1365.610290 91.648 -147.7513
1375.506065 91.703 -147.6006
1385.473549 91.759 -147.4567
1395.513261 91.816 -147.3177
1405.625726 91.874 -147.1904
1415.811469 91.932 -147.0788
1426.071023 91.991 -146.9780
1436.404921 92.049 -146.8752
1446.813703 92.105 -146.7569
1457.297912 92.156 -146.6213
1467.858093 92.207 -146.4729
1478.494798 92.259 -146.3158
1489.208581 92.313 -146.1682
1500.000000 92.368 -146.0445
1510.869618 92.425 -145.9395
1521.818002 92.484 -145.8446
1532.845723 92.545 -145.7574
1543.953355 92.606 -145.6725
1555.141477 92.666 -145.5766
1566.410674 92.725 -145.4682
1577.761531 92.785 -145.3539
1589.194642 92.847 -145.2389
1600.710601 92.909 -145.1322
1612.310010 92.970 -145.0347
1623.993473 93.030 -144.9426
1635.761599 93.090 -144.8574
1647.615002 93.150 -144.7816
1659.554299 93.210 -144.7148
1671.580114 93.273 -144.6575
1683.693072 93.336 -144.6077
1695.893807 93.402 -144.5544
1708.182952 93.468 -144.4923
1720.561150 93.535 -144.4275
1733.029045 93.602 -144.3620
1745.587288 93.669 -144.3038
1758.236533 93.739 -144.2616
1770.977440 93.809 -144.2372
1783.810673 93.879 -144.2258
1796.736900 93.949 -144.2201
1809.756796 94.018 -144.2233
1822.871040 94.088 -144.2460
1836.080315 94.159 -144.2847
1849.385310 94.230 -144.3235
1862.786718 94.301 -144.3493
1876.285239 94.375 -144.3615
1889.881575 94.449 -144.3806
1903.576436 94.520 -144.4203
1917.370535 94.585 -144.4739
1931.264593 94.646 -144.5354
1945.259332 94.708 -144.6071
1959.355483 94.772 -144.6865
1973.553781 94.838 -144.7780
1987.854965 94.907 -144.8854
2002.259781 94.976 -144.9919
2016.768981 95.046 -145.0879
2031.383320 95.118 -145.1775
2046.103561 95.190 -145.2687
2060.930471 95.259 -145.3726
2075.864823 95.329 -145.5056
2090.907395 95.398 -145.6564
2106.058972 95.464 -145.7877
2121.320344 95.530 -145.8924
2136.692305 95.592 -145.9867
2152.175658 95.653 -146.0937
2167.771210 95.713 -146.2199
2183.479774 95.773 -146.3448
2199.302169 95.834 -146.4616
2215.239219 95.898 -146.5822
2231.291755 95.965 -146.7028
2247.460615 96.031 -146.8113
2263.746641 96.093 -146.9093
2280.150683 96.153 -147.0014
2296.673595 96.214 -147.0672
2313.316238 96.278 -147.0811
2330.079481 96.346 -147.0587
2346.964198 96.417 -147.0252
2363.971268 96.490 -146.9774
2381.101578 96.570 -146.9059
2398.356022 96.660 -146.8173
2415.735498 96.762 -146.7431
2433.240913 96.879 -146.7222
2450.873180 97.012 -146.7713
2468.633217 97.155 -146.8939
2486.521951 97.302 -147.1015
2504.540314 97.447 -147.4152
2522.689246 97.588 -147.8408
2540.969692 97.720 -148.3567
2559.382606 97.842 -148.9321
2577.928947 97.957 -149.5372
2596.609683 98.065 -150.1514
2615.425787 98.166 -150.7610
2634.378241 98.262 -151.3640
2653.468031 98.352 -151.9679
2672.696154 98.440 -152.5690
2692.063613 98.526 -153.1686
2711.571415 98.614 -153.7798
2731.220579 98.703 -154.3999
2751.012130 98.792 -155.0317
2770.947098 98.879 -155.6803
2791.026522 98.963 -156.3353
2811.251451 99.045 -156.9906
2831.622938 99.125 -157.6490
2852.142045 99.204 -158.3083
2872.809842 99.281 -158.9790
2893.627406 99.355 -159.6823
2914.595823 99.427 -160.4202
2935.716186 99.498 -161.1794
2956.989596 99.571 -161.9556
2978.417161 99.643 -162.7473
3000.000000 99.715 -163.5594
3021.739237 99.785 -164.4051
3043.636005 99.853 -165.2811
3065.691446 99.917 -166.1828
3087.906710 99.976 -167.1157
3110.282955 100.027 -168.0834
3132.821347 100.073 -169.0785
3155.523062 100.116 -170.0820
3178.389283 100.160 -171.0871
3201.421202 100.203 -172.0986
3224.620020 100.241 -173.1137
3247.986946 100.273 -174.1355
3271.523198 100.296 -175.1766
3295.230004 100.313 -176.2397
3319.108599 100.327 -177.3148
3343.160228 100.341 -178.3893
3367.386145 100.353 -179.4557
3391.787613 100.362 179.4789
3416.365904 100.366 178.4024
3441.122300 100.367 177.2987
3466.058091 100.366 176.1673
3491.174576 100.362 175.0286
3516.473066 100.350 173.8893
3541.954880 100.330 172.7303
3567.621345 100.306 171.5362
3593.473800 100.279 170.3140
3619.513592 100.247 169.0687
3645.742080 100.206 167.8129
3672.160630 100.156 166.5650
3698.770620 100.095 165.3306
3725.573436 100.023 164.1132
3752.570477 99.944 162.9217
3779.763150 99.862 161.7558
3807.152872 99.777 160.6196
3834.741071 99.688 159.5180
3862.529185 99.597 158.4326
3890.518664 99.505 157.3521
3918.710966 99.413 156.2885
3947.107561 99.323 155.2263
3975.709929 99.230 154.1077
4004.519563 99.130 152.9162
4033.537962 99.019 151.6795
4062.766641 98.897 150.4208
4092.207123 98.762 149.1373
4121.860942 98.616 147.8246
4151.729646 98.459 146.4750
4181.814790 98.290 145.1039
4212.117944 98.107 143.7612
4242.640687 97.906 142.4803
4273.384610 97.682 141.2458
4304.351317 97.437 140.0392
4335.542421 97.173 138.8925
4366.959549 96.891 137.8506
4398.604338 96.592 136.9479
4430.478438 96.274 136.2064
4462.583511 95.940 135.6359
4494.921231 95.591 135.2471
4527.493283 95.235 135.0609
4560.301365 94.878 135.1020
4593.347189 94.526 135.3744
4626.632476 94.183 135.8626
4660.158962 93.853 136.5410
4693.928395 93.540 137.3752
4727.942535 93.252 138.3244
4762.203156 92.991 139.3716
4796.712043 92.757 140.5044
4831.470996 92.546 141.6909
4866.481826 92.355 142.8997
4901.746360 92.184 144.1016
4937.266434 92.030 145.2845
4973.043902 91.895 146.4479
5009.080628 91.777 147.5826
5045.378492 91.674 148.6792
5081.939384 91.578 149.7317
5118.765212 91.482 150.7422
5155.857894 91.387 151.7146
5193.219366 91.296 152.6682
5230.851574 91.211 153.6249
5268.756481 91.136 154.5793
5306.936062 91.067 155.5220
5345.392309 90.999 156.4542
5384.127225 90.929 157.3961
5423.142830 90.861 158.3612
5462.441159 90.796 159.3351
5502.024259 90.737 160.3061
5541.894195 90.682 161.2800
5582.053045 90.633 162.2639
5622.502902 90.588 163.2681
5663.245876 90.545 164.2949
5704.284090 90.504 165.3465
5745.619684 90.472 166.4232
5787.254813 90.450 167.5239
5829.191647 90.437 168.6434
5871.432373 90.428 169.7999
5913.979192 90.415 171.0934
5956.834323 90.389 172.7991
6000.000000 90.361 175.4310
6043.478473 90.366 179.5031
6087.272010 90.421 -174.8267
6131.382892 90.503 -167.8296
6175.813420 90.582 -159.9908
6220.565910 90.653 -151.7113
6265.642695 90.728 -143.1999
6311.046124 90.811 -134.5363
6356.778566 90.906 -125.7372
6402.842404 91.017 -116.8088
6449.240040 91.146 -107.7669
6495.973891 91.293 -98.6249
6543.046396 91.455 -89.4153
6590.460007 91.632 -80.1681
6638.217197 91.823 -70.8737
6686.320456 92.031 -61.4956
6734.772290 92.258 -52.0277
6783.575226 92.504 -42.5022
6832.731809 92.765 -32.9508
6882.244600 93.041 -23.3724
6932.116181 93.332 -13.7699
6982.349153 93.640 -4.1649
7032.946133 93.967 5.4393
7083.909760 94.316 15.0551
7135.242690 94.683 24.6731
7186.947600 95.067 34.2540
7239.027185 95.467 43.7947
7291.484160 95.885 53.2931
7344.321260 96.324 62.7033
7397.541239 96.781 71.9924
7451.146872 97.256 81.1565
7505.140954 97.748 90.1815
7559.526299 98.255 99.0253
7614.305743 98.777 107.6269
7669.482141 99.312 115.9185
7725.058371 99.855 123.8261
7781.037328 100.398 131.2471
7837.421932 100.923 138.0607
7894.215122 101.407 144.1622
7951.419859 101.821 149.4983
8009.039125 102.131 154.0953
8067.075924 102.302 158.0853
8125.533282 102.303 161.7179
8184.414245 102.118 165.3333
8243.721885 101.745 169.2967
8303.459292 101.198 173.9621
8363.629581 100.502 179.6190
8424.235888 99.695 -173.5776
8485.281374 98.814 -165.6009
8546.769221 97.889 -156.4866
8608.702634 96.943 -146.3006
8671.084842 95.994 -135.1302
8733.919097 95.057 -123.0582
8797.208675 94.145 -110.1638
8860.956876 93.266 -96.5360
8925.167022 92.422 -82.2526
8989.842461 91.618 -67.3781
9054.986566 90.858 -51.9756
9120.602731 90.141 -36.0955
9186.694378 89.467 -19.8152
9253.264952 88.836 -3.2510
9320.317925 88.242 13.5204
9387.856790 87.679 30.5306
9455.885071 87.140 47.8704
9524.406312 86.624 65.5679
9593.424086 86.131 83.5748
9662.941992 85.664 101.8577
9732.963653 85.221 120.4336
9803.492719 84.803 139.3107
9874.532869 84.407 158.4362
9946.087805 84.033 177.7820
10018.161257 83.680 -162.6029
10090.756983 83.349 -142.6739
10163.878768 83.042 -122.4445
10237.530423 82.755 -101.9219
10311.715789 82.491 -81.1166
10386.438732 82.248 -60.0569
10461.703149 82.029 -38.7526
10537.512962 81.832 -17.2121
10613.872125 81.658 4.5614
10690.784618 81.505 26.5800
10768.254450 81.375 48.8529
10846.285661 81.267 71.3451
10924.882318 81.180 94.0490
11004.048518 81.113 117.0106
11083.788390 81.067 140.2527
11164.106090 81.041 163.7650
11245.005805 81.035 -172.4617
11326.491752 81.050 -148.4570
11408.568180 81.084 -124.2316
11491.239368 81.139 -99.7485
11574.509626 81.218 -74.9701
11658.383294 81.322 -49.8933
11742.864745 81.455 -24.5187
11827.958384 81.617 1.1647
11913.668646 81.810 27.1566
12000.000000 82.037 53.4177
12086.956947 82.301 79.9419
12174.544019 82.606 106.7498
12262.765784 82.957 133.8197
12351.626840 83.354 161.0983
12441.131819 83.797 -171.4799
12531.285389 84.287 -143.9611
12622.092249 84.825 -116.3063
12713.557132 85.416 -88.4846
12805.684808 86.064 -60.4705
12898.480079 86.777 -32.2439
12991.947783 87.563 -3.8593
13086.092792 88.430 24.5657
13180.920015 89.382 52.8892
13276.434395 90.418 80.8940
13372.640911 91.530 108.2391
13469.544580 92.693 134.4355
13567.150452 93.867 158.9353
13665.463617 94.988 -178.7222
13764.489200 95.980 -158.7158
13864.232362 96.763 -140.7700
13964.698305 97.270 -124.1515
14065.892266 97.468 -107.8186
14167.819519 97.364 -90.6168
14270.485380 97.010 -71.4874
14373.895200 96.489 -49.6998
14478.054370 95.888 -25.0173
14582.968320 95.285 2.3162
14688.642520 94.739 31.6593
14795.082478 94.280 62.2279
14902.293745 93.920 93.3357
15010.281908 93.645 124.5022
15119.052599 93.433 155.4609
15228.611486 93.256 -173.9424
15338.964283 93.084 -143.7690
15450.116741 92.893 -113.9849
15562.074656 92.655 -84.4963
15674.843864 92.351 -55.1409
15788.430244 91.964 -25.6392
15902.839718 91.489 4.3555
16018.078250 90.930 35.1689
16134.151848 90.299 67.1484
16251.066563 89.617 100.5762
16368.828491 88.909 135.5740
16487.443769 88.190 172.0579
16606.918584 87.455 -150.8218
16727.259161 86.643 -115.9163
16848.471777 85.591 -87.6042
16970.562748 84.013 -68.4944
17093.538442 81.619 -57.7451
17217.405268 78.362 -51.9792
17342.169684 74.381 -48.7153
17467.838194 69.842 -46.7720
17594.417350 64.882 -45.4958
17721.913751 59.605 -44.2893
17850.334044 54.098 -43.9197
17979.684923 48.470 -49.1538
18109.973131 42.983 -57.2410
18241.205462 38.364 -61.1755
18373.388756 35.683 -58.8884
18506.529905 34.803 -60.9019
18640.635849 34.614 -93.1768
18775.713581 34.543 -152.2422
18911.770141 34.467 -168.9072
19048.812624 34.435 -173.9719
19186.848172 34.527 39.1213
19325.883983 34.699 15.2898
19465.927305 34.899 11.6294
19606.985439 35.183 7.5112
19749.065738 35.711 5.5796
19892.175609 36.425 11.4507
20036.322514 36.913 19.9814
