* Measurement data measured by REW V5.31.3
* Source: Input device not selected, no input selected, R, volume: no control
* Format: 256k Log Swept Sine, 1 sweep at -12.0 dBFS with no timing reference
* Dated: Feb 6, 2026 4:38:06 PM
* REW Settings:
*  C-weighting compensation: Off
*  Target level: 75.0 dB
* Note: ; 
* Measurement: Roseselsa Ceramics Mk2 D L
* Smoothing: 1/24 octave
* Frequency Step: 96 ppo
* Start Frequency: 0.36621094 Hz
*
* Freq(Hz) SPL(dB) Phase(degrees)
0.366211 52.160 77.2481
0.368865 52.208 77.0504
0.371538 52.276 76.7671
0.374230 52.352 76.4493
0.376942 52.432 76.1200
0.379673 52.514 75.7874
0.382424 52.596 75.4542
0.385196 52.679 75.1212
0.387987 52.763 74.7887
0.390798 52.847 74.4567
0.393630 52.932 74.1253
0.396483 53.017 73.7946
0.399356 53.103 73.4646
0.402250 53.190 73.1354
0.405165 53.277 72.8068
0.408101 53.365 72.4791
0.411058 53.454 72.1522
0.414037 53.543 71.8262
0.417037 53.633 71.5009
0.420059 53.723 71.1766
0.423103 53.814 70.8531
0.426169 53.906 70.5304
0.429257 53.999 70.2087
0.432368 54.092 69.8878
0.435501 54.186 69.5678
0.438656 54.280 69.2486
0.441835 54.375 68.9303
0.445037 54.471 68.6129
0.448262 54.568 68.2962
0.451510 54.665 67.9803
0.454782 54.763 67.6652
0.458077 54.862 67.3509
0.461397 54.961 67.0373
0.464740 55.061 66.7243
0.468108 55.162 66.4120
0.471500 55.264 66.1003
0.474917 55.366 65.7891
0.478358 55.469 65.4785
0.481825 55.573 65.1683
0.485316 55.677 64.8586
0.488833 55.783 64.5492
0.492375 55.889 64.2401
0.495943 55.996 63.9314
0.499537 56.103 63.6228
0.503157 56.212 63.3143
0.506803 56.321 63.0060
0.510475 56.431 62.6976
0.514175 56.542 62.3892
0.517900 56.653 62.0807
0.521653 56.766 61.7721
0.525434 56.879 61.4632
0.529241 56.993 61.1539
0.533076 57.108 60.8443
0.536939 57.223 60.5343
0.540830 57.340 60.2237
0.544749 57.457 59.9125
0.548696 57.575 59.6006
0.552673 57.695 59.2880
0.556677 57.814 58.9746
0.560711 57.935 58.6602
0.564774 58.057 58.3449
0.568867 58.180 58.0285
0.572989 58.303 57.7110
0.577141 58.427 57.3923
0.581324 58.553 57.0723
0.585536 58.679 56.7510
0.589779 58.806 56.4282
0.594053 58.934 56.1039
0.598358 59.063 55.7780
0.602694 59.193 55.4505
0.607061 59.323 55.1212
0.611460 59.455 54.7901
0.615891 59.588 54.4572
0.620354 59.722 54.1223
0.624849 59.856 53.7853
0.629377 59.992 53.4463
0.633938 60.128 53.1051
0.638532 60.266 52.7616
0.643159 60.405 52.4159
0.647819 60.544 52.0678
0.652514 60.685 51.7172
0.657242 60.826 51.3642
0.662005 60.969 51.0085
0.666802 61.113 50.6503
0.671634 61.257 50.2894
0.676501 61.403 49.9257
0.681403 61.550 49.5592
0.686341 61.698 49.1899
0.691314 61.847 48.8177
0.696324 61.997 48.4425
0.701370 62.148 48.0643
0.706452 62.300 47.6830
0.711571 62.453 47.2987
0.716728 62.608 46.9114
0.721921 62.762 46.5212
0.727153 62.915 46.1289
0.732422 63.065 45.7360
0.737729 63.209 45.3454
0.743075 63.348 44.9600
0.748460 63.487 44.5811
0.753883 63.625 44.2092
0.759346 63.762 43.8441
0.764849 63.900 43.4857
0.770391 64.039 43.1338
0.775974 64.177 42.7879
0.781597 64.315 42.4479
0.787261 64.454 42.1133
0.792966 64.593 41.7840
0.798712 64.732 41.4595
0.804500 64.871 41.1397
0.810329 65.011 40.8241
0.816201 65.150 40.5126
0.822116 65.290 40.2047
0.828073 65.430 39.9001
0.834074 65.570 39.5986
0.840118 65.710 39.2999
0.846206 65.851 39.0037
0.852338 65.991 38.7097
0.858514 66.132 38.4175
0.864735 66.273 38.1269
0.871001 66.414 37.8376
0.877313 66.555 37.5494
0.883670 66.697 37.2619
0.890074 66.838 36.9749
0.896524 66.980 36.6881
0.903020 67.122 36.4012
0.909564 67.265 36.1140
0.916155 67.407 35.8262
0.922794 67.550 35.5375
0.929481 67.693 35.2477
0.936216 67.836 34.9566
0.943000 67.979 34.6638
0.949834 68.123 34.3692
0.956717 68.266 34.0725
0.963649 68.410 33.7735
0.970632 68.555 33.4720
0.977666 68.699 33.1676
0.984750 68.844 32.8602
0.991886 68.989 32.5495
0.999074 69.134 32.2354
1.006314 69.280 31.9176
1.013606 69.426 31.5959
1.020951 69.572 31.2701
1.028349 69.719 30.9400
1.035801 69.866 30.6053
1.043307 70.013 30.2659
1.050867 70.161 29.9216
1.058482 70.309 29.5722
1.066152 70.457 29.2174
1.073878 70.606 28.8572
1.081660 70.755 28.4916
1.089498 70.905 28.1209
1.097393 71.055 27.7461
1.105345 71.205 27.3696
1.113355 71.355 26.9939
1.121423 71.505 26.6204
1.129549 71.655 26.2496
1.137734 71.805 25.8815
1.145979 71.954 25.5161
1.154283 72.103 25.1531
1.162647 72.252 24.7924
1.171072 72.401 24.4338
1.179558 72.549 24.0770
1.188106 72.697 23.7219
1.196715 72.846 23.3682
1.205387 72.994 23.0157
1.214122 73.141 22.6642
1.222920 73.289 22.3135
1.231782 73.436 21.9633
1.240708 73.584 21.6134
1.249699 73.731 21.2636
1.258754 73.878 20.9136
1.267876 74.025 20.5632
1.277063 74.172 20.2122
1.286318 74.319 19.8603
1.295639 74.465 19.5073
1.305027 74.612 19.1530
1.314484 74.759 18.7971
1.324009 74.906 18.4394
1.333604 75.052 18.0796
1.343268 75.199 17.7175
1.353002 75.346 17.3529
1.362806 75.493 16.9855
1.372681 75.640 16.6150
1.382628 75.787 16.2412
1.392647 75.935 15.8640
1.402739 76.083 15.4829
1.412904 76.230 15.0978
1.423142 76.379 14.7085
1.433455 76.527 14.3147
1.443843 76.676 13.9164
1.454305 76.825 13.5138
1.464844 76.974 13.1080
1.475459 77.124 12.7009
1.486150 77.273 12.2944
1.496920 77.421 11.8896
1.507767 77.570 11.4865
1.518693 77.718 11.0851
1.529698 77.865 10.6852
1.540783 78.012 10.2864
1.551948 78.159 9.8884
1.563194 78.306 9.4909
1.574521 78.452 9.0936
1.585931 78.597 8.6961
1.597423 78.743 8.2982
1.608999 78.888 7.8993
1.620658 79.032 7.4993
1.632402 79.177 7.0978
1.644232 79.321 6.6943
1.656146 79.465 6.2886
1.668147 79.609 5.8803
1.680235 79.752 5.4691
1.692411 79.896 5.0545
1.704675 80.039 4.6362
1.717028 80.182 4.2139
1.729470 80.325 3.7871
1.742003 80.467 3.3555
1.754626 80.610 2.9187
1.767341 80.753 2.4764
1.780147 80.896 2.0281
1.793047 81.039 1.5735
1.806040 81.181 1.1124
1.819128 81.324 0.6447
1.832310 81.467 0.1708
1.845587 81.610 -0.3079
1.858961 81.752 -0.7903
1.872432 81.894 -1.2756
1.886001 82.035 -1.7632
1.899667 82.175 -2.2530
1.913433 82.315 -2.7446
1.927299 82.454 -3.2381
1.941265 82.593 -3.7332
1.955332 82.731 -4.2299
1.969501 82.869 -4.7282
1.983773 83.006 -5.2280
1.998148 83.143 -5.7293
2.012627 83.279 -6.2322
2.027212 83.415 -6.7368
2.041902 83.551 -7.2430
2.056698 83.686 -7.7511
2.071602 83.820 -8.2611
2.086614 83.955 -8.7733
2.101734 84.089 -9.2877
2.116964 84.223 -9.8046
2.132304 84.356 -10.3243
2.147756 84.490 -10.8470
2.163320 84.623 -11.3729
2.178996 84.756 -11.9024
2.194786 84.889 -12.4359
2.210690 85.021 -12.9735
2.226710 85.153 -13.5154
2.242845 85.284 -14.0613
2.259098 85.414 -14.6108
2.275468 85.544 -15.1635
2.291957 85.672 -15.7191
2.308566 85.800 -16.2772
2.325295 85.928 -16.8374
2.342145 86.054 -17.3995
2.359117 86.180 -17.9632
2.376212 86.306 -18.5283
2.393431 86.430 -19.0946
2.410775 86.555 -19.6619
2.428244 86.678 -20.2302
2.445840 86.801 -20.7993
2.463564 86.924 -21.3691
2.481416 87.046 -21.9397
2.499397 87.168 -22.5111
2.517509 87.289 -23.0834
2.535752 87.411 -23.6568
2.554127 87.531 -24.2318
2.572635 87.651 -24.8095
2.591277 87.771 -25.3909
2.610055 87.890 -25.9766
2.628968 88.007 -26.5666
2.648019 88.124 -27.1603
2.667208 88.240 -27.7572
2.686535 88.355 -28.3568
2.706003 88.469 -28.9585
2.725612 88.583 -29.5618
2.745363 88.696 -30.1662
2.765257 88.808 -30.7714
2.785295 88.919 -31.3767
2.805478 89.030 -31.9819
2.825808 89.140 -32.5867
2.846285 89.249 -33.1906
2.866910 89.358 -33.7935
2.887685 89.467 -34.3952
2.908611 89.575 -34.9959
2.929688 89.683 -35.5965
2.950917 89.790 -36.1986
2.972301 89.896 -36.8038
2.993839 90.001 -37.4124
3.015534 90.106 -38.0243
3.037386 90.209 -38.6388
3.059396 90.311 -39.2555
3.081565 90.413 -39.8737
3.103896 90.513 -40.4926
3.126388 90.613 -41.1118
3.149043 90.713 -41.7305
3.171862 90.811 -42.3483
3.194847 90.909 -42.9645
3.217998 91.007 -43.5786
3.241317 91.104 -44.1903
3.264805 91.201 -44.7992
3.288463 91.297 -45.4059
3.312293 91.393 -46.0116
3.336295 91.488 -46.6179
3.360471 91.582 -47.2258
3.384822 91.675 -47.8354
3.409350 91.768 -48.4463
3.434056 91.859 -49.0582
3.458940 91.950 -49.6704
3.484005 92.040 -50.2825
3.509252 92.129 -50.8939
3.534681 92.218 -51.5041
3.560295 92.307 -52.1126
3.586094 92.395 -52.7189
3.612081 92.483 -53.3226
3.638255 92.570 -53.9235
3.664620 92.657 -54.5220
3.691175 92.744 -55.1193
3.717923 92.830 -55.7164
3.744864 92.916 -56.3137
3.772001 93.000 -56.9114
3.799335 93.084 -57.5092
3.826866 93.168 -58.1068
3.854597 93.251 -58.7041
3.882529 93.334 -59.3008
3.910664 93.416 -59.8964
3.939002 93.498 -60.4909
3.967546 93.580 -61.0839
3.996296 93.661 -61.6752
4.025255 93.743 -62.2649
4.054423 93.824 -62.8535
4.083804 93.905 -63.4416
4.113396 93.986 -64.0296
4.143204 94.066 -64.6176
4.173227 94.145 -65.2057
4.203468 94.225 -65.7940
4.233928 94.304 -66.3824
4.264609 94.382 -66.9711
4.295512 94.461 -67.5599
4.326639 94.539 -68.1490
4.357992 94.617 -68.7384
4.389572 94.695 -69.3283
4.421380 94.773 -69.9189
4.453419 94.851 -70.5105
4.485691 94.928 -71.1033
4.518196 95.005 -71.6972
4.550936 95.082 -72.2924
4.583914 95.159 -72.8888
4.617131 95.235 -73.4866
4.650589 95.310 -74.0858
4.684289 95.386 -74.6864
4.718233 95.461 -75.2887
4.752424 95.536 -75.8931
4.786862 95.610 -76.4998
4.821549 95.684 -77.1095
4.856488 95.758 -77.7221
4.891680 95.831 -78.3375
4.927127 95.904 -78.9554
4.962831 95.976 -79.5753
4.998794 96.048 -80.1972
5.035017 96.119 -80.8206
5.071503 96.190 -81.4456
5.108253 96.259 -82.0725
5.145270 96.329 -82.7019
5.182555 96.397 -83.3348
5.220110 96.465 -83.9718
5.257937 96.532 -84.6122
5.296038 96.598 -85.2555
5.334415 96.663 -85.9006
5.373071 96.728 -86.5468
5.412006 96.792 -87.1933
5.451224 96.855 -87.8396
5.490725 96.916 -88.4861
5.530514 96.977 -89.1341
5.570590 97.037 -89.7848
5.610957 97.096 -90.4383
5.651616 97.154 -91.0938
5.692570 97.210 -91.7501
5.733821 97.266 -92.4058
5.775370 97.321 -93.0597
5.817221 97.375 -93.7110
5.859375 97.428 -94.3595
5.901834 97.480 -95.0067
5.944602 97.530 -95.6537
5.987679 97.580 -96.3008
6.031068 97.628 -96.9471
6.074771 97.675 -97.5917
6.118792 97.722 -98.2332
6.163131 97.768 -98.8706
6.207792 97.813 -99.5030
6.252776 97.857 -100.1307
6.298086 97.901 -100.7549
6.343725 97.943 -101.3761
6.389694 97.985 -101.9943
6.435996 98.026 -102.6093
6.482634 98.067 -103.2204
6.529610 98.107 -103.8270
6.576926 98.147 -104.4287
6.624585 98.187 -105.0253
6.672590 98.226 -105.6171
6.720942 98.265 -106.2047
6.769645 98.304 -106.7886
6.818700 98.342 -107.3694
6.868111 98.381 -107.9474
6.917881 98.419 -108.5230
6.968010 98.458 -109.0959
7.018504 98.497 -109.6659
7.069362 98.536 -110.2330
7.120590 98.575 -110.7979
7.172189 98.614 -111.3616
7.224161 98.653 -111.9252
7.276511 98.692 -112.4894
7.329239 98.732 -113.0549
7.382350 98.771 -113.6213
7.435845 98.811 -114.1886
7.489729 98.851 -114.7569
7.544002 98.891 -115.3270
7.598669 98.931 -115.8995
7.653732 98.970 -116.4753
7.709194 99.009 -117.0549
7.765058 99.048 -117.6386
7.821327 99.087 -118.2262
7.878004 99.125 -118.8172
7.935091 99.163 -119.4114
7.992592 99.200 -120.0085
8.050510 99.236 -120.6088
8.108847 99.271 -121.2130
8.167607 99.305 -121.8213
8.226793 99.338 -122.4330
8.286408 99.370 -123.0469
8.346454 99.401 -123.6615
8.406936 99.431 -124.2761
8.467856 99.459 -124.8909
8.529218 99.486 -125.5068
8.591024 99.512 -126.1232
8.653278 99.536 -126.7384
8.715983 99.559 -127.3507
8.779143 99.581 -127.9587
8.842760 99.601 -128.5625
8.906839 99.620 -129.1625
8.971381 99.638 -129.7587
9.036392 99.655 -130.3497
9.101873 99.670 -130.9343
9.167829 99.685 -131.5115
9.234263 99.699 -132.0814
9.301178 99.713 -132.6443
9.368578 99.725 -133.2004
9.436467 99.738 -133.7497
9.504847 99.750 -134.2919
9.573723 99.762 -134.8268
9.643099 99.773 -135.3543
9.712976 99.785 -135.8753
9.783361 99.797 -136.3909
9.854255 99.808 -136.9019
9.925663 99.821 -137.4088
9.997588 99.833 -137.9112
10.070035 99.846 -138.4099
10.143007 99.859 -138.9060
10.216507 99.872 -139.4010
10.290540 99.886 -139.8955
10.365109 99.899 -140.3895
10.440219 99.913 -140.8832
10.515873 99.927 -141.3771
10.592076 99.940 -141.8720
10.668830 99.954 -142.3683
10.746141 99.967 -142.8660
10.824012 99.980 -143.3648
10.902447 99.992 -143.8642
10.981451 100.003 -144.3640
11.061027 100.014 -144.8642
11.141180 100.025 -145.3647
11.221913 100.034 -145.8645
11.303232 100.043 -146.3628
11.385140 100.051 -146.8588
11.467641 100.058 -147.3525
11.550741 100.065 -147.8435
11.634442 100.070 -148.3312
11.718750 100.076 -148.8149
11.803669 100.080 -149.2943
11.889203 100.085 -149.7694
11.975357 100.089 -150.2406
12.062136 100.093 -150.7081
12.149543 100.097 -151.1719
12.237583 100.101 -151.6321
12.326262 100.104 -152.0898
12.415583 100.108 -152.5461
12.505552 100.113 -153.0016
12.596172 100.117 -153.4566
12.687449 100.121 -153.9120
12.779387 100.125 -154.3692
12.871992 100.130 -154.8288
12.965268 100.134 -155.2913
13.059220 100.137 -155.7568
13.153852 100.140 -156.2257
13.249170 100.142 -156.6982
13.345179 100.144 -157.1743
13.441884 100.144 -157.6531
13.539289 100.143 -158.1337
13.637401 100.140 -158.6154
13.736223 100.136 -159.0977
13.835761 100.131 -159.5786
13.936021 100.123 -160.0564
14.037007 100.114 -160.5303
14.138725 100.104 -160.9991
14.241180 100.092 -161.4610
14.344377 100.078 -161.9144
14.448323 100.064 -162.3589
14.553021 100.048 -162.7937
14.658478 100.032 -163.2183
14.764700 100.016 -163.6322
14.871691 99.999 -164.0358
14.979457 99.982 -164.4299
15.088005 99.966 -164.8152
15.197339 99.950 -165.1925
15.307465 99.935 -165.5634
15.418389 99.920 -165.9297
15.530117 99.906 -166.2926
15.642655 99.893 -166.6535
15.756008 99.881 -167.0145
15.870182 99.869 -167.3767
15.985184 99.857 -167.7412
16.101019 99.846 -168.1091
16.217694 99.835 -168.4815
16.335214 99.823 -168.8585
16.453586 99.812 -169.2406
16.572815 99.799 -169.6279
16.692909 99.786 -170.0205
16.813872 99.772 -170.4180
16.935713 99.757 -170.8201
17.058436 99.741 -171.2262
17.182048 99.723 -171.6355
17.306556 99.703 -172.0469
17.431967 99.682 -172.4593
17.558286 99.658 -172.8707
17.685521 99.632 -173.2790
17.813677 99.604 -173.6822
17.942762 99.573 -174.0768
18.072783 99.540 -174.4599
18.203746 99.505 -174.8286
18.335658 99.469 -175.1794
18.468526 99.431 -175.5097
18.602356 99.394 -175.8181
18.737156 99.356 -176.1037
18.872934 99.320 -176.3669
19.009695 99.286 -176.6111
19.147447 99.255 -176.8405
19.286197 99.229 -177.0606
19.425953 99.206 -177.2799
19.566721 99.187 -177.5058
19.708510 99.172 -177.7463
19.851326 99.159 -178.0097
19.995177 99.148 -178.3004
20.140070 99.137 -178.6210
20.286013 99.124 -178.9715
20.433014 99.108 -179.3473
20.581080 99.086 -179.7402
20.730219 99.059 179.8589
20.880439 99.026 179.4636
21.031747 98.986 179.0869
21.184152 98.941 178.7408
21.337661 98.893 178.4367
21.492282 98.843 178.1805
21.648024 98.795 177.9735
21.804895 98.750 177.8132
21.962902 98.710 177.6890
22.122054 98.679 177.5876
22.282360 98.655 177.4934
22.443827 98.638 177.3885
22.606464 98.628 177.2601
22.770280 98.621 177.0978
22.935283 98.615 176.8978
23.101481 98.608 176.6633
23.268884 98.597 176.4017
23.437500 98.582 176.1263
23.607338 98.562 175.8514
23.778406 98.537 175.5906
23.950714 98.509 175.3554
24.124271 98.480 175.1505
24.299086 98.452 174.9755
24.475167 98.428 174.8242
24.652524 98.407 174.6844
24.831166 98.392 174.5441
25.011103 98.379 174.3899
25.192344 98.369 174.2141
25.374898 98.357 174.0133
25.558775 98.344 173.7910
25.743984 98.326 173.5568
25.930536 98.302 173.3221
26.118439 98.275 173.1012
26.307704 98.243 172.9039
26.498341 98.210 172.7367
26.690359 98.178 172.5992
26.883768 98.148 172.4850
27.078579 98.121 172.3846
27.274801 98.096 172.2862
27.472446 98.075 172.1810
27.671522 98.053 172.0645
27.872042 98.031 171.9387
28.074014 98.006 171.8102
28.277450 97.979 171.6895
28.482360 97.950 171.5860
28.688755 97.921 171.5060
28.896645 97.895 171.4488
29.106042 97.874 171.4067
29.316957 97.858 171.3661
29.529400 97.848 171.3107
29.743382 97.842 171.2255
29.958915 97.839 171.1009
30.176009 97.835 170.9352
30.394677 97.828 170.7345
30.614929 97.817 170.5109
30.836778 97.801 170.2796
31.060234 97.780 170.0541
31.285309 97.757 169.8445
31.512015 97.733 169.6549
31.740364 97.709 169.4842
31.970368 97.687 169.3274
32.202039 97.666 169.1790
32.435388 97.647 169.0345
32.670428 97.629 168.8920
32.907171 97.612 168.7520
33.145630 97.595 168.6166
33.385817 97.579 168.4870
33.627745 97.564 168.3631
33.871425 97.551 168.2428
34.116871 97.539 168.1234
34.364096 97.528 168.0025
34.613113 97.517 167.8795
34.863934 97.506 167.7557
35.116572 97.493 167.6344
35.371041 97.481 167.5189
35.627354 97.468 167.4116
35.885525 97.454 167.3129
36.145566 97.442 167.2216
36.407492 97.430 167.1353
36.671316 97.419 167.0515
36.937051 97.408 166.9681
37.204712 97.399 166.8834
37.474313 97.389 166.7956
37.745867 97.381 166.7024
38.019389 97.373 166.6009
38.294893 97.365 166.4882
38.572394 97.357 166.3629
38.851905 97.348 166.2259
39.133442 97.338 166.0800
39.417019 97.326 165.9301
39.702651 97.313 165.7805
39.990353 97.299 165.6344
40.280140 97.285 165.4930
40.572026 97.272 165.3559
40.866028 97.260 165.2220
41.162160 97.249 165.0909
41.460438 97.239 164.9625
41.760877 97.230 164.8370
42.063494 97.222 164.7139
42.368303 97.217 164.5913
42.675322 97.213 164.4662
42.984565 97.210 164.3353
43.296048 97.207 164.1970
43.609789 97.204 164.0519
43.925804 97.200 163.9043
44.244108 97.193 163.7615
44.564719 97.184 163.6320
44.887654 97.174 163.5219
45.212928 97.166 163.4316
45.540560 97.159 163.3535
45.870565 97.157 163.2717
46.202962 97.158 163.1661
46.537768 97.160 163.0193
46.875000 97.159 162.8243
47.214676 97.152 162.5884
47.556813 97.136 162.3319
47.901429 97.111 162.0809
48.248542 97.080 161.8580
48.598171 97.045 161.6755
48.950334 97.011 161.5330
49.305048 96.981 161.4192
49.662333 96.955 161.3171
50.022206 96.935 161.2095
50.384688 96.919 161.0842
50.749796 96.905 160.9373
51.117550 96.891 160.7742
51.487969 96.877 160.6057
51.861072 96.863 160.4411
52.236879 96.850 160.2820
52.615409 96.839 160.1223
52.996681 96.829 159.9560
53.380717 96.817 159.7872
53.767536 96.801 159.6322
54.157158 96.784 159.5083
54.549603 96.769 159.4172
54.944892 96.759 159.3374
55.343045 96.753 159.2371
55.744084 96.747 159.0982
56.148028 96.735 158.9303
56.554900 96.717 158.7609
56.964720 96.696 158.6072
57.377510 96.676 158.4592
57.793291 96.656 158.2909
58.212085 96.634 158.0918
58.633914 96.606 157.8837
59.058799 96.573 157.7030
59.486764 96.542 157.5651
59.917829 96.519 157.4452
60.352019 96.505 157.3001
60.789354 96.494 157.1074
61.229859 96.481 156.8815
61.673556 96.465 156.6527
62.120468 96.449 156.4410
62.570618 96.432 156.2537
63.024031 96.417 156.1026
63.480729 96.405 156.0019
63.940736 96.404 155.9359
64.404077 96.417 155.8363
64.870776 96.436 155.6200
65.340856 96.445 155.2687
65.814343 96.428 154.8678
66.291261 96.385 154.5537
66.771635 96.333 154.4061
67.255489 96.291 154.3822
67.742850 96.266 154.3573
68.233743 96.244 154.2415
68.728193 96.210 154.0612
69.226226 96.160 153.9360
69.727867 96.107 153.9666
70.233144 96.076 154.1181
70.742083 96.080 154.2018
71.254709 96.100 154.0182
71.771050 96.098 153.5538
72.291132 96.044 153.0417
72.814984 95.952 152.7997
73.342631 95.870 152.9516
73.874102 95.844 153.2777
74.409424 95.871 153.3964
74.948626 95.906 153.1212
75.491734 95.904 152.5879
76.038779 95.857 152.0814
76.589787 95.787 151.8051
77.144788 95.728 151.7708
77.703811 95.697 151.8412
78.266885 95.695 151.8470
78.834039 95.705 151.6865
79.405303 95.707 151.3721
79.980706 95.688 151.0038
80.560280 95.651 150.6918
81.144053 95.607 150.4905
81.732056 95.564 150.3887
82.324320 95.529 150.3440
82.920876 95.501 150.3115
83.521755 95.480 150.2588
84.126988 95.460 150.1756
84.736607 95.441 150.0681
85.350643 95.422 149.9298
85.969129 95.404 149.7379
86.592097 95.379 149.4964
87.219579 95.345 149.2595
87.851608 95.308 149.0781
88.488217 95.277 148.9399
89.129439 95.252 148.7979
89.775308 95.231 148.6353
90.425856 95.209 148.4663
91.081119 95.187 148.2985
91.741131 95.164 148.1350
92.405925 95.140 147.9871
93.075536 95.116 147.8503
93.750000 95.092 147.6981
94.429351 95.063 147.5215
95.113625 95.028 147.3459
95.802858 94.988 147.1943
96.497085 94.947 147.0687
97.196342 94.907 146.9698
97.900667 94.872 146.8959
98.610096 94.844 146.8192
99.324665 94.822 146.7029
100.044413 94.800 146.5501
100.769376 94.775 146.3971
101.499592 94.750 146.2581
102.235100 94.726 146.1194
102.975938 94.700 145.9877
103.722144 94.673 145.8834
104.473757 94.648 145.7917
105.230817 94.623 145.6818
105.993363 94.593 145.5631
106.761435 94.561 145.4622
107.535072 94.529 145.3706
108.314315 94.498 145.2657
109.099206 94.465 145.1493
109.889783 94.431 145.0306
110.686090 94.397 144.9116
111.488167 94.364 144.7989
112.296056 94.334 144.6892
113.109800 94.307 144.5592
113.929440 94.279 144.4054
114.755020 94.248 144.2639
115.586582 94.218 144.1587
116.424170 94.191 144.0642
117.267827 94.165 143.9482
118.117598 94.137 143.8151
118.973527 94.106 143.6893
119.835658 94.072 143.5833
120.704037 94.040 143.4910
121.578708 94.011 143.3959
122.459718 93.982 143.2862
123.347111 93.953 143.1649
124.240935 93.922 143.0434
125.141236 93.889 142.9332
126.048061 93.856 142.8396
126.961458 93.823 142.7543
127.881473 93.791 142.6648
128.808154 93.759 142.5685
129.741551 93.727 142.4665
130.681712 93.697 142.3571
131.628686 93.668 142.2409
132.582521 93.640 142.1200
133.543269 93.612 141.9991
134.510979 93.584 141.8868
135.485701 93.557 141.7879
136.467486 93.528 141.7002
137.456386 93.499 141.6179
138.452451 93.469 141.5333
139.455735 93.438 141.4393
140.466288 93.405 141.3350
141.484165 93.372 141.2256
142.509418 93.340 141.1147
143.542100 93.309 141.0017
144.582265 93.279 140.8872
145.629968 93.250 140.7783
146.685262 93.222 140.6803
147.748204 93.195 140.5882
148.818849 93.169 140.4940
149.897251 93.143 140.3947
150.983469 93.115 140.2929
152.077557 93.086 140.1951
153.179574 93.055 140.1061
154.289576 93.023 140.0259
155.407622 92.991 139.9508
156.533770 92.960 139.8757
157.668078 92.930 139.7955
158.810606 92.900 139.7056
159.961413 92.870 139.6069
161.120559 92.839 139.5059
162.288105 92.809 139.4062
163.464112 92.778 139.3072
164.648640 92.748 139.2089
165.841752 92.717 139.1123
167.043510 92.686 139.0182
168.253976 92.656 138.9292
169.473213 92.627 138.8476
170.701286 92.598 138.7732
171.938258 92.570 138.7034
173.184194 92.543 138.6309
174.439158 92.516 138.5474
175.703216 92.488 138.4512
176.976434 92.458 138.3448
178.258878 92.426 138.2336
179.550615 92.393 138.1301
180.851713 92.361 138.0386
182.162239 92.329 137.9531
183.482262 92.299 137.8676
184.811850 92.270 137.7784
186.151073 92.241 137.6848
187.500000 92.213 137.5880
188.858702 92.186 137.4947
190.227250 92.158 137.4121
191.605715 92.130 137.3395
192.994169 92.101 137.2733
194.392685 92.071 137.2089
195.801334 92.040 137.1432
197.220191 92.009 137.0736
198.649330 91.979 136.9911
200.088825 91.950 136.8827
201.538751 91.921 136.7590
202.999184 91.893 136.6364
204.470200 91.866 136.5180
205.951875 91.839 136.4074
207.444287 91.810 136.3105
208.947514 91.781 136.2302
210.461634 91.752 136.1611
211.986726 91.724 136.0901
213.522869 91.695 136.0057
215.070144 91.667 135.9081
216.628631 91.639 135.8030
218.198411 91.611 135.6925
219.779567 91.583 135.5804
221.372180 91.555 135.4745
222.976334 91.526 135.3795
224.592112 91.496 135.2913
226.219600 91.466 135.2069
227.858880 91.435 135.1246
229.510039 91.405 135.0365
231.173164 91.377 134.9367
232.848340 91.348 134.8318
234.535655 91.319 134.7373
236.235197 91.290 134.6627
237.947054 91.261 134.5970
239.671317 91.232 134.5156
241.408074 91.203 134.4066
243.157416 91.173 134.2846
244.919435 91.142 134.1647
246.694223 91.111 134.0480
248.481871 91.079 133.9325
250.282473 91.048 133.8181
252.096123 91.017 133.7026
253.922915 90.987 133.5833
255.762945 90.958 133.4641
257.616309 90.928 133.3510
259.483103 90.898 133.2426
261.363424 90.866 133.1321
263.257372 90.833 133.0193
265.165043 90.799 132.9214
267.086538 90.767 132.8456
269.021957 90.737 132.7767
270.971401 90.707 132.7035
272.934972 90.679 132.6207
274.912771 90.649 132.5229
276.904902 90.619 132.4142
278.911469 90.586 132.3043
280.932577 90.552 132.1991
282.968330 90.518 132.1006
285.018835 90.484 132.0053
287.084199 90.450 131.9092
289.164530 90.416 131.8105
291.259935 90.380 131.7059
293.370525 90.342 131.5927
295.496408 90.305 131.4810
297.637697 90.269 131.3853
299.794503 90.235 131.3051
301.966937 90.202 131.2285
304.155114 90.167 131.1466
306.359147 90.130 131.0574
308.579152 90.092 130.9647
310.815244 90.051 130.8701
313.067539 90.009 130.7786
315.336156 89.967 130.7101
317.621211 89.930 130.6704
319.922826 89.896 130.6589
322.241118 89.864 130.6785
324.576210 89.829 130.7338
326.928223 89.791 130.8138
329.297280 89.750 130.8631
331.683504 89.711 130.8212
334.087019 89.674 130.6809
336.507952 89.636 130.5517
338.946427 89.596 130.5379
341.402572 89.555 130.6146
343.876516 89.519 130.6960
346.368387 89.489 130.7454
348.878315 89.466 130.8154
351.406431 89.447 130.9748
353.952867 89.429 131.2343
356.517756 89.407 131.5228
359.101230 89.384 131.7578
361.703426 89.361 131.9194
364.324478 89.341 132.0533
366.964523 89.324 132.2238
369.623699 89.314 132.4362
372.302145 89.317 132.6359
375.000000 89.328 132.7966
377.717405 89.336 132.9541
380.454501 89.334 133.1368
383.211431 89.320 133.3417
385.988339 89.299 133.5499
388.785369 89.278 133.7459
391.602668 89.260 133.9050
394.440383 89.247 134.0327
397.298660 89.234 134.1649
400.177650 89.218 134.3202
403.077502 89.195 134.5027
405.998368 89.170 134.7044
408.940400 89.145 134.9083
411.903750 89.121 135.1132
414.888575 89.097 135.3231
417.895028 89.075 135.5309
420.923268 89.056 135.7265
423.973452 89.041 135.9043
427.045738 89.026 136.0743
430.140287 89.006 136.2747
433.257261 88.981 136.5256
436.396822 88.954 136.7912
439.559133 88.926 137.0331
442.744360 88.900 137.2588
445.952668 88.878 137.4931
449.184225 88.858 137.7539
452.439199 88.838 138.0480
455.717760 88.818 138.3714
459.020079 88.797 138.7170
462.346327 88.776 139.0638
465.696680 88.756 139.3906
469.071310 88.738 139.6918
472.470394 88.722 139.9760
475.894109 88.705 140.2632
479.342634 88.688 140.5694
482.816148 88.668 140.8881
486.314833 88.649 141.2020
489.838871 88.629 141.5156
493.388445 88.611 141.8425
496.963741 88.595 142.1813
500.564945 88.580 142.5200
504.192245 88.566 142.8578
507.845830 88.554 143.2064
511.525890 88.543 143.5728
515.232618 88.532 143.9510
518.966206 88.521 144.3406
522.726849 88.511 144.7425
526.514743 88.500 145.1432
530.330086 88.488 145.5345
534.173076 88.478 145.9274
538.043915 88.468 146.3261
541.942803 88.459 146.7229
545.869944 88.450 147.1205
549.825542 88.442 147.5297
553.809805 88.435 147.9510
557.822939 88.428 148.3795
561.865154 88.422 148.8127
565.936660 88.416 149.2450
570.037671 88.409 149.6759
574.168399 88.402 150.1093
578.329060 88.396 150.5456
582.519870 88.392 150.9852
586.741049 88.389 151.4329
590.992817 88.388 151.8972
595.275394 88.388 152.3756
599.589005 88.391 152.8527
603.933874 88.394 153.3144
608.310228 88.393 153.7637
612.718295 88.390 154.2244
617.158304 88.388 154.7123
621.630488 88.387 155.2168
626.135079 88.387 155.7180
630.672311 88.388 156.2124
635.242423 88.390 156.7133
639.845651 88.393 157.2286
644.482237 88.397 157.7464
649.152421 88.402 158.2622
653.856447 88.404 158.7853
658.594560 88.406 159.3207
663.367008 88.409 159.8632
668.174039 88.414 160.4121
673.015903 88.421 160.9743
677.892854 88.429 161.5463
682.805145 88.438 162.1176
687.753032 88.448 162.6900
692.736774 88.458 163.2662
697.756631 88.467 163.8494
702.812863 88.475 164.4473
707.905735 88.486 165.0630
713.035511 88.503 165.7014
718.202461 88.526 166.3559
723.406852 88.549 167.0036
728.648956 88.568 167.6201
733.929047 88.587 168.2023
739.247399 88.607 168.7681
744.604290 88.629 169.3329
750.000000 88.653 169.9034
755.434809 88.678 170.4817
760.909001 88.701 171.0682
766.422861 88.723 171.6647
771.976677 88.744 172.2612
777.570739 88.768 172.8399
783.205337 88.794 173.4113
788.880766 88.820 173.9997
794.597321 88.845 174.6002
800.355301 88.868 175.1892
806.155005 88.891 175.7701
811.996736 88.914 176.3538
817.880799 88.937 176.9454
823.807501 88.961 177.5451
829.777150 88.984 178.1463
835.790057 89.005 178.7486
841.846536 89.026 179.3678
847.946903 89.047 -179.9879
854.091476 89.065 -179.3323
860.280575 89.080 -178.6821
866.514523 89.093 -178.0388
872.793644 89.105 -177.3991
879.118267 89.119 -176.7559
885.488720 89.134 -176.0927
891.905336 89.148 -175.4032
898.368450 89.161 -174.6952
904.878398 89.174 -173.9676
911.435520 89.187 -173.2149
918.040157 89.201 -172.4383
924.692655 89.215 -171.6425
931.393359 89.229 -170.8329
938.142619 89.243 -170.0146
944.940787 89.257 -169.1826
951.788218 89.272 -168.3276
958.685268 89.288 -167.4464
965.632296 89.306 -166.5413
972.629666 89.326 -165.6124
979.677741 89.348 -164.6597
986.776890 89.374 -163.6830
993.927482 89.407 -162.6847
1001.129891 89.447 -161.6775
1008.384491 89.495 -160.6953
1015.691660 89.547 -159.7790
1023.051781 89.600 -158.9479
1030.465236 89.652 -158.1964
1037.932411 89.701 -157.5187
1045.453698 89.746 -156.9257
1053.029486 89.790 -156.4332
1060.660172 89.833 -156.0397
1068.346153 89.882 -155.7287
1076.087829 89.938 -155.4723
1083.885605 90.000 -155.2336
1091.739887 90.067 -154.9931
1099.651084 90.134 -154.7592
1107.619609 90.203 -154.5538
1115.645878 90.273 -154.3770
1123.730308 90.343 -154.2108
1131.873321 90.412 -154.0461
1140.075341 90.480 -153.8965
1148.336797 90.549 -153.7779
1156.658119 90.616 -153.6881
1165.039741 90.681 -153.6120
1173.482099 90.743 -153.5402
1181.985634 90.804 -153.4692
1190.550789 90.863 -153.4004
1199.178011 90.922 -153.3505
1207.867749 90.981 -153.3284
1216.620457 91.039 -153.3241
1225.436590 91.095 -153.3274
1234.316609 91.149 -153.3351
1243.260976 91.200 -153.3543
1252.270157 91.250 -153.3920
1261.344623 91.302 -153.4352
1270.484846 91.354 -153.4618
1279.691303 91.403 -153.4640
1288.964474 91.448 -153.4530
1298.304842 91.490 -153.4388
1307.712894 91.533 -153.4202
1317.189120 91.576 -153.3999
1326.734016 91.619 -153.3849
1336.348077 91.661 -153.3761
1346.031806 91.702 -153.3642
1355.785708 91.743 -153.3382
1365.610290 91.783 -153.3005
1375.506065 91.822 -153.2624
1385.473549 91.862 -153.2367
1395.513261 91.902 -153.2339
1405.625726 91.945 -153.2434
1415.811469 91.987 -153.2390
1426.071023 92.029 -153.2092
1436.404921 92.069 -153.1610
1446.813703 92.111 -153.1123
1457.297912 92.153 -153.0733
1467.858093 92.194 -153.0361
1478.494798 92.235 -152.9881
1489.208581 92.278 -152.9322
1500.000000 92.323 -152.8820
1510.869618 92.367 -152.8451
1521.818002 92.413 -152.8137
1532.845723 92.460 -152.7748
1543.953355 92.507 -152.7142
1555.141477 92.555 -152.6340
1566.410674 92.603 -152.5575
1577.761531 92.651 -152.5077
1589.194642 92.702 -152.4889
1600.710601 92.755 -152.4835
1612.310010 92.807 -152.4668
1623.993473 92.859 -152.4349
1635.761599 92.911 -152.3946
1647.615002 92.966 -152.3526
1659.554299 93.022 -152.3225
1671.580114 93.076 -152.3126
1683.693072 93.130 -152.3127
1695.893807 93.185 -152.3155
1708.182952 93.242 -152.3245
1720.561150 93.298 -152.3368
1733.029045 93.354 -152.3476
1745.587288 93.411 -152.3593
1758.236533 93.468 -152.3768
1770.977440 93.526 -152.4088
1783.810673 93.587 -152.4559
1796.736900 93.649 -152.5055
1809.756796 93.712 -152.5516
1822.871040 93.776 -152.5934
1836.080315 93.840 -152.6291
1849.385310 93.904 -152.6722
1862.786718 93.969 -152.7367
1876.285239 94.034 -152.8216
1889.881575 94.099 -152.9187
1903.576436 94.162 -153.0184
1917.370535 94.224 -153.1135
1931.264593 94.286 -153.2077
1945.259332 94.348 -153.3144
1959.355483 94.411 -153.4408
1973.553781 94.475 -153.5741
1987.854965 94.540 -153.6991
2002.259781 94.606 -153.8189
2016.768981 94.672 -153.9496
2031.383320 94.738 -154.0967
2046.103561 94.803 -154.2570
2060.930471 94.869 -154.4249
2075.864823 94.934 -154.5932
2090.907395 94.999 -154.7630
2106.058972 95.065 -154.9408
2121.320344 95.131 -155.1342
2136.692305 95.198 -155.3391
2152.175658 95.265 -155.5459
2167.771210 95.332 -155.7503
2183.479774 95.400 -155.9563
2199.302169 95.469 -156.1685
2215.239219 95.538 -156.3968
2231.291755 95.606 -156.6426
2247.460615 95.673 -156.8944
2263.746641 95.742 -157.1379
2280.150683 95.812 -157.3768
2296.673595 95.882 -157.6267
2313.316238 95.951 -157.9019
2330.079481 96.020 -158.2056
2346.964198 96.089 -158.5271
2363.971268 96.159 -158.8575
2381.101578 96.230 -159.1805
2398.356022 96.303 -159.4807
2415.735498 96.376 -159.7838
2433.240913 96.447 -160.1176
2450.873180 96.516 -160.4794
2468.633217 96.586 -160.8590
2486.521951 96.657 -161.2570
2504.540314 96.729 -161.6690
2522.689246 96.801 -162.0824
2540.969692 96.873 -162.4995
2559.382606 96.942 -162.9365
2577.928947 97.010 -163.3909
2596.609683 97.080 -163.8525
2615.425787 97.153 -164.3125
2634.378241 97.227 -164.7792
2653.468031 97.300 -165.2631
2672.696154 97.371 -165.7704
2692.063613 97.441 -166.3104
2711.571415 97.510 -166.8784
2731.220579 97.578 -167.4661
2751.012130 97.643 -168.0685
2770.947098 97.705 -168.6807
2791.026522 97.766 -169.3001
2811.251451 97.830 -169.9283
2831.622938 97.894 -170.5742
2852.142045 97.958 -171.2554
2872.809842 98.017 -171.9836
2893.627406 98.073 -172.7455
2914.595823 98.131 -173.5136
2935.716186 98.188 -174.2831
2956.989596 98.242 -175.0699
2978.417161 98.291 -175.8768
3000.000000 98.334 -176.7000
3021.739237 98.374 -177.5421
3043.636005 98.412 -178.4134
3065.691446 98.449 -179.3138
3087.906710 98.483 179.7623
3110.282955 98.512 178.8223
3132.821347 98.534 177.8751
3155.523062 98.549 176.9137
3178.389283 98.561 175.9338
3201.421202 98.569 174.9550
3224.620020 98.573 173.9960
3247.986946 98.571 173.0378
3271.523198 98.563 172.0527
3295.230004 98.551 171.0484
3319.108599 98.537 170.0462
3343.160228 98.518 169.0616
3367.386145 98.493 168.1009
3391.787613 98.462 167.1506
3416.365904 98.426 166.1956
3441.122300 98.384 165.2421
3466.058091 98.335 164.2958
3491.174576 98.281 163.3420
3516.473066 98.223 162.3808
3541.954880 98.163 161.4389
3567.621345 98.101 160.5300
3593.473800 98.033 159.6522
3619.513592 97.959 158.8065
3645.742080 97.881 157.9875
3672.160630 97.799 157.1896
3698.770620 97.716 156.4084
3725.573436 97.629 155.6312
3752.570477 97.538 154.8648
3779.763150 97.442 154.1278
3807.152872 97.343 153.4226
3834.741071 97.243 152.7342
3862.529185 97.138 152.0614
3890.518664 97.030 151.4184
3918.710966 96.920 150.8183
3947.107561 96.810 150.2604
3975.709929 96.698 149.7324
4004.519563 96.583 149.2202
4033.537962 96.466 148.7244
4062.766641 96.345 148.2590
4092.207123 96.222 147.8388
4121.860942 96.099 147.4749
4151.729646 95.974 147.1640
4181.814790 95.849 146.8869
4212.117944 95.724 146.6433
4242.640687 95.600 146.4399
4273.384610 95.477 146.2729
4304.351317 95.354 146.1573
4335.542421 95.233 146.1161
4366.959549 95.115 146.1470
4398.604338 94.998 146.2279
4430.478438 94.885 146.3409
4462.583511 94.782 146.4962
4494.921231 94.692 146.7057
4527.493283 94.613 146.9651
4560.301365 94.545 147.2623
4593.347189 94.489 147.5760
4626.632476 94.448 147.8660
4660.158962 94.423 148.1169
4693.928395 94.416 148.3418
4727.942535 94.423 148.5228
4762.203156 94.440 148.6103
4796.712043 94.464 148.5771
4831.470996 94.493 148.4308
4866.481826 94.521 148.1871
4901.746360 94.544 147.8463
4937.266434 94.557 147.4119
4973.043902 94.559 146.9017
5009.080628 94.551 146.3393
5045.378492 94.534 145.7390
5081.939384 94.506 145.0988
5118.765212 94.464 144.4271
5155.857894 94.407 143.7510
5193.219366 94.337 143.0939
5230.851574 94.252 142.4582
5268.756481 94.151 141.8694
5306.936062 94.032 141.4449
5345.392309 93.893 141.4496
5384.127225 93.748 142.2196
5423.142830 93.620 143.9539
5462.441159 93.510 146.6310
5502.024259 93.401 150.0419
5541.894195 93.282 153.9059
5582.053045 93.156 158.0275
5622.502902 93.028 162.3314
5663.245876 92.902 166.7867
5704.284090 92.783 171.3678
5745.619684 92.670 176.0474
5787.254813 92.559 -179.1967
5829.191647 92.446 -174.3528
5871.432373 92.335 -169.3997
5913.979192 92.226 -164.3210
5956.834323 92.115 -159.1163
6000.000000 92.006 -153.7938
6043.478473 91.904 -148.3541
6087.272010 91.813 -142.7841
6131.382892 91.735 -137.0891
6175.813420 91.668 -131.2909
6220.565910 91.609 -125.3918
6265.642695 91.555 -119.3888
6311.046124 91.510 -113.2992
6356.778566 91.479 -107.1376
6402.842404 91.461 -100.8897
6449.240040 91.453 -94.5286
6495.973891 91.453 -88.0707
6543.046396 91.465 -81.5636
6590.460007 91.487 -75.0312
6638.217197 91.519 -68.4597
6686.320456 91.562 -61.8219
6734.772290 91.618 -55.1054
6783.575226 91.686 -48.3247
6832.731809 91.766 -41.5061
6882.244600 91.852 -34.6552
6932.116181 91.945 -27.7644
6982.349153 92.046 -20.8337
7032.946133 92.159 -13.8759
7083.909760 92.281 -6.9158
7135.242690 92.408 0.0365
7186.947600 92.539 6.9898
7239.027185 92.675 13.9689
7291.484160 92.815 20.9861
7344.321260 92.958 28.0208
7397.541239 93.102 35.0391
7451.146872 93.245 42.0299
7505.140954 93.386 49.0274
7559.526299 93.526 56.0612
7614.305743 93.663 63.1458
7669.482141 93.796 70.2901
7725.058371 93.924 77.5139
7781.037328 94.047 84.8404
7837.421932 94.171 92.2735
7894.215122 94.300 99.7934
7951.419859 94.433 107.3987
8009.039125 94.572 115.1176
8067.075924 94.721 122.9821
8125.533282 94.884 131.0105
8184.414245 95.068 139.1956
8243.721885 95.279 147.5013
8303.459292 95.523 155.8809
8363.629581 95.805 164.2763
8424.235888 96.130 172.6342
8485.281374 96.506 -179.1114
8546.769221 96.939 -171.0690
8608.702634 97.430 -163.3995
8671.084842 97.971 -156.3000
8733.919097 98.544 -149.9811
8797.208675 99.119 -144.6652
8860.956876 99.652 -140.5190
8925.167022 100.086 -137.5776
8989.842461 100.358 -135.7183
9054.986566 100.418 -134.6274
9120.602731 100.230 -133.8115
9186.694378 99.784 -132.6889
9253.264952 99.102 -130.7171
9320.317925 98.230 -127.4700
9387.856790 97.222 -122.7060
9455.885071 96.136 -116.3726
9524.406312 95.022 -108.5547
9593.424086 93.920 -99.4392
9662.941992 92.857 -89.2451
9732.963653 91.849 -78.1632
9803.492719 90.900 -66.3679
9874.532869 90.007 -54.0055
9946.087805 89.168 -41.1782
10018.161257 88.383 -27.9440
10090.756983 87.648 -14.3352
10163.878768 86.959 -0.3807
10237.530423 86.315 13.8732
10311.715789 85.712 28.3845
10386.438732 85.144 43.1240
10461.703149 84.604 58.0880
10537.512962 84.096 73.2852
10613.872125 83.619 88.7086
10690.784618 83.172 104.3350
10768.254450 82.750 120.1537
10846.285661 82.355 136.1868
10924.882318 81.989 152.4466
11004.048518 81.653 168.9143
11083.788390 81.344 -174.4575
11164.106090 81.058 -157.6981
11245.005805 80.789 -140.8062
11326.491752 80.538 -123.7802
11408.568180 80.305 -106.6229
11491.239368 80.087 -89.3252
11574.509626 79.880 -71.8550
11658.383294 79.686 -54.1735
11742.864745 79.509 -36.2636
11827.958384 79.349 -18.1202
11913.668646 79.207 0.2690
12000.000000 79.085 18.9048
12086.956947 78.983 37.7556
12174.544019 78.903 56.7985
12262.765784 78.846 76.0522
12351.626840 78.814 95.5018
12441.131819 78.803 115.0898
12531.285389 78.813 134.7958
12622.092249 78.845 154.6362
12713.557132 78.900 174.6345
12805.684808 78.977 -165.1874
12898.480079 79.075 -144.8232
12991.947783 79.194 -124.2832
13086.092792 79.332 -103.5500
13180.920015 79.492 -82.5903
13276.434395 79.677 -61.4012
13372.640911 79.890 -40.0258
13469.544580 80.135 -18.5078
13567.150452 80.416 3.1350
13665.463617 80.732 24.8433
13764.489200 81.084 46.5835
13864.232362 81.471 68.3691
13964.698305 81.890 90.2041
14065.892266 82.344 112.0935
14167.819519 82.835 134.0066
14270.485380 83.363 155.8489
14373.895200 83.926 177.5188
14478.054370 84.518 -161.0806
14582.968320 85.130 -140.0759
14688.642520 85.749 -119.5889
14795.082478 86.355 -99.6915
14902.293745 86.926 -80.4248
15010.281908 87.437 -61.7559
15119.052599 87.866 -43.5497
15228.611486 88.197 -25.5872
15338.964283 88.427 -7.5778
15450.116741 88.561 10.7632
15562.074656 88.612 29.5719
15674.843864 88.603 48.5522
15788.430244 88.553 66.6318
15902.839718 88.465 82.5713
16018.078250 88.356 96.2726
16134.151848 88.271 108.6298
16251.066563 88.252 120.4855
16368.828491 88.310 132.1677
16487.443769 88.423 143.5225
16606.918584 88.518 154.0645
16727.259161 88.436 163.2360
16848.471777 87.898 170.7180
16970.562748 86.551 176.5588
17093.538442 84.182 -179.1456
17217.405268 80.873 -176.1414
17342.169684 76.827 -174.0360
17467.838194 72.229 -172.5092
17594.417350 67.220 -171.2596
17721.913751 61.902 -170.0797
17850.334044 56.353 -171.0413
17979.684923 50.664 175.2417
18109.973131 45.022 16.9684
18241.205462 39.953 -27.5439
18373.388756 36.454 -25.3423
18506.529905 34.903 -2.4210
18640.635849 34.453 60.6464
18775.713581 34.442 97.6013
18911.770141 34.570 107.1534
19048.812624 34.653 125.9381
19186.848172 34.673 -171.6893
19325.883983 34.674 -114.3020
19465.927305 34.716 98.6538
19606.985439 34.882 100.3951
19749.065738 35.170 117.0756
19892.175609 35.484 150.2363
20036.322514 35.675 168.3362
