* Measurement data measured by REW V5.31.3
* Source: Headset (CX31993 HIFI AUDIO), MICROPHONE (Master Volume), R, volume: 0.400
* Format: 256k Log Swept Sine, 1 sweep at -11.9 dBFS with no timing reference
* Dated: 07 7, 25 1:17:06 PM
* REW Settings:
*  C-weighting compensation: Off
*  Target level: 75.0 dB
* Note: ; 
* Measurement: Senheiser IE 200 BT20 g R
* Smoothing: 1/12 octave
* Frequency Step: 96 ppo
* Start Frequency: 0.36621094 Hz
*
* Freq(Hz) SPL(dB) Phase(degrees)
0.366211 30.453 -26.3653
0.368865 30.460 -26.2276
0.371538 30.472 -26.0229
0.374230 30.485 -25.7691
0.376942 30.501 -25.4815
0.379673 30.517 -25.1713
0.382424 30.535 -24.8458
0.385196 30.553 -24.5095
0.387987 30.571 -24.1647
0.390798 30.589 -23.8126
0.393630 30.607 -23.4534
0.396483 30.626 -23.0872
0.399356 30.645 -22.7136
0.402250 30.664 -22.3320
0.405165 30.683 -21.9419
0.408101 30.702 -21.5427
0.411058 30.721 -21.1335
0.414037 30.741 -20.7137
0.417037 30.760 -20.2824
0.420059 30.780 -19.8387
0.423103 30.800 -19.3817
0.426169 30.820 -18.9103
0.429257 30.840 -18.4236
0.432368 30.861 -17.9203
0.435501 30.881 -17.3994
0.438656 30.902 -16.8595
0.441835 30.923 -16.2993
0.445037 30.944 -15.7173
0.448262 30.965 -15.1121
0.451510 30.986 -14.4819
0.454782 31.007 -13.8252
0.458077 31.029 -13.1401
0.461397 31.051 -12.4247
0.464740 31.072 -11.6770
0.468108 31.094 -10.8949
0.471500 31.117 -10.0762
0.474917 31.139 -9.2185
0.478358 31.161 -8.3195
0.481825 31.184 -7.3767
0.485316 31.207 -6.3874
0.488833 31.230 -5.3492
0.492375 31.253 -4.2592
0.495943 31.276 -3.1150
0.499537 31.300 -1.9137
0.503157 31.324 -0.6530
0.506803 31.348 0.6697
0.510475 31.372 2.0566
0.514175 31.396 3.5095
0.517900 31.420 5.0301
0.521653 31.445 6.6195
0.525434 31.469 8.2783
0.529241 31.494 10.0063
0.533076 31.519 11.8027
0.536939 31.545 13.6657
0.540830 31.570 15.5924
0.544749 31.596 17.5790
0.548696 31.622 19.6205
0.552673 31.648 21.7107
0.556677 31.674 23.8423
0.560711 31.700 26.0069
0.564774 31.727 28.1953
0.568867 31.753 30.3975
0.572989 31.780 32.6029
0.577141 31.808 34.8006
0.581324 31.835 36.9798
0.585536 31.863 39.1298
0.589779 31.890 41.2405
0.594053 31.918 43.3025
0.598358 31.946 45.3072
0.602694 31.975 47.2473
0.607061 32.003 49.1163
0.611460 32.032 50.9092
0.615891 32.061 52.6218
0.620354 32.090 54.2513
0.624849 32.120 55.7957
0.629377 32.149 57.2540
0.633938 32.179 58.6262
0.638532 32.209 59.9127
0.643159 32.239 61.1147
0.647819 32.270 62.2338
0.652514 32.301 63.2721
0.657242 32.332 64.2318
0.662005 32.363 65.1155
0.666802 32.394 65.9259
0.671634 32.426 66.6658
0.676501 32.458 67.3380
0.681403 32.490 67.9454
0.686341 32.522 68.4909
0.691314 32.556 68.9774
0.696324 32.589 69.4078
0.701370 32.624 69.7852
0.706452 32.661 70.1128
0.711571 32.701 70.3941
0.716728 32.746 70.6332
0.721921 32.799 70.8353
0.727153 32.862 71.0063
0.732422 32.940 71.1533
0.737729 33.035 71.2836
0.743075 33.145 71.4038
0.748460 33.270 71.5188
0.753883 33.406 71.6315
0.759346 33.551 71.7433
0.764849 33.706 71.8547
0.770391 33.868 71.9653
0.775974 34.038 72.0744
0.781597 34.214 72.1814
0.787261 34.397 72.2852
0.792966 34.586 72.3850
0.798712 34.782 72.4800
0.804500 34.984 72.5695
0.810329 35.192 72.6527
0.816201 35.407 72.7290
0.822116 35.627 72.7978
0.828073 35.853 72.8584
0.834074 36.085 72.9104
0.840118 36.322 72.9533
0.846206 36.565 72.9867
0.852338 36.812 73.0102
0.858514 37.065 73.0234
0.864735 37.323 73.0259
0.871001 37.585 73.0175
0.877313 37.852 72.9978
0.883670 38.123 72.9666
0.890074 38.398 72.9235
0.896524 38.677 72.8685
0.903020 38.959 72.8012
0.909564 39.245 72.7215
0.916155 39.533 72.6292
0.922794 39.825 72.5240
0.929481 40.119 72.4058
0.936216 40.414 72.2745
0.943000 40.712 72.1299
0.949834 41.011 71.9719
0.956717 41.311 71.8003
0.963649 41.612 71.6150
0.970632 41.914 71.4158
0.977666 42.215 71.2028
0.984750 42.516 70.9757
0.991886 42.815 70.7345
0.999074 43.114 70.4790
1.006314 43.411 70.2093
1.013606 43.705 69.9251
1.020951 43.997 69.6265
1.028349 44.285 69.3133
1.035801 44.569 68.9857
1.043307 44.850 68.6435
1.050867 45.125 68.2870
1.058482 45.395 67.9162
1.066152 45.659 67.5317
1.073878 45.918 67.1343
1.081660 46.170 66.7251
1.089498 46.416 66.3059
1.097393 46.657 65.8793
1.105345 46.893 65.4481
1.113355 47.124 65.0154
1.121423 47.351 64.5834
1.129549 47.575 64.1538
1.137734 47.795 63.7276
1.145979 48.013 63.3053
1.154283 48.228 62.8868
1.162647 48.440 62.4720
1.171072 48.650 62.0608
1.179558 48.857 61.6526
1.188106 49.062 61.2472
1.196715 49.264 60.8441
1.205387 49.464 60.4429
1.214122 49.662 60.0431
1.222920 49.858 59.6444
1.231782 50.052 59.2463
1.240708 50.244 58.8484
1.249699 50.434 58.4503
1.258754 50.622 58.0515
1.267876 50.809 57.6516
1.277063 50.994 57.2503
1.286318 51.178 56.8470
1.295639 51.361 56.4415
1.305027 51.543 56.0332
1.314484 51.723 55.6219
1.324009 51.903 55.2070
1.333604 52.083 54.7882
1.343268 52.262 54.3651
1.353002 52.441 53.9373
1.362806 52.619 53.5045
1.372681 52.798 53.0661
1.382628 52.978 52.6220
1.392647 53.157 52.1717
1.402739 53.338 51.7150
1.412904 53.519 51.2517
1.423142 53.702 50.7816
1.433455 53.886 50.3051
1.443843 54.070 49.8225
1.454305 54.256 49.3349
1.464844 54.442 48.8435
1.475459 54.628 48.3500
1.486150 54.814 47.8561
1.496920 55.000 47.3631
1.507767 55.184 46.8717
1.518693 55.368 46.3824
1.529698 55.550 45.8951
1.540783 55.732 45.4098
1.551948 55.912 44.9261
1.563194 56.091 44.4436
1.574521 56.269 43.9619
1.585931 56.446 43.4806
1.597423 56.623 42.9990
1.608999 56.798 42.5168
1.620658 56.972 42.0334
1.632402 57.146 41.5484
1.644232 57.319 41.0612
1.656146 57.491 40.5714
1.668147 57.662 40.0783
1.680235 57.833 39.5816
1.692411 58.004 39.0807
1.704675 58.174 38.5752
1.717028 58.343 38.0644
1.729470 58.513 37.5480
1.742003 58.682 37.0254
1.754626 58.852 36.4962
1.767341 59.021 35.9600
1.780147 59.191 35.4166
1.793047 59.360 34.8658
1.806040 59.529 34.3077
1.819128 59.699 33.7426
1.832310 59.868 33.1713
1.845587 60.037 32.5949
1.858961 60.205 32.0144
1.872432 60.373 31.4308
1.886001 60.540 30.8450
1.899667 60.706 30.2574
1.913433 60.871 29.6686
1.927299 61.035 29.0788
1.941265 61.198 28.4882
1.955332 61.360 27.8968
1.969501 61.522 27.3046
1.983773 61.682 26.7117
1.998148 61.843 26.1179
2.012627 62.002 25.5230
2.027212 62.161 24.9270
2.041902 62.319 24.3296
2.056698 62.476 23.7306
2.071602 62.633 23.1297
2.086614 62.790 22.5266
2.101734 62.946 21.9209
2.116964 63.102 21.3123
2.132304 63.258 20.7004
2.147756 63.413 20.0849
2.163320 63.568 19.4654
2.178996 63.723 18.8418
2.194786 63.877 18.2137
2.210690 64.030 17.5815
2.226710 64.183 16.9451
2.242845 64.336 16.3051
2.259098 64.487 15.6619
2.275468 64.637 15.0159
2.291957 64.787 14.3676
2.308566 64.936 13.7173
2.325295 65.083 13.0655
2.342145 65.230 12.4125
2.359117 65.376 11.7584
2.376212 65.521 11.1035
2.393431 65.666 10.4480
2.410775 65.810 9.7918
2.428244 65.953 9.1351
2.445840 66.095 8.4778
2.463564 66.237 7.8197
2.481416 66.379 7.1608
2.499397 66.520 6.5007
2.517509 66.660 5.8391
2.535752 66.800 5.1756
2.554127 66.939 4.5095
2.572635 67.078 3.8403
2.591277 67.216 3.1677
2.610055 67.352 2.4913
2.628968 67.488 1.8114
2.648019 67.623 1.1281
2.667208 67.757 0.4421
2.686535 67.890 -0.2462
2.706003 68.022 -0.9362
2.725612 68.153 -1.6273
2.745363 68.283 -2.3190
2.765257 68.413 -3.0109
2.785295 68.541 -3.7024
2.805478 68.669 -4.3933
2.825808 68.796 -5.0833
2.846285 68.923 -5.7723
2.866910 69.049 -6.4604
2.887685 69.174 -7.1479
2.908611 69.298 -7.8352
2.929688 69.422 -8.5231
2.950917 69.544 -9.2125
2.972301 69.666 -9.9040
2.993839 69.787 -10.5980
3.015534 69.907 -11.2944
3.037386 70.026 -11.9929
3.059396 70.143 -12.6930
3.081565 70.260 -13.3940
3.103896 70.376 -14.0953
3.126388 70.491 -14.7960
3.149043 70.605 -15.4956
3.171862 70.718 -16.1934
3.194847 70.830 -16.8890
3.217998 70.942 -17.5821
3.241317 71.053 -18.2726
3.264805 71.164 -18.9607
3.288463 71.273 -19.6470
3.312293 71.382 -20.3322
3.336295 71.490 -21.0173
3.360471 71.597 -21.7028
3.384822 71.703 -22.3888
3.409350 71.808 -23.0754
3.434056 71.912 -23.7620
3.458940 72.015 -24.4482
3.484005 72.117 -25.1332
3.509252 72.219 -25.8164
3.534681 72.320 -26.4971
3.560295 72.420 -27.1748
3.586094 72.519 -27.8490
3.612081 72.618 -28.5195
3.638255 72.717 -29.1865
3.664620 72.814 -29.8503
3.691175 72.912 -30.5116
3.717923 73.008 -31.1709
3.744864 73.103 -31.8287
3.772001 73.198 -32.4852
3.799335 73.292 -33.1404
3.826866 73.386 -33.7939
3.854597 73.478 -34.4454
3.882529 73.570 -35.0945
3.910664 73.662 -35.7407
3.939002 73.753 -36.3838
3.967546 73.844 -37.0234
3.996296 73.935 -37.6595
4.025255 74.025 -38.2921
4.054423 74.115 -38.9216
4.083804 74.205 -39.5482
4.113396 74.294 -40.1725
4.143204 74.383 -40.7947
4.173227 74.471 -41.4148
4.203468 74.559 -42.0331
4.233928 74.646 -42.6495
4.264609 74.733 -43.2640
4.295512 74.820 -43.8766
4.326639 74.907 -44.4872
4.357992 74.994 -45.0958
4.389572 75.081 -45.7026
4.421380 75.167 -46.3075
4.453419 75.254 -46.9108
4.485691 75.340 -47.5127
4.518196 75.426 -48.1134
4.550936 75.512 -48.7132
4.583914 75.597 -49.3124
4.617131 75.683 -49.9113
4.650589 75.768 -50.5100
4.684289 75.854 -51.1089
4.718233 75.939 -51.7081
4.752424 76.024 -52.3078
4.786862 76.109 -52.9082
4.821549 76.193 -53.5092
4.856488 76.278 -54.1111
4.891680 76.362 -54.7140
4.927127 76.447 -55.3178
4.962831 76.530 -55.9229
4.998794 76.614 -56.5293
5.035017 76.697 -57.1374
5.071503 76.780 -57.7474
5.108253 76.863 -58.3595
5.145270 76.945 -58.9741
5.182555 77.026 -59.5912
5.220110 77.107 -60.2109
5.257937 77.188 -60.8330
5.296038 77.268 -61.4574
5.334415 77.348 -62.0837
5.373071 77.426 -62.7118
5.412006 77.504 -63.3415
5.451224 77.582 -63.9731
5.490725 77.658 -64.6065
5.530514 77.733 -65.2422
5.570590 77.808 -65.8801
5.610957 77.881 -66.5202
5.651616 77.954 -67.1619
5.692570 78.026 -67.8046
5.733821 78.096 -68.4476
5.775370 78.166 -69.0904
5.817221 78.234 -69.7326
5.859375 78.301 -70.3741
5.901834 78.367 -71.0152
5.944602 78.432 -71.6558
5.987679 78.495 -72.2958
6.031068 78.557 -72.9345
6.074771 78.618 -73.5710
6.118792 78.678 -74.2045
6.163131 78.737 -74.8342
6.207792 78.794 -75.4596
6.252776 78.851 -76.0806
6.298086 78.906 -76.6972
6.343725 78.960 -77.3093
6.389694 79.013 -77.9166
6.435996 79.065 -78.5186
6.482634 79.116 -79.1144
6.529610 79.167 -79.7035
6.576926 79.216 -80.2853
6.624585 79.265 -80.8597
6.672590 79.314 -81.4266
6.720942 79.361 -81.9862
6.769645 79.409 -82.5385
6.818700 79.456 -83.0835
6.868111 79.502 -83.6211
6.917881 79.549 -84.1511
6.968010 79.596 -84.6735
7.018504 79.643 -85.1883
7.069362 79.690 -85.6959
7.120590 79.737 -86.1967
7.172189 79.784 -86.6915
7.224161 79.832 -87.1808
7.276511 79.881 -87.6651
7.329239 79.930 -88.1450
7.382350 79.980 -88.6207
7.435845 80.031 -89.0928
7.489729 80.082 -89.5621
7.544002 80.134 -90.0294
7.598669 80.187 -90.4958
7.653732 80.240 -90.9622
7.709194 80.294 -91.4293
7.765058 80.349 -91.8976
7.821327 80.405 -92.3675
7.878004 80.461 -92.8399
7.935091 80.518 -93.3154
7.992592 80.575 -93.7948
8.050510 80.633 -94.2787
8.108847 80.691 -94.7676
8.167607 80.749 -95.2618
8.226793 80.807 -95.7614
8.286408 80.865 -96.2665
8.346454 80.923 -96.7773
8.406936 80.980 -97.2941
8.467856 81.037 -97.8168
8.529218 81.094 -98.3453
8.591024 81.150 -98.8795
8.653278 81.205 -99.4190
8.715983 81.260 -99.9632
8.779143 81.314 -100.5119
8.842760 81.366 -101.0649
8.906839 81.418 -101.6217
8.971381 81.469 -102.1818
9.036392 81.518 -102.7446
9.101873 81.567 -103.3095
9.167829 81.614 -103.8760
9.234263 81.660 -104.4436
9.301178 81.705 -105.0119
9.368578 81.749 -105.5805
9.436467 81.792 -106.1487
9.504847 81.834 -106.7161
9.573723 81.874 -107.2823
9.643099 81.914 -107.8470
9.712976 81.952 -108.4099
9.783361 81.990 -108.9707
9.854255 82.026 -109.5291
9.925663 82.062 -110.0848
9.997588 82.097 -110.6377
10.070035 82.131 -111.1876
10.143007 82.164 -111.7343
10.216507 82.196 -112.2777
10.290540 82.228 -112.8177
10.365109 82.259 -113.3541
10.440219 82.289 -113.8869
10.515873 82.319 -114.4159
10.592076 82.348 -114.9410
10.668830 82.377 -115.4622
10.746141 82.405 -115.9794
10.824012 82.432 -116.4924
10.902447 82.460 -117.0013
10.981451 82.486 -117.5060
11.061027 82.513 -118.0065
11.141180 82.539 -118.5028
11.221913 82.565 -118.9949
11.303232 82.590 -119.4831
11.385140 82.616 -119.9674
11.467641 82.641 -120.4479
11.550741 82.666 -120.9250
11.634442 82.691 -121.3990
11.718750 82.717 -121.8701
11.803669 82.742 -122.3387
11.889203 82.767 -122.8050
11.975357 82.792 -123.2695
12.062136 82.818 -123.7325
12.149543 82.843 -124.1943
12.237583 82.868 -124.6551
12.326262 82.893 -125.1151
12.415583 82.918 -125.5743
12.505552 82.943 -126.0329
12.596172 82.967 -126.4907
12.687449 82.991 -126.9477
12.779387 83.015 -127.4035
12.871992 83.038 -127.8580
12.965268 83.061 -128.3108
13.059220 83.083 -128.7616
13.153852 83.106 -129.2102
13.249170 83.128 -129.6561
13.345179 83.149 -130.0994
13.441884 83.171 -130.5398
13.539289 83.192 -130.9775
13.637401 83.213 -131.4126
13.736223 83.234 -131.8454
13.835761 83.256 -132.2764
13.936021 83.277 -132.7063
14.037007 83.298 -133.1355
14.138725 83.320 -133.5647
14.241180 83.341 -133.9948
14.344377 83.363 -134.4262
14.448323 83.384 -134.8593
14.553021 83.405 -135.2944
14.658478 83.425 -135.7313
14.764700 83.444 -136.1698
14.871691 83.463 -136.6092
14.979457 83.480 -137.0484
15.088005 83.496 -137.4860
15.197339 83.511 -137.9207
15.307465 83.525 -138.3506
15.418389 83.537 -138.7740
15.530117 83.549 -139.1892
15.642655 83.560 -139.5948
15.756008 83.570 -139.9897
15.870182 83.581 -140.3733
15.985184 83.591 -140.7457
16.101019 83.603 -141.1078
16.217694 83.616 -141.4609
16.335214 83.631 -141.8074
16.453586 83.648 -142.1502
16.572815 83.667 -142.4928
16.692909 83.688 -142.8390
16.813872 83.711 -143.1926
16.935713 83.736 -143.5574
17.058436 83.763 -143.9365
17.182048 83.790 -144.3325
17.306556 83.817 -144.7471
17.431967 83.844 -145.1808
17.558286 83.870 -145.6333
17.685521 83.894 -146.1029
17.813677 83.915 -146.5871
17.942762 83.934 -147.0827
18.072783 83.949 -147.5858
18.203746 83.962 -148.0921
18.335658 83.971 -148.5976
18.468526 83.976 -149.0984
18.602356 83.980 -149.5910
18.737156 83.981 -150.0730
18.872934 83.980 -150.5424
19.009695 83.979 -150.9987
19.147447 83.977 -151.4419
19.286197 83.975 -151.8729
19.425953 83.973 -152.2933
19.566721 83.972 -152.7051
19.708510 83.972 -153.1102
19.851326 83.972 -153.5109
19.995177 83.974 -153.9089
20.140070 83.976 -154.3058
20.286013 83.979 -154.7028
20.433014 83.982 -155.1007
20.581080 83.986 -155.5002
20.730219 83.991 -155.9019
20.880439 83.995 -156.3064
21.031747 84.000 -156.7144
21.184152 84.005 -157.1268
21.337661 84.010 -157.5442
21.492282 84.015 -157.9673
21.648024 84.020 -158.3963
21.804895 84.023 -158.8307
21.962902 84.025 -159.2694
22.122054 84.026 -159.7100
22.282360 84.024 -160.1497
22.443827 84.021 -160.5845
22.606464 84.016 -161.0103
22.770280 84.009 -161.4233
22.935283 84.001 -161.8201
23.101481 83.992 -162.1987
23.268884 83.984 -162.5589
23.437500 83.978 -162.9025
23.607338 83.974 -163.2334
23.778406 83.973 -163.5573
23.950714 83.975 -163.8809
24.124271 83.980 -164.2112
24.299086 83.987 -164.5546
24.475167 83.995 -164.9155
24.652524 84.003 -165.2961
24.831166 84.009 -165.6956
25.011103 84.013 -166.1105
25.192344 84.014 -166.5348
25.374898 84.011 -166.9610
25.558775 84.003 -167.3811
25.743984 83.993 -167.7876
25.930536 83.979 -168.1749
26.118439 83.965 -168.5399
26.307704 83.951 -168.8824
26.498341 83.937 -169.2052
26.690359 83.926 -169.5137
26.883768 83.917 -169.8147
27.078579 83.910 -170.1151
27.274801 83.906 -170.4213
27.472446 83.903 -170.7378
27.671522 83.900 -171.0668
27.872042 83.896 -171.4079
28.074014 83.891 -171.7591
28.277450 83.885 -172.1167
28.482360 83.877 -172.4768
28.688755 83.867 -172.8358
28.896645 83.856 -173.1910
29.106042 83.844 -173.5410
29.316957 83.831 -173.8856
29.529400 83.818 -174.2254
29.743382 83.806 -174.5614
29.958915 83.793 -174.8947
30.176009 83.780 -175.2260
30.394677 83.768 -175.5557
30.614929 83.755 -175.8838
30.836778 83.742 -176.2105
31.060234 83.730 -176.5362
31.285309 83.718 -176.8616
31.512015 83.705 -177.1876
31.740364 83.693 -177.5151
31.970368 83.681 -177.8447
32.202039 83.669 -178.1762
32.435388 83.655 -178.5087
32.670428 83.641 -178.8408
32.907171 83.626 -179.1709
33.145630 83.610 -179.4975
33.385817 83.594 -179.8198
33.627745 83.577 179.8622
33.871425 83.560 179.5480
34.116871 83.543 179.2371
34.364096 83.525 178.9289
34.613113 83.507 178.6234
34.863934 83.488 178.3210
35.116572 83.470 178.0222
35.371041 83.451 177.7275
35.627354 83.432 177.4363
35.885525 83.413 177.1473
36.145566 83.394 176.8587
36.407492 83.376 176.5685
36.671316 83.358 176.2754
36.937051 83.339 175.9792
37.204712 83.320 175.6808
37.474313 83.300 175.3820
37.745867 83.279 175.0852
38.019389 83.257 174.7922
38.294893 83.235 174.5038
38.572394 83.214 174.2200
38.851905 83.192 173.9393
39.133442 83.171 173.6602
39.417019 83.150 173.3811
39.702651 83.129 173.1014
39.990353 83.107 172.8223
40.280140 83.085 172.5461
40.572026 83.062 172.2761
40.866028 83.038 172.0153
41.162160 83.015 171.7650
41.460438 82.992 171.5239
41.760877 82.971 171.2882
42.063494 82.951 171.0528
42.368303 82.932 170.8130
42.675322 82.912 170.5663
42.984565 82.892 170.3128
43.296048 82.871 170.0550
43.609789 82.848 169.7957
43.925804 82.824 169.5368
44.244108 82.799 169.2789
44.564719 82.773 169.0215
44.887654 82.746 168.7647
45.212928 82.717 168.5101
45.540560 82.687 168.2604
45.870565 82.656 168.0179
46.202962 82.625 167.7833
46.537768 82.594 167.5549
46.875000 82.565 167.3293
47.214676 82.536 167.1030
47.556813 82.509 166.8734
47.901429 82.482 166.6391
48.248542 82.455 166.4003
48.598171 82.428 166.1579
48.950334 82.401 165.9146
49.305048 82.374 165.6741
49.662333 82.346 165.4406
50.022206 82.319 165.2158
50.384688 82.292 164.9980
50.749796 82.267 164.7826
51.117550 82.243 164.5648
51.487969 82.219 164.3435
51.861072 82.194 164.1219
52.236879 82.168 163.9049
52.615409 82.141 163.6949
52.996681 82.113 163.4906
53.380717 82.085 163.2893
53.767536 82.056 163.0904
54.157158 82.026 162.8969
54.549603 81.996 162.7110
54.944892 81.965 162.5304
55.343045 81.936 162.3472
55.744084 81.906 162.1544
56.148028 81.876 161.9528
56.554900 81.843 161.7509
56.964720 81.809 161.5578
57.377510 81.776 161.3727
57.793291 81.745 161.1855
58.212085 81.715 160.9863
58.633914 81.683 160.7776
59.058799 81.650 160.5739
59.486764 81.615 160.3875
59.917829 81.583 160.2150
60.352019 81.554 160.0385
60.789354 81.525 159.8433
61.229859 81.492 159.6359
61.673556 81.455 159.4410
62.120468 81.414 159.2802
62.570618 81.375 159.1512
63.024031 81.338 159.0320
63.480729 81.302 158.9045
63.940736 81.263 158.7744
64.404077 81.220 158.6646
64.870776 81.178 158.5870
65.340856 81.140 158.5251
65.814343 81.106 158.4481
66.291261 81.073 158.3416
66.771635 81.037 158.2223
67.255489 81.000 158.1159
67.742850 80.968 158.0222
68.233743 80.942 157.9069
68.728193 80.920 157.7329
69.226226 80.893 157.5014
69.727867 80.856 157.2595
70.233144 80.812 157.0638
70.742083 80.770 156.9319
71.254709 80.735 156.8283
71.771050 80.707 156.6985
72.291132 80.678 156.5214
72.814984 80.640 156.3281
73.342631 80.595 156.1714
73.874102 80.549 156.0746
74.409424 80.508 156.0097
74.948626 80.473 155.9249
75.491734 80.435 155.7964
76.038779 80.391 155.6528
76.589787 80.340 155.5478
77.144788 80.289 155.5067
77.703811 80.248 155.4974
78.266885 80.217 155.4556
78.834039 80.188 155.3425
79.405303 80.151 155.1835
79.980706 80.105 155.0484
80.560280 80.056 154.9920
81.144053 80.014 155.0061
81.732056 79.983 155.0274
82.324320 79.958 154.9959
82.920876 79.928 154.9095
83.521755 79.889 154.8250
84.126988 79.842 154.8072
84.736607 79.799 154.8719
85.350643 79.767 154.9704
85.969129 79.746 155.0270
86.592097 79.730 154.9933
87.219579 79.709 154.8762
87.851608 79.680 154.7241
88.488217 79.644 154.5916
89.129439 79.607 154.5076
89.775308 79.576 154.4607
90.425856 79.555 154.4085
91.081119 79.542 154.3055
91.741131 79.527 154.1357
92.405925 79.505 153.9274
93.075536 79.472 153.7394
93.750000 79.430 153.6277
94.429351 79.389 153.6124
95.113625 79.357 153.6627
95.802858 79.336 153.7110
96.497085 79.322 153.6893
97.196342 79.306 153.5674
97.900667 79.277 153.3705
98.610096 79.231 153.1661
99.324665 79.172 153.0270
100.044413 79.109 152.9938
100.769376 79.053 153.0545
101.499592 79.013 153.1515
102.235100 78.988 153.2106
102.975938 78.972 153.1771
103.722144 78.955 153.0394
104.473757 78.929 152.8310
105.230817 78.887 152.6132
105.993363 78.831 152.4489
106.761435 78.768 152.3816
107.535072 78.704 152.4227
108.314315 78.649 152.5499
109.099206 78.606 152.7171
109.889783 78.575 152.8710
110.686090 78.555 152.9694
111.488167 78.539 152.9894
112.296056 78.523 152.9296
113.109800 78.501 152.8051
113.929440 78.471 152.6416
114.755020 78.432 152.4674
115.586582 78.386 152.3069
116.424170 78.334 152.1782
117.267827 78.279 152.0933
118.117598 78.223 152.0589
118.973527 78.168 152.0766
119.835658 78.118 152.1444
120.704037 78.072 152.2533
121.578708 78.032 152.3844
122.459718 77.997 152.5150
123.347111 77.964 152.6283
124.240935 77.932 152.7155
125.141236 77.899 152.7755
126.048061 77.866 152.8095
126.961458 77.832 152.8168
127.881473 77.799 152.7971
128.808154 77.765 152.7563
129.741551 77.731 152.7081
130.681712 77.697 152.6705
131.628686 77.663 152.6570
132.582521 77.629 152.6718
133.543269 77.595 152.7090
134.510979 77.561 152.7559
135.485701 77.524 152.8026
136.467486 77.484 152.8490
137.456386 77.441 152.9014
138.452451 77.396 152.9637
139.455735 77.354 153.0365
140.466288 77.314 153.1186
141.484165 77.279 153.2066
142.509418 77.247 153.2914
143.542100 77.217 153.3622
144.582265 77.185 153.4181
145.629968 77.150 153.4704
146.685262 77.110 153.5323
147.748204 77.067 153.6097
148.818849 77.025 153.7008
149.897251 76.985 153.8014
150.983469 76.947 153.9087
152.077557 76.915 154.0168
153.179574 76.886 154.1133
154.289576 76.860 154.1846
155.407622 76.835 154.2216
156.533770 76.810 154.2232
157.668078 76.784 154.1985
158.810606 76.755 154.1663
159.961413 76.725 154.1495
161.120559 76.694 154.1645
162.288105 76.662 154.2160
163.464112 76.628 154.2983
164.648640 76.590 154.3989
165.841752 76.548 154.5060
167.043510 76.503 154.6128
168.253976 76.457 154.7167
169.473213 76.413 154.8182
170.701286 76.371 154.9210
171.938258 76.334 155.0321
173.184194 76.299 155.1575
174.439158 76.266 155.2993
175.703216 76.233 155.4547
176.976434 76.201 155.6180
178.258878 76.169 155.7826
179.550615 76.137 155.9431
180.851713 76.105 156.0970
182.162239 76.072 156.2459
183.482262 76.038 156.3913
184.811850 76.002 156.5313
186.151073 75.965 156.6620
187.500000 75.929 156.7814
188.858702 75.894 156.8882
190.227250 75.865 156.9766
191.605715 75.843 157.0319
192.994169 75.827 157.0410
194.392685 75.814 157.0142
195.801334 75.800 156.9871
197.220191 75.784 156.9962
198.649330 75.766 157.0591
200.088825 75.743 157.1792
201.538751 75.716 157.3548
202.999184 75.680 157.5823
204.470200 75.637 157.8550
205.951875 75.587 158.1543
207.444287 75.532 158.4520
208.947514 75.475 158.7185
210.461634 75.420 158.9307
211.986726 75.374 159.0783
213.522869 75.341 159.1672
215.070144 75.319 159.2183
216.628631 75.306 159.2667
218.198411 75.297 159.3466
219.779567 75.286 159.4756
221.372180 75.272 159.6519
222.976334 75.251 159.8606
224.592112 75.225 160.0839
226.219600 75.195 160.3056
227.858880 75.160 160.5148
229.510039 75.123 160.7075
231.173164 75.083 160.8835
232.848340 75.043 161.0437
234.535655 75.002 161.1893
236.235197 74.963 161.3264
237.947054 74.928 161.4653
239.671317 74.900 161.6135
241.408074 74.879 161.7696
243.157416 74.866 161.9258
244.919435 74.855 162.0763
246.694223 74.845 162.2211
248.481871 74.831 162.3618
250.282473 74.812 162.5000
252.096123 74.788 162.6398
253.922915 74.759 162.7882
255.762945 74.727 162.9515
257.616309 74.694 163.1318
259.483103 74.663 163.3282
261.363424 74.634 163.5412
263.257372 74.609 163.7731
265.165043 74.588 164.0244
267.086538 74.569 164.2890
269.021957 74.550 164.5541
270.971401 74.530 164.8026
272.934972 74.509 165.0204
274.912771 74.487 165.2049
276.904902 74.465 165.3646
278.911469 74.443 165.5133
280.932577 74.420 165.6607
282.968330 74.398 165.8116
285.018835 74.376 165.9692
287.084199 74.353 166.1357
289.164530 74.329 166.3136
291.259935 74.305 166.5035
293.370525 74.280 166.7051
295.496408 74.255 166.9174
297.637697 74.228 167.1382
299.794503 74.202 167.3644
301.966937 74.176 167.5909
304.155114 74.152 167.8132
306.359147 74.132 168.0283
308.579152 74.113 168.2355
310.815244 74.094 168.4371
313.067539 74.074 168.6398
315.336156 74.053 168.8517
317.621211 74.032 169.0789
319.922826 74.014 169.3228
322.241118 73.998 169.5798
324.576210 73.985 169.8431
326.928223 73.971 170.1058
329.297280 73.956 170.3630
331.683504 73.937 170.6144
334.087019 73.917 170.8623
336.507952 73.894 171.1096
338.946427 73.871 171.3572
341.402572 73.848 171.6031
343.876516 73.826 171.8435
346.368387 73.805 172.0770
348.878315 73.784 172.3055
351.406431 73.764 172.5322
353.952867 73.743 172.7588
356.517756 73.722 172.9860
359.101230 73.701 173.2157
361.703426 73.681 173.4507
364.324478 73.662 173.6927
366.964523 73.644 173.9415
369.623699 73.626 174.1965
372.302145 73.608 174.4575
375.000000 73.589 174.7226
377.717405 73.569 174.9879
380.454501 73.547 175.2496
383.211431 73.525 175.5065
385.988339 73.502 175.7622
388.785369 73.479 176.0235
391.602668 73.457 176.2970
394.440383 73.435 176.5864
397.298660 73.414 176.8917
400.177650 73.394 177.2110
403.077502 73.373 177.5416
405.998368 73.353 177.8798
408.940400 73.333 178.2238
411.903750 73.314 178.5743
414.888575 73.297 178.9331
417.895028 73.282 179.3017
420.923268 73.269 179.6797
423.973452 73.259 -179.9366
427.045738 73.251 -179.5539
430.140287 73.245 -179.1791
433.257261 73.243 -178.8174
436.396822 73.244 -178.4717
439.559133 73.248 -178.1423
442.744360 73.254 -177.8288
445.952668 73.259 -177.5322
449.184225 73.264 -177.2537
452.439199 73.267 -176.9897
455.717760 73.267 -176.7304
459.020079 73.266 -176.4661
462.346327 73.264 -176.1932
465.696680 73.260 -175.9165
469.071310 73.256 -175.6438
472.470394 73.251 -175.3775
475.894109 73.247 -175.1153
479.342634 73.242 -174.8532
482.816148 73.237 -174.5871
486.314833 73.231 -174.3148
489.838871 73.223 -174.0374
493.388445 73.213 -173.7562
496.963741 73.202 -173.4693
500.564945 73.189 -173.1721
504.192245 73.176 -172.8598
507.845830 73.164 -172.5296
511.525890 73.152 -172.1835
515.232618 73.141 -171.8277
518.966206 73.130 -171.4715
522.726849 73.120 -171.1235
526.514743 73.109 -170.7892
530.330086 73.098 -170.4682
534.173076 73.087 -170.1548
538.043915 73.076 -169.8416
541.942803 73.066 -169.5241
545.869944 73.058 -169.2010
549.825542 73.051 -168.8716
553.809805 73.044 -168.5343
557.822939 73.038 -168.1869
561.865154 73.031 -167.8282
565.936660 73.024 -167.4609
570.037671 73.017 -167.0907
574.168399 73.009 -166.7246
578.329060 73.001 -166.3668
582.519870 72.994 -166.0177
586.741049 72.986 -165.6760
590.992817 72.979 -165.3391
595.275394 72.974 -165.0022
599.589005 72.968 -164.6591
603.933874 72.962 -164.3053
608.310228 72.956 -163.9397
612.718295 72.951 -163.5654
617.158304 72.949 -163.1874
621.630488 72.950 -162.8095
626.135079 72.954 -162.4330
630.672311 72.960 -162.0587
635.242423 72.966 -161.6880
639.845651 72.971 -161.3238
644.482237 72.974 -160.9715
649.152421 72.978 -160.6359
653.856447 72.982 -160.3148
658.594560 72.986 -159.9978
663.367008 72.989 -159.6713
668.174039 72.991 -159.3256
673.015903 72.993 -158.9589
677.892854 72.994 -158.5771
682.805145 72.994 -158.1879
687.753032 72.995 -157.7984
692.736774 72.996 -157.4152
697.756631 72.998 -157.0429
702.812863 73.002 -156.6807
707.905735 73.009 -156.3218
713.035511 73.018 -155.9564
718.202461 73.028 -155.5773
723.406852 73.039 -155.1846
728.648956 73.051 -154.7840
733.929047 73.063 -154.3810
739.247399 73.076 -153.9762
744.604290 73.090 -153.5661
750.000000 73.104 -153.1476
755.434809 73.119 -152.7204
760.909001 73.135 -152.2878
766.422861 73.154 -151.8532
771.976677 73.175 -151.4161
777.570739 73.197 -150.9748
783.205337 73.219 -150.5316
788.880766 73.241 -150.0941
794.597321 73.264 -149.6680
800.355301 73.286 -149.2492
806.155005 73.310 -148.8260
811.996736 73.334 -148.3897
817.880799 73.358 -147.9404
823.807501 73.382 -147.4837
829.777150 73.408 -147.0251
835.790057 73.434 -146.5684
841.846536 73.462 -146.1159
847.946903 73.493 -145.6680
854.091476 73.525 -145.2232
860.280575 73.560 -144.7797
866.514523 73.595 -144.3355
872.793644 73.632 -143.8888
879.118267 73.670 -143.4405
885.488720 73.712 -142.9946
891.905336 73.757 -142.5553
898.368450 73.807 -142.1236
904.878398 73.859 -141.6975
911.435520 73.916 -141.2737
918.040157 73.975 -140.8537
924.692655 74.038 -140.4444
931.393359 74.102 -140.0544
938.142619 74.168 -139.6889
944.940787 74.235 -139.3483
951.788218 74.301 -139.0301
958.685268 74.369 -138.7333
965.632296 74.437 -138.4576
972.629666 74.506 -138.2026
979.677741 74.574 -137.9666
986.776890 74.641 -137.7457
993.927482 74.706 -137.5338
1001.129891 74.769 -137.3255
1008.384491 74.828 -137.1178
1015.691660 74.886 -136.9094
1023.051781 74.943 -136.7012
1030.465236 74.998 -136.4965
1037.932411 75.052 -136.2990
1045.453698 75.107 -136.1126
1053.029486 75.163 -135.9388
1060.660172 75.219 -135.7760
1068.346153 75.277 -135.6203
1076.087829 75.335 -135.4660
1083.885605 75.394 -135.3073
1091.739887 75.454 -135.1400
1099.651084 75.515 -134.9643
1107.619609 75.576 -134.7857
1115.645878 75.638 -134.6137
1123.730308 75.701 -134.4565
1131.873321 75.765 -134.3153
1140.075341 75.829 -134.1878
1148.336797 75.893 -134.0732
1156.658119 75.955 -133.9726
1165.039741 76.015 -133.8863
1173.482099 76.074 -133.8129
1181.985634 76.131 -133.7494
1190.550789 76.188 -133.6917
1199.178011 76.245 -133.6375
1207.867749 76.301 -133.5867
1216.620457 76.356 -133.5396
1225.436590 76.409 -133.4944
1234.316609 76.461 -133.4489
1243.260976 76.512 -133.4035
1252.270157 76.562 -133.3608
1261.344623 76.610 -133.3231
1270.484846 76.657 -133.2921
1279.691303 76.704 -133.2711
1288.964474 76.750 -133.2640
1298.304842 76.795 -133.2713
1307.712894 76.842 -133.2888
1317.189120 76.888 -133.3092
1326.734016 76.935 -133.3268
1336.348077 76.981 -133.3384
1346.031806 77.027 -133.3444
1355.785708 77.071 -133.3476
1365.610290 77.114 -133.3514
1375.506065 77.157 -133.3575
1385.473549 77.199 -133.3651
1395.513261 77.240 -133.3723
1405.625726 77.281 -133.3772
1415.811469 77.321 -133.3796
1426.071023 77.360 -133.3809
1436.404921 77.399 -133.3813
1446.813703 77.436 -133.3802
1457.297912 77.473 -133.3760
1467.858093 77.510 -133.3667
1478.494798 77.547 -133.3530
1489.208581 77.586 -133.3392
1500.000000 77.626 -133.3315
1510.869618 77.667 -133.3348
1521.818002 77.708 -133.3510
1532.845723 77.749 -133.3771
1543.953355 77.788 -133.4058
1555.141477 77.825 -133.4275
1566.410674 77.859 -133.4352
1577.761531 77.893 -133.4282
1589.194642 77.925 -133.4113
1600.710601 77.957 -133.3924
1612.310010 77.990 -133.3798
1623.993473 78.024 -133.3813
1635.761599 78.059 -133.4005
1647.615002 78.094 -133.4332
1659.554299 78.130 -133.4698
1671.580114 78.166 -133.5023
1683.693072 78.203 -133.5267
1695.893807 78.243 -133.5437
1708.182952 78.284 -133.5561
1720.561150 78.325 -133.5656
1733.029045 78.365 -133.5711
1745.587288 78.404 -133.5719
1758.236533 78.441 -133.5697
1770.977440 78.477 -133.5689
1783.810673 78.511 -133.5741
1796.736900 78.545 -133.5885
1809.756796 78.577 -133.6133
1822.871040 78.610 -133.6488
1836.080315 78.642 -133.6954
1849.385310 78.674 -133.7515
1862.786718 78.706 -133.8141
1876.285239 78.737 -133.8805
1889.881575 78.767 -133.9502
1903.576436 78.797 -134.0237
1917.370535 78.826 -134.1021
1931.264593 78.853 -134.1870
1945.259332 78.878 -134.2779
1959.355483 78.900 -134.3703
1973.553781 78.919 -134.4549
1987.854965 78.936 -134.5222
2002.259781 78.951 -134.5653
2016.768981 78.966 -134.5803
2031.383320 78.982 -134.5658
2046.103561 79.001 -134.5236
2060.930471 79.022 -134.4569
2075.864823 79.046 -134.3669
2090.907395 79.072 -134.2490
2106.058972 79.103 -134.0965
2121.320344 79.141 -133.9058
2136.692305 79.186 -133.6809
2152.175658 79.242 -133.4357
2167.771210 79.309 -133.1926
2183.479774 79.388 -132.9782
2199.302169 79.477 -132.8192
2215.239219 79.576 -132.7397
2231.291755 79.681 -132.7562
2247.460615 79.789 -132.8745
2263.746641 79.895 -133.0927
2280.150683 79.996 -133.4058
2296.673595 80.090 -133.8076
2313.316238 80.174 -134.2887
2330.079481 80.249 -134.8332
2346.964198 80.314 -135.4212
2363.971268 80.370 -136.0314
2381.101578 80.415 -136.6449
2398.356022 80.452 -137.2486
2415.735498 80.482 -137.8366
2433.240913 80.504 -138.4064
2450.873180 80.520 -138.9562
2468.633217 80.532 -139.4844
2486.521951 80.540 -139.9905
2504.540314 80.546 -140.4759
2522.689246 80.549 -140.9429
2540.969692 80.550 -141.3937
2559.382606 80.548 -141.8298
2577.928947 80.544 -142.2539
2596.609683 80.539 -142.6706
2615.425787 80.532 -143.0855
2634.378241 80.523 -143.5034
2653.468031 80.513 -143.9274
2672.696154 80.502 -144.3586
2692.063613 80.489 -144.7952
2711.571415 80.474 -145.2326
2731.220579 80.457 -145.6669
2751.012130 80.437 -146.0955
2770.947098 80.412 -146.5190
2791.026522 80.384 -146.9397
2811.251451 80.354 -147.3585
2831.622938 80.322 -147.7738
2852.142045 80.290 -148.1855
2872.809842 80.258 -148.5945
2893.627406 80.225 -148.9998
2914.595823 80.190 -149.3980
2935.716186 80.152 -149.7858
2956.989596 80.110 -150.1611
2978.417161 80.064 -150.5221
3000.000000 80.014 -150.8656
3021.739237 79.959 -151.1859
3043.636005 79.900 -151.4795
3065.691446 79.836 -151.7501
3087.906710 79.767 -152.0054
3110.282955 79.692 -152.2496
3132.821347 79.613 -152.4781
3155.523062 79.533 -152.6821
3178.389283 79.450 -152.8546
3201.421202 79.368 -152.9917
3224.620020 79.285 -153.0917
3247.986946 79.204 -153.1538
3271.523198 79.124 -153.1782
3295.230004 79.045 -153.1657
3319.108599 78.970 -153.1174
3343.160228 78.898 -153.0352
3367.386145 78.830 -152.9231
3391.787613 78.765 -152.7881
3416.365904 78.702 -152.6388
3441.122300 78.641 -152.4834
3466.058091 78.580 -152.3275
3491.174576 78.521 -152.1745
3516.473066 78.462 -152.0249
3541.954880 78.403 -151.8776
3567.621345 78.344 -151.7308
3593.473800 78.285 -151.5823
3619.513592 78.226 -151.4294
3645.742080 78.168 -151.2694
3672.160630 78.111 -151.1010
3698.770620 78.055 -150.9266
3725.573436 78.001 -150.7517
3752.570477 77.948 -150.5775
3779.763150 77.897 -150.3960
3807.152872 77.846 -150.1944
3834.741071 77.797 -149.9659
3862.529185 77.747 -149.7127
3890.518664 77.697 -149.4422
3918.710966 77.647 -149.1596
3947.107561 77.599 -148.8654
3975.709929 77.553 -148.5593
4004.519563 77.509 -148.2420
4033.537962 77.463 -147.9132
4062.766641 77.415 -147.5720
4092.207123 77.365 -147.2171
4121.860942 77.311 -146.8466
4151.729646 77.256 -146.4585
4181.814790 77.202 -146.0544
4212.117944 77.150 -145.6409
4242.640687 77.101 -145.2254
4273.384610 77.057 -144.8099
4304.351317 77.017 -144.3905
4335.542421 76.982 -143.9631
4366.959549 76.950 -143.5271
4398.604338 76.922 -143.0846
4430.478438 76.897 -142.6352
4462.583511 76.874 -142.1756
4494.921231 76.854 -141.7012
4527.493283 76.835 -141.2070
4560.301365 76.819 -140.6904
4593.347189 76.805 -140.1529
4626.632476 76.792 -139.6002
4660.158962 76.782 -139.0388
4693.928395 76.775 -138.4748
4727.942535 76.770 -137.9122
4762.203156 76.769 -137.3526
4796.712043 76.770 -136.7966
4831.470996 76.775 -136.2453
4866.481826 76.782 -135.6991
4901.746360 76.792 -135.1573
4937.266434 76.807 -134.6206
4973.043902 76.825 -134.0914
5009.080628 76.847 -133.5720
5045.378492 76.871 -133.0588
5081.939384 76.898 -132.5430
5118.765212 76.927 -132.0155
5155.857894 76.960 -131.4706
5193.219366 76.998 -130.9066
5230.851574 77.041 -130.3258
5268.756481 77.088 -129.7331
5306.936062 77.141 -129.1347
5345.392309 77.199 -128.5382
5384.127225 77.262 -127.9526
5423.142830 77.331 -127.3872
5462.441159 77.405 -126.8479
5502.024259 77.484 -126.3339
5541.894195 77.569 -125.8390
5582.053045 77.662 -125.3591
5622.502902 77.761 -124.8955
5663.245876 77.867 -124.4538
5704.284090 77.979 -124.0395
5745.619684 78.096 -123.6548
5787.254813 78.218 -123.3012
5829.191647 78.345 -122.9825
5871.432373 78.476 -122.7040
5913.979192 78.611 -122.4683
5956.834323 78.749 -122.2741
6000.000000 78.891 -122.1172
6043.478473 79.037 -121.9931
6087.272010 79.186 -121.8997
6131.382892 79.341 -121.8390
6175.813420 79.500 -121.8172
6220.565910 79.664 -121.8429
6265.642695 79.833 -121.9262
6311.046124 80.007 -122.0781
6356.778566 80.186 -122.3110
6402.842404 80.369 -122.6385
6449.240040 80.556 -123.0742
6495.973891 80.745 -123.6287
6543.046396 80.936 -124.3063
6590.460007 81.127 -125.1047
6638.217197 81.317 -126.0209
6686.320456 81.502 -127.0575
6734.772290 81.679 -128.2232
6783.575226 81.844 -129.5247
6832.731809 81.995 -130.9571
6882.244600 82.130 -132.5018
6932.116181 82.251 -134.1337
6982.349153 82.354 -135.8307
7032.946133 82.438 -137.5791
7083.909760 82.499 -139.3689
7135.242690 82.538 -141.1872
7186.947600 82.553 -143.0170
7239.027185 82.543 -144.8409
7291.484160 82.508 -146.6424
7344.321260 82.451 -148.4071
7397.541239 82.373 -150.1231
7451.146872 82.277 -151.7808
7505.140954 82.165 -153.3730
7559.526299 82.039 -154.8969
7614.305743 81.901 -156.3566
7669.482141 81.752 -157.7604
7725.058371 81.592 -159.1138
7781.037328 81.424 -160.4130
7837.421932 81.249 -161.6465
7894.215122 81.069 -162.8042
7951.419859 80.883 -163.8847
8009.039125 80.692 -164.8925
8067.075924 80.496 -165.8277
8125.533282 80.294 -166.6800
8184.414245 80.090 -167.4305
8243.721885 79.883 -168.0619
8303.459292 79.674 -168.5666
8363.629581 79.467 -168.9470
8424.235888 79.260 -169.2120
8485.281374 79.056 -169.3729
8546.769221 78.855 -169.4423
8608.702634 78.659 -169.4329
8671.084842 78.470 -169.3566
8733.919097 78.289 -169.2229
8797.208675 78.116 -169.0355
8860.956876 77.954 -168.7903
8925.167022 77.803 -168.4791
8989.842461 77.665 -168.0985
9054.986566 77.538 -167.6548
9120.602731 77.424 -167.1595
9186.694378 77.322 -166.6229
9253.264952 77.235 -166.0515
9320.317925 77.164 -165.4497
9387.856790 77.111 -164.8240
9455.885071 77.080 -164.1901
9524.406312 77.073 -163.5799
9593.424086 77.094 -163.0432
9662.941992 77.142 -162.6440
9732.963653 77.211 -162.4499
9803.492719 77.292 -162.5161
9874.532869 77.373 -162.8721
9946.087805 77.444 -163.5167
10018.161257 77.494 -164.4210
10090.756983 77.511 -165.5332
10163.878768 77.490 -166.7868
10237.530423 77.426 -168.1082
10311.715789 77.317 -169.4222
10386.438732 77.165 -170.6514
10461.703149 76.975 -171.7158
10537.512962 76.758 -172.5389
10613.872125 76.524 -173.0648
10690.784618 76.287 -173.2730
10768.254450 76.057 -173.1796
10846.285661 75.844 -172.8235
10924.882318 75.654 -172.2494
11004.048518 75.493 -171.4972
11083.788390 75.363 -170.6024
11164.106090 75.264 -169.6026
11245.005805 75.197 -168.5399
11326.491752 75.158 -167.4558
11408.568180 75.147 -166.3852
11491.239368 75.163 -165.3556
11574.509626 75.207 -164.3892
11658.383294 75.279 -163.5062
11742.864745 75.378 -162.7248
11827.958384 75.505 -162.0558
11913.668646 75.658 -161.4988
12000.000000 75.839 -161.0459
12086.956947 76.047 -160.6919
12174.544019 76.282 -160.4445
12262.765784 76.544 -160.3249
12351.626840 76.833 -160.3662
12441.131819 77.148 -160.6074
12531.285389 77.488 -161.0889
12622.092249 77.852 -161.8497
12713.557132 78.235 -162.9295
12805.684808 78.634 -164.3700
12898.480079 79.041 -166.2136
12991.947783 79.447 -168.5027
13086.092792 79.842 -171.2757
13180.920015 80.213 -174.5611
13276.434395 80.548 -178.3715
13372.640911 80.830 177.3023
13469.544580 81.043 172.4987
13567.150452 81.173 167.2964
13665.463617 81.211 161.8184
13764.489200 81.149 156.2087
13864.232362 80.984 150.5966
13964.698305 80.716 145.0887
14065.892266 80.350 139.7818
14167.819519 79.894 134.7715
14270.485380 79.361 130.1456
14373.895200 78.765 125.9700
14478.054370 78.122 122.2810
14582.968320 77.444 119.0880
14688.642520 76.745 116.3771
14795.082478 76.036 114.1149
14902.293745 75.327 112.2554
15010.281908 74.624 110.7510
15119.052599 73.934 109.5571
15228.611486 73.262 108.6301
15338.964283 72.610 107.9262
15450.116741 71.980 107.4013
15562.074656 71.372 107.0102
15674.843864 70.785 106.7047
15788.430244 70.220 106.4363
15902.839718 69.677 106.1656
16018.078250 69.154 105.8826
16134.151848 68.651 105.6217
16251.066563 68.168 105.4438
16368.828491 67.705 105.3981
16487.443769 67.264 105.4981
16606.918584 66.844 105.7259
16727.259161 66.446 106.0487
16848.471777 66.069 106.4361
16970.562748 65.714 106.8645
17093.538442 65.383 107.3097
17217.405268 65.076 107.7407
17342.169684 64.794 108.1210
17467.838194 64.538 108.4091
17594.417350 64.310 108.5551
17721.913751 64.109 108.4979
17850.334044 63.934 108.1664
17979.684923 63.781 107.4844
18109.973131 63.646 106.3817
18241.205462 63.521 104.8101
18373.388756 63.393 102.7488
18506.529905 63.247 100.1935
18640.635849 63.062 97.1530
18775.713581 62.815 93.6634
18911.770141 62.485 89.8046
19048.812624 62.055 85.7046
19186.848172 61.515 81.5290
19325.883983 60.869 77.4524
19465.927305 60.132 73.6359
19606.985439 59.345 70.2266
19749.065738 58.579 67.3784
19892.175609 57.947 65.2789
20036.322514 57.583 64.1465
