* Measurement data measured by REW V5.31.3
* Source: Headset (CX31993 HIFI AUDIO), MICROPHONE (Master Volume), R, volume: 0.250
* Format: 256k Log Swept Sine, 1 sweep at -12.0 dBFS with no timing reference
* Dated: 03 3, 25 11:21:14 AM
* REW Settings:
*  C-weighting compensation: Off
*  Target level: 75.0 dB
* Note: ; 
* Measurement: SGOR Luna L
* Smoothing: 1/12 octave
* Frequency Step: 96 ppo
* Start Frequency: 0.36621094 Hz
*
* Freq(Hz) SPL(dB) Phase(degrees)
0.366211 26.764 -95.2078
0.368865 26.742 -95.2226
0.371538 26.710 -95.2452
0.374230 26.670 -95.2745
0.376942 26.625 -95.3093
0.379673 26.576 -95.3491
0.382424 26.526 -95.3932
0.385196 26.473 -95.4415
0.387987 26.420 -95.4939
0.390798 26.367 -95.5503
0.393630 26.312 -95.6108
0.396483 26.258 -95.6755
0.399356 26.202 -95.7445
0.402250 26.147 -95.8179
0.405165 26.091 -95.8959
0.408101 26.034 -95.9785
0.411058 25.977 -96.0659
0.414037 25.920 -96.1583
0.417037 25.862 -96.2558
0.420059 25.804 -96.3585
0.423103 25.745 -96.4668
0.426169 25.686 -96.5807
0.429257 25.627 -96.7004
0.432368 25.567 -96.8262
0.435501 25.507 -96.9583
0.438656 25.446 -97.0968
0.441835 25.385 -97.2422
0.445037 25.324 -97.3945
0.448262 25.262 -97.5541
0.451510 25.199 -97.7214
0.454782 25.136 -97.8965
0.458077 25.073 -98.0799
0.461397 25.009 -98.2719
0.464740 24.945 -98.4728
0.468108 24.880 -98.6833
0.471500 24.815 -98.9036
0.474917 24.749 -99.1342
0.478358 24.683 -99.3758
0.481825 24.616 -99.6288
0.485316 24.549 -99.8939
0.488833 24.481 -100.1717
0.492375 24.413 -100.4630
0.495943 24.344 -100.7686
0.499537 24.275 -101.0893
0.503157 24.206 -101.4260
0.506803 24.135 -101.7799
0.510475 24.065 -102.1521
0.514175 23.994 -102.5437
0.517900 23.922 -102.9563
0.521653 23.850 -103.3912
0.525434 23.777 -103.8503
0.529241 23.704 -104.3354
0.533076 23.630 -104.8486
0.536939 23.556 -105.3923
0.540830 23.481 -105.9690
0.544749 23.406 -106.5819
0.548696 23.330 -107.2341
0.552673 23.253 -107.9295
0.556677 23.176 -108.6723
0.560711 23.099 -109.4674
0.564774 23.021 -110.3203
0.568867 22.942 -111.2374
0.572989 22.863 -112.2261
0.577141 22.783 -113.2946
0.581324 22.702 -114.4527
0.585536 22.621 -115.7116
0.589779 22.540 -117.0845
0.594053 22.457 -118.5866
0.598358 22.375 -120.2356
0.602694 22.291 -122.0523
0.607061 22.207 -124.0608
0.611460 22.123 -126.2892
0.615891 22.038 -128.7697
0.620354 21.952 -131.5392
0.624849 21.865 -134.6390
0.629377 21.778 -138.1135
0.633938 21.691 -142.0087
0.638532 21.602 -146.3678
0.643159 21.513 -151.2244
0.647819 21.424 -156.5936
0.652514 21.333 -162.4593
0.657242 21.242 -168.7632
0.662005 21.151 -175.3982
0.666802 21.059 177.7869
0.671634 20.966 170.9703
0.676501 20.872 164.3297
0.681403 20.778 158.0155
0.686341 20.684 152.1328
0.691314 20.589 146.7363
0.696324 20.495 141.8358
0.701370 20.402 137.4059
0.706452 20.311 133.3953
0.711571 20.226 129.7339
0.716728 20.151 126.3368
0.721921 20.091 123.1078
0.727153 20.057 119.9494
0.732422 20.055 116.7817
0.737729 20.092 113.5747
0.743075 20.166 110.3694
0.748460 20.273 107.2392
0.753883 20.407 104.2517
0.759346 20.564 101.4525
0.764849 20.740 98.8632
0.770391 20.933 96.4870
0.775974 21.142 94.3153
0.781597 21.365 92.3336
0.787261 21.603 90.5243
0.792966 21.855 88.8697
0.798712 22.121 87.3528
0.804500 22.399 85.9578
0.810329 22.692 84.6707
0.816201 22.996 83.4785
0.822116 23.314 82.3701
0.828073 23.644 81.3354
0.834074 23.986 80.3657
0.840118 24.339 79.4530
0.846206 24.704 78.5905
0.852338 25.079 77.7721
0.858514 25.466 76.9922
0.864735 25.862 76.2462
0.871001 26.268 75.5296
0.877313 26.683 74.8386
0.883670 27.106 74.1698
0.890074 27.538 73.5200
0.896524 27.977 72.8866
0.903020 28.424 72.2669
0.909564 28.877 71.6588
0.916155 29.335 71.0602
0.922794 29.799 70.4691
0.929481 30.267 69.8840
0.936216 30.740 69.3032
0.943000 31.215 68.7253
0.949834 31.692 68.1491
0.956717 32.171 67.5734
0.963649 32.650 66.9970
0.970632 33.129 66.4189
0.977666 33.608 65.8383
0.984750 34.084 65.2542
0.991886 34.557 64.6658
0.999074 35.026 64.0725
1.006314 35.490 63.4734
1.013606 35.948 62.8682
1.020951 36.399 62.2560
1.028349 36.842 61.6364
1.035801 37.275 61.0090
1.043307 37.698 60.3733
1.050867 38.110 59.7292
1.058482 38.509 59.0766
1.066152 38.895 58.4157
1.073878 39.267 57.7470
1.081660 39.626 57.0719
1.089498 39.970 56.3923
1.097393 40.302 55.7110
1.105345 40.622 55.0313
1.113355 40.933 54.3568
1.121423 41.234 53.6902
1.129549 41.528 53.0335
1.137734 41.814 52.3879
1.145979 42.093 51.7539
1.154283 42.366 51.1316
1.162647 42.633 50.5207
1.171072 42.894 49.9207
1.179558 43.148 49.3313
1.188106 43.397 48.7518
1.196715 43.641 48.1815
1.205387 43.879 47.6199
1.214122 44.112 47.0663
1.222920 44.339 46.5199
1.231782 44.562 45.9801
1.240708 44.781 45.4462
1.249699 44.995 44.9176
1.258754 45.205 44.3935
1.267876 45.411 43.8734
1.277063 45.613 43.3564
1.286318 45.813 42.8421
1.295639 46.009 42.3297
1.305027 46.203 41.8187
1.314484 46.394 41.3082
1.324009 46.584 40.7979
1.333604 46.772 40.2869
1.343268 46.959 39.7747
1.353002 47.145 39.2607
1.362806 47.331 38.7443
1.372681 47.517 38.2249
1.382628 47.704 37.7019
1.392647 47.892 37.1747
1.402739 48.082 36.6429
1.412904 48.273 36.1061
1.423142 48.467 35.5638
1.433455 48.663 35.0161
1.443843 48.861 34.4631
1.454305 49.062 33.9053
1.464844 49.264 33.3439
1.475459 49.466 32.7802
1.486150 49.668 32.2155
1.496920 49.869 31.6512
1.507767 50.069 31.0881
1.518693 50.267 30.5268
1.529698 50.462 29.9675
1.540783 50.656 29.4102
1.551948 50.847 28.8550
1.563194 51.037 28.3018
1.574521 51.225 27.7501
1.585931 51.410 27.2001
1.597423 51.594 26.6511
1.608999 51.776 26.1030
1.620658 51.956 25.5554
1.632402 52.135 25.0082
1.644232 52.313 24.4606
1.656146 52.489 23.9126
1.668147 52.664 23.3636
1.680235 52.837 22.8134
1.692411 53.010 22.2614
1.704675 53.182 21.7071
1.717028 53.353 21.1503
1.729470 53.524 20.5903
1.742003 53.695 20.0267
1.754626 53.865 19.4592
1.767341 54.035 18.8872
1.780147 54.204 18.3103
1.793047 54.374 17.7281
1.806040 54.544 17.1403
1.819128 54.714 16.5468
1.832310 54.883 15.9476
1.845587 55.052 15.3431
1.858961 55.219 14.7336
1.872432 55.386 14.1200
1.886001 55.551 13.5027
1.899667 55.715 12.8826
1.913433 55.877 12.2601
1.927299 56.037 11.6360
1.941265 56.197 11.0107
1.955332 56.354 10.3847
1.969501 56.511 9.7584
1.983773 56.666 9.1321
1.998148 56.820 8.5060
2.012627 56.973 7.8805
2.027212 57.125 7.2557
2.041902 57.275 6.6316
2.056698 57.425 6.0084
2.071602 57.574 5.3860
2.086614 57.722 4.7644
2.101734 57.870 4.1436
2.116964 58.017 3.5231
2.132304 58.163 2.9028
2.147756 58.309 2.2822
2.163320 58.454 1.6610
2.178996 58.599 1.0382
2.194786 58.743 0.4133
2.210690 58.886 -0.2147
2.226710 59.028 -0.8463
2.242845 59.168 -1.4818
2.259098 59.308 -2.1211
2.275468 59.446 -2.7637
2.291957 59.583 -3.4092
2.308566 59.718 -4.0568
2.325295 59.852 -4.7059
2.342145 59.985 -5.3558
2.359117 60.117 -6.0059
2.376212 60.247 -6.6553
2.393431 60.376 -7.3036
2.410775 60.505 -7.9502
2.428244 60.632 -8.5947
2.445840 60.758 -9.2367
2.463564 60.884 -9.8758
2.481416 61.009 -10.5118
2.499397 61.133 -11.1449
2.517509 61.257 -11.7751
2.535752 61.379 -12.4031
2.554127 61.501 -13.0297
2.572635 61.622 -13.6560
2.591277 61.742 -14.2833
2.610055 61.861 -14.9123
2.628968 61.978 -15.5435
2.648019 62.094 -16.1767
2.667208 62.209 -16.8116
2.686535 62.322 -17.4478
2.706003 62.434 -18.0842
2.725612 62.545 -18.7201
2.745363 62.655 -19.3546
2.765257 62.764 -19.9869
2.785295 62.872 -20.6162
2.805478 62.979 -21.2417
2.825808 63.085 -21.8627
2.846285 63.191 -22.4785
2.866910 63.296 -23.0890
2.887685 63.400 -23.6940
2.908611 63.504 -24.2940
2.929688 63.607 -24.8896
2.950917 63.708 -25.4819
2.972301 63.809 -26.0720
2.993839 63.909 -26.6606
3.015534 64.008 -27.2480
3.037386 64.105 -27.8342
3.059396 64.202 -28.4190
3.081565 64.297 -29.0018
3.103896 64.392 -29.5820
3.126388 64.485 -30.1589
3.149043 64.578 -30.7319
3.171862 64.671 -31.3001
3.194847 64.763 -31.8630
3.217998 64.855 -32.4199
3.241317 64.946 -32.9705
3.264805 65.037 -33.5146
3.288463 65.128 -34.0523
3.312293 65.218 -34.5841
3.336295 65.308 -35.1106
3.360471 65.397 -35.6324
3.384822 65.485 -36.1500
3.409350 65.573 -36.6636
3.434056 65.661 -37.1735
3.458940 65.747 -37.6796
3.484005 65.834 -38.1819
3.509252 65.920 -38.6803
3.534681 66.006 -39.1744
3.560295 66.093 -39.6642
3.586094 66.179 -40.1494
3.612081 66.266 -40.6297
3.638255 66.353 -41.1049
3.664620 66.440 -41.5748
3.691175 66.527 -42.0394
3.717923 66.614 -42.4989
3.744864 66.702 -42.9536
3.772001 66.789 -43.4041
3.799335 66.877 -43.8507
3.826866 66.964 -44.2943
3.854597 67.052 -44.7355
3.882529 67.141 -45.1748
3.910664 67.229 -45.6127
3.939002 67.318 -46.0498
3.967546 67.408 -46.4863
3.996296 67.498 -46.9221
4.025255 67.589 -47.3572
4.054423 67.681 -47.7914
4.083804 67.773 -48.2242
4.113396 67.865 -48.6560
4.143204 67.958 -49.0870
4.173227 68.052 -49.5177
4.203468 68.146 -49.9492
4.233928 68.240 -50.3821
4.264609 68.335 -50.8176
4.295512 68.431 -51.2563
4.326639 68.526 -51.6992
4.357992 68.622 -52.1465
4.389572 68.719 -52.5984
4.421380 68.815 -53.0547
4.453419 68.913 -53.5153
4.485691 69.010 -53.9799
4.518196 69.108 -54.4486
4.550936 69.206 -54.9216
4.583914 69.304 -55.3993
4.617131 69.402 -55.8823
4.650589 69.501 -56.3712
4.684289 69.598 -56.8666
4.718233 69.696 -57.3690
4.752424 69.793 -57.8787
4.786862 69.890 -58.3959
4.821549 69.987 -58.9205
4.856488 70.083 -59.4523
4.891680 70.179 -59.9907
4.927127 70.274 -60.5355
4.962831 70.369 -61.0864
4.998794 70.463 -61.6432
5.035017 70.556 -62.2056
5.071503 70.648 -62.7739
5.108253 70.739 -63.3483
5.145270 70.829 -63.9291
5.182555 70.918 -64.5165
5.220110 71.005 -65.1103
5.257937 71.092 -65.7100
5.296038 71.177 -66.3148
5.334415 71.261 -66.9236
5.373071 71.343 -67.5355
5.412006 71.424 -68.1497
5.451224 71.503 -68.7658
5.490725 71.581 -69.3839
5.530514 71.657 -70.0043
5.570590 71.731 -70.6271
5.610957 71.804 -71.2520
5.651616 71.875 -71.8782
5.692570 71.944 -72.5044
5.733821 72.012 -73.1294
5.775370 72.078 -73.7519
5.817221 72.142 -74.3712
5.859375 72.205 -74.9868
5.901834 72.266 -75.5989
5.944602 72.325 -76.2075
5.987679 72.382 -76.8124
6.031068 72.438 -77.4128
6.074771 72.493 -78.0079
6.118792 72.546 -78.5963
6.163131 72.598 -79.1769
6.207792 72.648 -79.7491
6.252776 72.698 -80.3125
6.298086 72.746 -80.8671
6.343725 72.793 -81.4130
6.389694 72.839 -81.9500
6.435996 72.884 -82.4777
6.482634 72.929 -82.9956
6.529610 72.973 -83.5031
6.576926 73.017 -83.9998
6.624585 73.061 -84.4854
6.672590 73.104 -84.9600
6.720942 73.147 -85.4238
6.769645 73.191 -85.8776
6.818700 73.235 -86.3214
6.868111 73.279 -86.7560
6.917881 73.323 -87.1815
6.968010 73.369 -87.5980
7.018504 73.415 -88.0059
7.069362 73.462 -88.4056
7.120590 73.510 -88.7983
7.172189 73.559 -89.1849
7.224161 73.610 -89.5668
7.276511 73.661 -89.9452
7.329239 73.714 -90.3207
7.382350 73.769 -90.6942
7.435845 73.824 -91.0662
7.489729 73.881 -91.4380
7.544002 73.940 -91.8109
7.598669 73.999 -92.1864
7.653732 74.060 -92.5657
7.709194 74.122 -92.9500
7.765058 74.185 -93.3398
7.821327 74.249 -93.7357
7.878004 74.314 -94.1385
7.935091 74.380 -94.5493
7.992592 74.446 -94.9686
8.050510 74.512 -95.3974
8.108847 74.579 -95.8361
8.167607 74.645 -96.2847
8.226793 74.711 -96.7433
8.286408 74.777 -97.2117
8.346454 74.843 -97.6898
8.406936 74.908 -98.1777
8.467856 74.971 -98.6749
8.529218 75.034 -99.1813
8.591024 75.095 -99.6960
8.653278 75.156 -100.2181
8.715983 75.214 -100.7466
8.779143 75.271 -101.2805
8.842760 75.326 -101.8192
8.906839 75.380 -102.3617
8.971381 75.432 -102.9069
9.036392 75.481 -103.4536
9.101873 75.529 -104.0002
9.167829 75.576 -104.5457
9.234263 75.620 -105.0892
9.301178 75.663 -105.6298
9.368578 75.704 -106.1664
9.436467 75.744 -106.6981
9.504847 75.782 -107.2239
9.573723 75.819 -107.7432
9.643099 75.855 -108.2556
9.712976 75.890 -108.7607
9.783361 75.925 -109.2585
9.854255 75.959 -109.7489
9.925663 75.992 -110.2319
9.997588 76.025 -110.7078
10.070035 76.059 -111.1771
10.143007 76.092 -111.6405
10.216507 76.125 -112.0989
10.290540 76.159 -112.5529
10.365109 76.193 -113.0034
10.440219 76.227 -113.4511
10.515873 76.261 -113.8971
10.592076 76.296 -114.3422
10.668830 76.330 -114.7873
10.746141 76.365 -115.2328
10.824012 76.400 -115.6791
10.902447 76.435 -116.1266
10.981451 76.469 -116.5756
11.061027 76.503 -117.0258
11.141180 76.537 -117.4771
11.221913 76.570 -117.9290
11.303232 76.602 -118.3809
11.385140 76.633 -118.8320
11.467641 76.664 -119.2819
11.550741 76.693 -119.7295
11.634442 76.723 -120.1741
11.718750 76.751 -120.6149
11.803669 76.779 -121.0514
11.889203 76.806 -121.4831
11.975357 76.833 -121.9098
12.062136 76.861 -122.3315
12.149543 76.888 -122.7485
12.237583 76.915 -123.1611
12.326262 76.943 -123.5702
12.415583 76.971 -123.9767
12.505552 77.000 -124.3817
12.596172 77.029 -124.7864
12.687449 77.059 -125.1919
12.779387 77.089 -125.5994
12.871992 77.119 -126.0101
12.965268 77.149 -126.4246
13.059220 77.179 -126.8434
13.153852 77.209 -127.2668
13.249170 77.238 -127.6946
13.345179 77.266 -128.1265
13.441884 77.293 -128.5615
13.539289 77.319 -128.9985
13.637401 77.344 -129.4362
13.736223 77.367 -129.8734
13.835761 77.389 -130.3086
13.936021 77.409 -130.7404
14.037007 77.428 -131.1676
14.138725 77.446 -131.5895
14.241180 77.463 -132.0055
14.344377 77.479 -132.4153
14.448323 77.494 -132.8190
14.553021 77.509 -133.2169
14.658478 77.523 -133.6094
14.764700 77.536 -133.9970
14.871691 77.549 -134.3797
14.979457 77.561 -134.7574
15.088005 77.571 -135.1294
15.197339 77.580 -135.4941
15.307465 77.588 -135.8494
15.418389 77.594 -136.1923
15.530117 77.598 -136.5193
15.642655 77.601 -136.8265
15.756008 77.603 -137.1099
15.870182 77.605 -137.3660
15.985184 77.607 -137.5920
16.101019 77.612 -137.7872
16.217694 77.620 -137.9522
16.335214 77.633 -138.0908
16.453586 77.652 -138.2095
16.572815 77.678 -138.3173
16.692909 77.713 -138.4263
16.813872 77.757 -138.5503
16.935713 77.809 -138.7043
17.058436 77.868 -138.9026
17.182048 77.934 -139.1588
17.306556 78.003 -139.4832
17.431967 78.073 -139.8825
17.558286 78.141 -140.3589
17.685521 78.205 -140.9099
17.813677 78.260 -141.5276
17.942762 78.305 -142.1998
18.072783 78.337 -142.9104
18.203746 78.356 -143.6401
18.335658 78.360 -144.3676
18.468526 78.351 -145.0712
18.602356 78.329 -145.7299
18.737156 78.298 -146.3251
18.872934 78.260 -146.8425
19.009695 78.219 -147.2737
19.147447 78.179 -147.6173
19.286197 78.144 -147.8799
19.425953 78.118 -148.0765
19.566721 78.103 -148.2286
19.708510 78.102 -148.3620
19.851326 78.113 -148.5023
19.995177 78.136 -148.6724
20.140070 78.167 -148.8912
20.286013 78.204 -149.1712
20.433014 78.242 -149.5164
20.581080 78.277 -149.9229
20.730219 78.307 -150.3794
20.880439 78.330 -150.8691
21.031747 78.344 -151.3721
21.184152 78.349 -151.8679
21.337661 78.348 -152.3380
21.492282 78.342 -152.7687
21.648024 78.334 -153.1522
21.804895 78.328 -153.4884
21.962902 78.327 -153.7844
22.122054 78.331 -154.0533
22.282360 78.343 -154.3123
22.443827 78.362 -154.5793
22.606464 78.387 -154.8701
22.770280 78.415 -155.1953
22.935283 78.443 -155.5593
23.101481 78.469 -155.9591
23.268884 78.489 -156.3853
23.437500 78.503 -156.8235
23.607338 78.511 -157.2576
23.778406 78.511 -157.6718
23.950714 78.508 -158.0538
24.124271 78.502 -158.3970
24.299086 78.497 -158.7015
24.475167 78.494 -158.9742
24.652524 78.495 -159.2274
24.831166 78.500 -159.4761
25.011103 78.509 -159.7346
25.192344 78.519 -160.0135
25.374898 78.528 -160.3172
25.558775 78.534 -160.6426
25.743984 78.535 -160.9799
25.930536 78.529 -161.3149
26.118439 78.517 -161.6319
26.307704 78.501 -161.9181
26.498341 78.483 -162.1671
26.690359 78.468 -162.3816
26.883768 78.457 -162.5745
27.078579 78.453 -162.7665
27.274801 78.455 -162.9828
27.472446 78.461 -163.2464
27.671522 78.468 -163.5724
27.872042 78.471 -163.9631
28.074014 78.464 -164.4056
28.277450 78.443 -164.8729
28.482360 78.408 -165.3274
28.688755 78.359 -165.7278
28.896645 78.302 -166.0374
29.106042 78.242 -166.2326
29.316957 78.190 -166.3112
29.529400 78.153 -166.2951
29.743382 78.138 -166.2292
29.958915 78.147 -166.1722
30.176009 78.179 -166.1835
30.394677 78.227 -166.3094
30.614929 78.282 -166.5729
30.836778 78.335 -166.9706
31.060234 78.380 -167.4762
31.285309 78.412 -168.0485
31.512015 78.430 -168.6428
31.740364 78.437 -169.2204
31.970368 78.438 -169.7571
32.202039 78.437 -170.2462
32.435388 78.438 -170.6970
32.670428 78.443 -171.1285
32.907171 78.452 -171.5599
33.145630 78.461 -172.0031
33.385817 78.467 -172.4565
33.627745 78.467 -172.9067
33.871425 78.460 -173.3319
34.116871 78.448 -173.7104
34.364096 78.432 -174.0281
34.613113 78.418 -174.2834
34.863934 78.408 -174.4882
35.116572 78.403 -174.6635
35.371041 78.405 -174.8329
35.627354 78.410 -175.0146
35.885525 78.415 -175.2169
36.145566 78.417 -175.4371
36.407492 78.415 -175.6652
36.671316 78.409 -175.8893
36.937051 78.400 -176.1008
37.204712 78.388 -176.2979
37.474313 78.377 -176.4858
37.745867 78.367 -176.6737
38.019389 78.357 -176.8715
38.294893 78.347 -177.0856
38.572394 78.336 -177.3180
38.851905 78.322 -177.5662
39.133442 78.307 -177.8254
39.417019 78.290 -178.0917
39.702651 78.272 -178.3628
39.990353 78.254 -178.6395
40.280140 78.237 -178.9236
40.572026 78.220 -179.2169
40.866028 78.202 -179.5189
41.162160 78.185 -179.8266
41.460438 78.166 179.8660
41.760877 78.147 179.5654
42.063494 78.129 179.2772
42.368303 78.112 179.0041
42.675322 78.097 178.7450
42.984565 78.085 178.4958
43.296048 78.076 178.2511
43.609789 78.069 178.0059
43.925804 78.063 177.7574
44.244108 78.059 177.5054
44.564719 78.054 177.2505
44.887654 78.049 176.9930
45.212928 78.043 176.7324
45.540560 78.035 176.4675
45.870565 78.025 176.1984
46.202962 78.013 175.9277
46.537768 77.997 175.6616
46.875000 77.977 175.4070
47.214676 77.956 175.1694
47.556813 77.934 174.9493
47.901429 77.913 174.7412
48.248542 77.895 174.5348
48.598171 77.879 174.3190
48.950334 77.864 174.0856
49.305048 77.849 173.8325
49.662333 77.833 173.5631
50.022206 77.816 173.2845
50.384688 77.797 173.0040
50.749796 77.778 172.7262
51.117550 77.760 172.4519
51.487969 77.742 172.1787
51.861072 77.725 171.9039
52.236879 77.708 171.6273
52.615409 77.689 171.3534
52.996681 77.670 171.0898
53.380717 77.650 170.8441
53.767536 77.630 170.6198
54.157158 77.613 170.4133
54.549603 77.598 170.2155
54.944892 77.585 170.0151
55.343045 77.574 169.8049
55.744084 77.562 169.5833
56.148028 77.550 169.3544
56.554900 77.536 169.1235
56.964720 77.521 168.8925
57.377510 77.507 168.6567
57.793291 77.492 168.4069
58.212085 77.476 168.1348
58.633914 77.456 167.8409
59.058799 77.430 167.5396
59.486764 77.396 167.2565
59.917829 77.356 167.0186
60.352019 77.315 166.8419
60.789354 77.277 166.7220
61.229859 77.245 166.6376
61.673556 77.221 166.5602
62.120468 77.202 166.4682
62.570618 77.187 166.3519
63.024031 77.171 166.2115
63.480729 77.155 166.0507
63.940736 77.138 165.8729
64.404077 77.118 165.6814
64.870776 77.096 165.4799
65.340856 77.072 165.2723
65.814343 77.045 165.0621
66.291261 77.017 164.8522
66.771635 76.987 164.6462
67.255489 76.956 164.4479
67.742850 76.926 164.2576
68.233743 76.899 164.0706
68.728193 76.873 163.8796
69.226226 76.848 163.6806
69.727867 76.824 163.4759
70.233144 76.800 163.2717
70.742083 76.777 163.0714
71.254709 76.756 162.8725
71.771050 76.735 162.6694
72.291132 76.715 162.4589
72.814984 76.693 162.2432
73.342631 76.669 162.0277
73.874102 76.643 161.8182
74.409424 76.615 161.6193
74.948626 76.584 161.4340
75.491734 76.552 161.2649
76.038779 76.518 161.1144
76.589787 76.483 160.9835
77.144788 76.449 160.8701
77.703811 76.415 160.7689
78.266885 76.383 160.6730
78.834039 76.351 160.5778
79.405303 76.319 160.4808
79.980706 76.289 160.3787
80.560280 76.259 160.2653
81.144053 76.230 160.1343
81.732056 76.200 159.9834
82.324320 76.168 159.8148
82.920876 76.136 159.6344
83.521755 76.101 159.4496
84.126988 76.067 159.2675
84.736607 76.032 159.0920
85.350643 75.999 158.9224
85.969129 75.968 158.7556
86.592097 75.939 158.5897
87.219579 75.910 158.4253
87.851608 75.881 158.2645
88.488217 75.852 158.1091
89.129439 75.823 157.9590
89.775308 75.792 157.8135
90.425856 75.759 157.6718
91.081119 75.725 157.5331
91.741131 75.688 157.3981
92.405925 75.649 157.2678
93.075536 75.609 157.1448
93.750000 75.567 157.0309
94.429351 75.525 156.9261
95.113625 75.485 156.8283
95.802858 75.445 156.7347
96.497085 75.406 156.6440
97.196342 75.368 156.5551
97.900667 75.330 156.4669
98.610096 75.293 156.3798
99.324665 75.255 156.2957
100.044413 75.219 156.2152
100.769376 75.183 156.1350
101.499592 75.150 156.0487
102.235100 75.117 155.9517
102.975938 75.084 155.8454
103.722144 75.050 155.7385
104.473757 75.014 155.6429
105.230817 74.977 155.5677
105.993363 74.940 155.5162
106.761435 74.902 155.4860
107.535072 74.864 155.4686
108.314315 74.827 155.4520
109.099206 74.791 155.4244
109.889783 74.756 155.3785
110.686090 74.721 155.3129
111.488167 74.686 155.2306
112.296056 74.653 155.1387
113.109800 74.620 155.0472
113.929440 74.589 154.9681
114.755020 74.557 154.9142
115.586582 74.526 154.8962
116.424170 74.494 154.9193
117.267827 74.464 154.9780
118.117598 74.435 155.0562
118.973527 74.409 155.1335
119.835658 74.387 155.1893
120.704037 74.367 155.2007
121.578708 74.349 155.1460
122.459718 74.328 155.0189
123.347111 74.300 154.8432
124.240935 74.261 154.6637
125.141236 74.213 154.5181
126.048061 74.158 154.4214
126.961458 74.100 154.3715
127.881473 74.042 154.3575
128.808154 73.985 154.3652
129.741551 73.932 154.3839
130.681712 73.884 154.4122
131.628686 73.841 154.4553
132.582521 73.806 154.5161
133.543269 73.777 154.5928
134.510979 73.754 154.6768
135.485701 73.734 154.7505
136.467486 73.714 154.7983
137.456386 73.690 154.8158
138.452451 73.662 154.8104
139.455735 73.631 154.7928
140.466288 73.601 154.7686
141.484165 73.574 154.7341
142.509418 73.551 154.6833
143.542100 73.529 154.6166
144.582265 73.507 154.5421
145.629968 73.482 154.4698
146.685262 73.453 154.4089
147.748204 73.421 154.3657
148.818849 73.386 154.3436
149.897251 73.351 154.3416
150.983469 73.318 154.3542
152.077557 73.287 154.3721
153.179574 73.258 154.3834
154.289576 73.230 154.3773
155.407622 73.202 154.3484
156.533770 73.173 154.2986
157.668078 73.142 154.2361
158.810606 73.109 154.1739
159.961413 73.074 154.1265
161.120559 73.036 154.1047
162.288105 72.998 154.1097
163.464112 72.959 154.1322
164.648640 72.919 154.1556
165.841752 72.880 154.1608
167.043510 72.842 154.1345
168.253976 72.804 154.0791
169.473213 72.767 154.0073
170.701286 72.730 153.9364
171.938258 72.693 153.8838
173.184194 72.655 153.8594
174.439158 72.615 153.8631
175.703216 72.574 153.8867
176.976434 72.532 153.9186
178.258878 72.491 153.9475
179.550615 72.449 153.9651
180.851713 72.408 153.9703
182.162239 72.367 153.9689
183.482262 72.325 153.9689
184.811850 72.281 153.9764
186.151073 72.237 153.9960
187.500000 72.194 154.0303
188.858702 72.151 154.0798
190.227250 72.110 154.1431
191.605715 72.070 154.2194
192.994169 72.031 154.3087
194.392685 71.991 154.4118
195.801334 71.951 154.5289
197.220191 71.911 154.6567
198.649330 71.872 154.7886
200.088825 71.833 154.9166
201.538751 71.796 155.0365
202.999184 71.759 155.1522
204.470200 71.722 155.2723
205.951875 71.687 155.4034
207.444287 71.654 155.5454
208.947514 71.624 155.6918
210.461634 71.596 155.8337
211.986726 71.571 155.9636
213.522869 71.547 156.0778
215.070144 71.523 156.1771
216.628631 71.499 156.2637
218.198411 71.475 156.3392
219.779567 71.451 156.4041
221.372180 71.427 156.4584
222.976334 71.403 156.5026
224.592112 71.377 156.5391
226.219600 71.350 156.5718
227.858880 71.321 156.6049
229.510039 71.290 156.6416
231.173164 71.258 156.6829
232.848340 71.222 156.7292
234.535655 71.185 156.7803
236.235197 71.145 156.8348
237.947054 71.106 156.8930
239.671317 71.068 156.9579
241.408074 71.033 157.0342
243.157416 71.002 157.1247
244.919435 70.971 157.2286
246.694223 70.941 157.3414
248.481871 70.910 157.4565
250.282473 70.878 157.5695
252.096123 70.844 157.6797
253.922915 70.809 157.7894
255.762945 70.773 157.9015
257.616309 70.736 158.0201
259.483103 70.698 158.1481
261.363424 70.660 158.2831
263.257372 70.622 158.4194
265.165043 70.584 158.5527
267.086538 70.546 158.6845
269.021957 70.509 158.8182
270.971401 70.475 158.9573
272.934972 70.443 159.1061
274.912771 70.413 159.2672
276.904902 70.384 159.4406
278.911469 70.356 159.6249
280.932577 70.327 159.8173
282.968330 70.299 160.0109
285.018835 70.269 160.1963
287.084199 70.236 160.3666
289.164530 70.201 160.5206
291.259935 70.165 160.6639
293.370525 70.129 160.8066
295.496408 70.095 160.9569
297.637697 70.064 161.1168
299.794503 70.037 161.2850
301.966937 70.011 161.4624
304.155114 69.986 161.6488
306.359147 69.961 161.8402
308.579152 69.935 162.0317
310.815244 69.908 162.2206
313.067539 69.882 162.4065
315.336156 69.856 162.5880
317.621211 69.829 162.7633
319.922826 69.803 162.9326
322.241118 69.778 163.0987
324.576210 69.753 163.2647
326.928223 69.729 163.4326
329.297280 69.703 163.6035
331.683504 69.678 163.7782
334.087019 69.652 163.9575
336.507952 69.626 164.1420
338.946427 69.600 164.3304
341.402572 69.573 164.5203
343.876516 69.547 164.7083
346.368387 69.521 164.8921
348.878315 69.496 165.0719
351.406431 69.470 165.2502
353.952867 69.445 165.4307
356.517756 69.420 165.6166
359.101230 69.395 165.8094
361.703426 69.369 166.0098
364.324478 69.344 166.2168
366.964523 69.319 166.4293
369.623699 69.294 166.6454
372.302145 69.269 166.8634
375.000000 69.244 167.0821
377.717405 69.220 167.3011
380.454501 69.196 167.5206
383.211431 69.172 167.7407
385.988339 69.148 167.9619
388.785369 69.124 168.1850
391.602668 69.101 168.4100
394.440383 69.078 168.6362
397.298660 69.055 168.8619
400.177650 69.034 169.0869
403.077502 69.012 169.3129
405.998368 68.990 169.5424
408.940400 68.968 169.7769
411.903750 68.947 170.0158
414.888575 68.925 170.2582
417.895028 68.905 170.5027
420.923268 68.885 170.7489
423.973452 68.865 170.9963
427.045738 68.846 171.2448
430.140287 68.827 171.4936
433.257261 68.807 171.7424
436.396822 68.788 171.9912
439.559133 68.768 172.2407
442.744360 68.749 172.4916
445.952668 68.730 172.7452
449.184225 68.711 173.0021
452.439199 68.693 173.2621
455.717760 68.676 173.5241
459.020079 68.659 173.7875
462.346327 68.642 174.0520
465.696680 68.625 174.3181
469.071310 68.608 174.5861
472.470394 68.592 174.8560
475.894109 68.575 175.1276
479.342634 68.560 175.4009
482.816148 68.544 175.6763
486.314833 68.529 175.9545
489.838871 68.515 176.2358
493.388445 68.501 176.5203
496.963741 68.487 176.8070
500.564945 68.473 177.0951
504.192245 68.459 177.3845
507.845830 68.446 177.6753
511.525890 68.432 177.9678
515.232618 68.419 178.2611
518.966206 68.407 178.5549
522.726849 68.395 178.8494
526.514743 68.384 179.1453
530.330086 68.373 179.4427
534.173076 68.363 179.7415
538.043915 68.353 -179.9576
541.942803 68.343 -179.6522
545.869944 68.333 -179.3409
549.825542 68.323 -179.0247
553.809805 68.314 -178.7045
557.822939 68.305 -178.3822
561.865154 68.297 -178.0595
565.936660 68.288 -177.7376
570.037671 68.280 -177.4164
574.168399 68.271 -177.0951
578.329060 68.264 -176.7733
582.519870 68.257 -176.4512
586.741049 68.251 -176.1289
590.992817 68.245 -175.8050
595.275394 68.241 -175.4774
599.589005 68.236 -175.1446
603.933874 68.232 -174.8059
608.310228 68.228 -174.4622
612.718295 68.224 -174.1155
617.158304 68.220 -173.7676
621.630488 68.217 -173.4198
626.135079 68.214 -173.0714
630.672311 68.211 -172.7208
635.242423 68.209 -172.3661
639.845651 68.208 -172.0065
644.482237 68.207 -171.6425
649.152421 68.207 -171.2755
653.856447 68.207 -170.9071
658.594560 68.207 -170.5378
663.367008 68.208 -170.1672
668.174039 68.210 -169.7949
673.015903 68.212 -169.4205
677.892854 68.215 -169.0438
682.805145 68.219 -168.6644
687.753032 68.224 -168.2818
692.736774 68.229 -167.8956
697.756631 68.235 -167.5062
702.812863 68.242 -167.1141
707.905735 68.250 -166.7202
713.035511 68.258 -166.3243
718.202461 68.266 -165.9258
723.406852 68.275 -165.5237
728.648956 68.285 -165.1184
733.929047 68.295 -164.7115
739.247399 68.306 -164.3043
744.604290 68.319 -163.8972
750.000000 68.332 -163.4887
755.434809 68.346 -163.0774
760.909001 68.361 -162.6620
766.422861 68.376 -162.2422
771.976677 68.393 -161.8192
777.570739 68.410 -161.3936
783.205337 68.429 -160.9654
788.880766 68.449 -160.5341
794.597321 68.469 -160.1002
800.355301 68.492 -159.6643
806.155005 68.516 -159.2277
811.996736 68.541 -158.7911
817.880799 68.567 -158.3547
823.807501 68.595 -157.9182
829.777150 68.625 -157.4813
835.790057 68.655 -157.0435
841.846536 68.687 -156.6042
847.946903 68.719 -156.1633
854.091476 68.752 -155.7216
860.280575 68.786 -155.2803
866.514523 68.822 -154.8404
872.793644 68.860 -154.4022
879.118267 68.899 -153.9657
885.488720 68.940 -153.5309
891.905336 68.982 -153.0983
898.368450 69.026 -152.6681
904.878398 69.071 -152.2397
911.435520 69.119 -151.8131
918.040157 69.167 -151.3890
924.692655 69.217 -150.9686
931.393359 69.268 -150.5527
938.142619 69.320 -150.1418
944.940787 69.374 -149.7362
951.788218 69.430 -149.3364
958.685268 69.486 -148.9426
965.632296 69.544 -148.5557
972.629666 69.604 -148.1754
979.677741 69.665 -147.8018
986.776890 69.727 -147.4351
993.927482 69.790 -147.0758
1001.129891 69.855 -146.7240
1008.384491 69.921 -146.3794
1015.691660 69.988 -146.0426
1023.051781 70.055 -145.7143
1030.465236 70.124 -145.3950
1037.932411 70.193 -145.0845
1045.453698 70.264 -144.7831
1053.029486 70.334 -144.4914
1060.660172 70.406 -144.2102
1068.346153 70.478 -143.9402
1076.087829 70.551 -143.6816
1083.885605 70.625 -143.4342
1091.739887 70.699 -143.1974
1099.651084 70.774 -142.9701
1107.619609 70.849 -142.7509
1115.645878 70.924 -142.5392
1123.730308 70.999 -142.3348
1131.873321 71.073 -142.1382
1140.075341 71.148 -141.9507
1148.336797 71.223 -141.7729
1156.658119 71.298 -141.6046
1165.039741 71.373 -141.4443
1173.482099 71.448 -141.2900
1181.985634 71.523 -141.1400
1190.550789 71.597 -140.9940
1199.178011 71.671 -140.8522
1207.867749 71.745 -140.7153
1216.620457 71.819 -140.5836
1225.436590 71.893 -140.4568
1234.316609 71.967 -140.3355
1243.260976 72.041 -140.2204
1252.270157 72.116 -140.1121
1261.344623 72.191 -140.0105
1270.484846 72.266 -139.9149
1279.691303 72.342 -139.8239
1288.964474 72.418 -139.7362
1298.304842 72.494 -139.6514
1307.712894 72.570 -139.5698
1317.189120 72.647 -139.4924
1326.734016 72.724 -139.4200
1336.348077 72.801 -139.3535
1346.031806 72.879 -139.2929
1355.785708 72.957 -139.2383
1365.610290 73.036 -139.1896
1375.506065 73.115 -139.1466
1385.473549 73.194 -139.1094
1395.513261 73.274 -139.0786
1405.625726 73.355 -139.0557
1415.811469 73.437 -139.0416
1426.071023 73.519 -139.0373
1436.404921 73.603 -139.0430
1446.813703 73.687 -139.0591
1457.297912 73.771 -139.0858
1467.858093 73.856 -139.1234
1478.494798 73.942 -139.1718
1489.208581 74.028 -139.2321
1500.000000 74.115 -139.3058
1510.869618 74.202 -139.3950
1521.818002 74.289 -139.5018
1532.845723 74.377 -139.6279
1543.953355 74.465 -139.7753
1555.141477 74.552 -139.9451
1566.410674 74.639 -140.1381
1577.761531 74.724 -140.3553
1589.194642 74.808 -140.5973
1600.710601 74.889 -140.8650
1612.310010 74.968 -141.1589
1623.993473 75.044 -141.4790
1635.761599 75.116 -141.8246
1647.615002 75.182 -142.1937
1659.554299 75.244 -142.5826
1671.580114 75.298 -142.9855
1683.693072 75.345 -143.3945
1695.893807 75.385 -143.8010
1708.182952 75.416 -144.1951
1720.561150 75.439 -144.5663
1733.029045 75.454 -144.9034
1745.587288 75.463 -145.1957
1758.236533 75.466 -145.4335
1770.977440 75.466 -145.6088
1783.810673 75.465 -145.7162
1796.736900 75.464 -145.7535
1809.756796 75.467 -145.7224
1822.871040 75.475 -145.6282
1836.080315 75.490 -145.4799
1849.385310 75.514 -145.2891
1862.786718 75.547 -145.0687
1876.285239 75.591 -144.8328
1889.881575 75.645 -144.5949
1903.576436 75.708 -144.3679
1917.370535 75.780 -144.1623
1931.264593 75.860 -143.9860
1945.259332 75.946 -143.8442
1959.355483 76.037 -143.7406
1973.553781 76.132 -143.6773
1987.854965 76.230 -143.6556
2002.259781 76.331 -143.6758
2016.768981 76.433 -143.7377
2031.383320 76.535 -143.8401
2046.103561 76.638 -143.9813
2060.930471 76.741 -144.1589
2075.864823 76.843 -144.3707
2090.907395 76.943 -144.6145
2106.058972 77.043 -144.8879
2121.320344 77.140 -145.1890
2136.692305 77.235 -145.5164
2152.175658 77.329 -145.8690
2167.771210 77.420 -146.2456
2183.479774 77.508 -146.6451
2199.302169 77.595 -147.0660
2215.239219 77.678 -147.5067
2231.291755 77.759 -147.9653
2247.460615 77.837 -148.4406
2263.746641 77.913 -148.9309
2280.150683 77.985 -149.4350
2296.673595 78.055 -149.9517
2313.316238 78.122 -150.4796
2330.079481 78.187 -151.0181
2346.964198 78.250 -151.5673
2363.971268 78.310 -152.1269
2381.101578 78.368 -152.6960
2398.356022 78.423 -153.2723
2415.735498 78.475 -153.8531
2433.240913 78.523 -154.4365
2450.873180 78.567 -155.0212
2468.633217 78.609 -155.6074
2486.521951 78.646 -156.1952
2504.540314 78.681 -156.7845
2522.689246 78.713 -157.3749
2540.969692 78.743 -157.9657
2559.382606 78.770 -158.5558
2577.928947 78.795 -159.1446
2596.609683 78.818 -159.7314
2615.425787 78.839 -160.3165
2634.378241 78.858 -160.9003
2653.468031 78.876 -161.4835
2672.696154 78.892 -162.0668
2692.063613 78.907 -162.6512
2711.571415 78.921 -163.2373
2731.220579 78.935 -163.8261
2751.012130 78.947 -164.4185
2770.947098 78.959 -165.0156
2791.026522 78.970 -165.6192
2811.251451 78.980 -166.2318
2831.622938 78.989 -166.8566
2852.142045 78.998 -167.4969
2872.809842 79.006 -168.1563
2893.627406 79.014 -168.8380
2914.595823 79.020 -169.5449
2935.716186 79.025 -170.2805
2956.989596 79.028 -171.0482
2978.417161 79.028 -171.8522
3000.000000 79.024 -172.6965
3021.739237 79.017 -173.5854
3043.636005 79.003 -174.5229
3065.691446 78.983 -175.5126
3087.906710 78.954 -176.5565
3110.282955 78.915 -177.6552
3132.821347 78.863 -178.8065
3155.523062 78.796 179.9941
3178.389283 78.711 178.7534
3201.421202 78.607 177.4818
3224.620020 78.478 176.1937
3247.986946 78.324 174.9094
3271.523198 78.142 173.6544
3295.230004 77.931 172.4593
3319.108599 77.689 171.3583
3343.160228 77.418 170.3898
3367.386145 77.119 169.5952
3391.787613 76.795 169.0175
3416.365904 76.450 168.6974
3441.122300 76.090 168.6706
3466.058091 75.723 168.9641
3491.174576 75.356 169.5938
3516.473066 74.999 170.5616
3541.954880 74.661 171.8546
3567.621345 74.353 173.4434
3593.473800 74.081 175.2845
3619.513592 73.851 177.3230
3645.742080 73.668 179.4968
3672.160630 73.534 -178.2580
3698.770620 73.446 -176.0023
3725.573436 73.403 -173.7889
3752.570477 73.399 -171.6602
3779.763150 73.430 -169.6461
3807.152872 73.491 -167.7660
3834.741071 73.576 -166.0298
3862.529185 73.680 -164.4404
3890.518664 73.799 -162.9965
3918.710966 73.930 -161.6936
3947.107561 74.070 -160.5250
3975.709929 74.216 -159.4830
4004.519563 74.367 -158.5594
4033.537962 74.522 -157.7462
4062.766641 74.679 -157.0363
4092.207123 74.838 -156.4231
4121.860942 74.997 -155.9004
4151.729646 75.155 -155.4622
4181.814790 75.313 -155.1025
4212.117944 75.469 -154.8157
4242.640687 75.624 -154.5964
4273.384610 75.777 -154.4401
4304.351317 75.929 -154.3435
4335.542421 76.080 -154.3047
4366.959549 76.230 -154.3232
4398.604338 76.380 -154.3998
4430.478438 76.530 -154.5363
4462.583511 76.679 -154.7350
4494.921231 76.827 -154.9996
4527.493283 76.973 -155.3331
4560.301365 77.118 -155.7384
4593.347189 77.259 -156.2180
4626.632476 77.396 -156.7734
4660.158962 77.530 -157.4050
4693.928395 77.658 -158.1128
4727.942535 77.779 -158.8958
4762.203156 77.894 -159.7529
4796.712043 78.000 -160.6830
4831.470996 78.098 -161.6850
4866.481826 78.184 -162.7571
4901.746360 78.260 -163.8970
4937.266434 78.322 -165.1006
4973.043902 78.371 -166.3622
5009.080628 78.404 -167.6736
5045.378492 78.419 -169.0233
5081.939384 78.414 -170.3970
5118.765212 78.389 -171.7784
5155.857894 78.343 -173.1511
5193.219366 78.276 -174.4987
5230.851574 78.188 -175.8044
5268.756481 78.080 -177.0519
5306.936062 77.954 -178.2255
5345.392309 77.812 -179.3109
5384.127225 77.654 179.7039
5423.142830 77.485 178.8277
5462.441159 77.305 178.0667
5502.024259 77.118 177.4252
5541.894195 76.926 176.9059
5582.053045 76.731 176.5101
5622.502902 76.535 176.2371
5663.245876 76.340 176.0849
5704.284090 76.148 176.0504
5745.619684 75.960 176.1294
5787.254813 75.776 176.3173
5829.191647 75.599 176.6084
5871.432373 75.430 176.9966
5913.979192 75.270 177.4753
5956.834323 75.119 178.0378
6000.000000 74.978 178.6783
6043.478473 74.848 179.3920
6087.272010 74.730 -179.8254
6131.382892 74.623 -178.9781
6175.813420 74.528 -178.0704
6220.565910 74.447 -177.1072
6265.642695 74.378 -176.0933
6311.046124 74.324 -175.0333
6356.778566 74.285 -173.9314
6402.842404 74.261 -172.7911
6449.240040 74.253 -171.6160
6495.973891 74.262 -170.4103
6543.046396 74.288 -169.1782
6590.460007 74.333 -167.9254
6638.217197 74.397 -166.6584
6686.320456 74.482 -165.3844
6734.772290 74.589 -164.1111
6783.575226 74.719 -162.8468
6832.731809 74.874 -161.6013
6882.244600 75.054 -160.3860
6932.116181 75.262 -159.2144
6982.349153 75.498 -158.1019
7032.946133 75.766 -157.0677
7083.909760 76.065 -156.1346
7135.242690 76.399 -155.3301
7186.947600 76.769 -154.6875
7239.027185 77.175 -154.2463
7291.484160 77.618 -154.0535
7344.321260 78.096 -154.1630
7397.541239 78.606 -154.6354
7451.146872 79.141 -155.5339
7505.140954 79.691 -156.9208
7559.526299 80.243 -158.8515
7614.305743 80.781 -161.3684
7669.482141 81.285 -164.4937
7725.058371 81.735 -168.2209
7781.037328 82.109 -172.5084
7837.421932 82.386 -177.2750
7894.215122 82.549 177.5992
7951.419859 82.584 172.2671
8009.039125 82.487 166.9017
8067.075924 82.259 161.6812
8125.533282 81.908 156.7718
8184.414245 81.448 152.3140
8243.721885 80.899 148.4137
8303.459292 80.281 145.1381
8363.629581 79.616 142.5165
8424.235888 78.927 140.5436
8485.281374 78.231 139.1853
8546.769221 77.546 138.3854
8608.702634 76.884 138.0742
8671.084842 76.255 138.1771
8733.919097 75.663 138.6223
8797.208675 75.112 139.3458
8860.956876 74.602 140.2933
8925.167022 74.133 141.4196
8989.842461 73.703 142.6870
9054.986566 73.310 144.0632
9120.602731 72.954 145.5200
9186.694378 72.632 147.0325
9253.264952 72.343 148.5782
9320.317925 72.085 150.1349
9387.856790 71.859 151.6797
9455.885071 71.663 153.1877
9524.406312 71.496 154.6322
9593.424086 71.357 155.9846
9662.941992 71.244 157.2136
9732.963653 71.156 158.2849
9803.492719 71.088 159.1618
9874.532869 71.035 159.8104
9946.087805 70.990 160.2037
10018.161257 70.944 160.3265
10090.756983 70.890 160.1761
10163.878768 70.817 159.7642
10237.530423 70.717 159.1161
10311.715789 70.580 158.2718
10386.438732 70.399 157.2866
10461.703149 70.167 156.2325
10537.512962 69.879 155.1967
10613.872125 69.536 154.2769
10690.784618 69.139 153.5745
10768.254450 68.697 153.1829
10846.285661 68.222 153.1759
10924.882318 67.728 153.5963
11004.048518 67.233 154.4495
11083.788390 66.752 155.7052
11164.106090 66.299 157.3051
11245.005805 65.882 159.1770
11326.491752 65.507 161.2473
11408.568180 65.176 163.4508
11491.239368 64.889 165.7361
11574.509626 64.644 168.0660
11658.383294 64.440 170.4141
11742.864745 64.275 172.7614
11827.958384 64.148 175.0951
11913.668646 64.056 177.4055
12000.000000 63.998 179.6821
12086.956947 63.975 -178.0883
12174.544019 63.986 -175.9231
12262.765784 64.028 -173.8438
12351.626840 64.099 -171.8733
12441.131819 64.196 -170.0322
12531.285389 64.312 -168.3345
12622.092249 64.442 -166.7828
12713.557132 64.580 -165.3665
12805.684808 64.721 -164.0625
12898.480079 64.862 -162.8395
12991.947783 65.000 -161.6624
13086.092792 65.136 -160.4969
13180.920015 65.271 -159.3130
13276.434395 65.407 -158.0879
13372.640911 65.548 -156.8077
13469.544580 65.697 -155.4670
13567.150452 65.858 -154.0691
13665.463617 66.035 -152.6248
13764.489200 66.232 -151.1521
13864.232362 66.450 -149.6757
13964.698305 66.691 -148.2250
14065.892266 66.958 -146.8334
14167.819519 67.248 -145.5376
14270.485380 67.562 -144.3766
14373.895200 67.898 -143.3906
14478.054370 68.251 -142.6198
14582.968320 68.618 -142.1025
14688.642520 68.995 -141.8727
14795.082478 69.376 -141.9592
14902.293745 69.756 -142.3866
15010.281908 70.130 -143.1777
15119.052599 70.493 -144.3553
15228.611486 70.836 -145.9425
15338.964283 71.153 -147.9590
15450.116741 71.433 -150.4146
15562.074656 71.663 -153.3024
15674.843864 71.834 -156.5942
15788.430244 71.934 -160.2430
15902.839718 71.957 -164.1871
16018.078250 71.898 -168.3588
16134.151848 71.757 -172.6947
16251.066563 71.537 -177.1426
16368.828491 71.241 178.3356
16487.443769 70.871 173.7664
16606.918584 70.431 169.1725
16727.259161 69.919 164.5815
16848.471777 69.336 160.0347
16970.562748 68.681 155.5930
17093.538442 67.953 151.3368
17217.405268 67.158 147.3614
17342.169684 66.303 143.7678
17467.838194 65.400 140.6504
17594.417350 64.467 138.0846
17721.913751 63.525 136.1174
17850.334044 62.597 134.7627
17979.684923 61.703 134.0060
18109.973131 60.862 133.8152
18241.205462 60.089 134.1534
18373.388756 59.391 134.9844
18506.529905 58.773 136.2670
18640.635849 58.235 137.9509
18775.713581 57.772 139.9783
18911.770141 57.373 142.2886
19048.812624 57.027 144.8239
19186.848172 56.720 147.5284
19325.883983 56.441 150.3419
19465.927305 56.183 153.1837
19606.985439 55.947 155.9305
19749.065738 55.742 158.3932
19892.175609 55.588 160.3079
20036.322514 55.504 161.3755
