* Measurement data measured by REW V5.31.3
* Source: Headset (CX31993 HIFI AUDIO), MICROPHONE (Master Volume), R, volume: 0.250
* Format: 256k Log Swept Sine, 1 sweep at -12.0 dBFS with no timing reference
* Dated: 03 3, 25 11:20:20 AM
* REW Settings:
*  C-weighting compensation: Off
*  Target level: 75.0 dB
* Note: ; 
* Measurement: SGOR Luna R
* Smoothing: 1/12 octave
* Frequency Step: 96 ppo
* Start Frequency: 0.36621094 Hz
*
* Freq(Hz) SPL(dB) Phase(degrees)
0.366211 42.113 44.8492
0.368865 42.128 44.8346
0.371538 42.150 44.8130
0.374230 42.177 44.7863
0.376942 42.208 44.7561
0.379673 42.241 44.7238
0.382424 42.275 44.6900
0.385196 42.310 44.6553
0.387987 42.346 44.6199
0.390798 42.382 44.5841
0.393630 42.419 44.5478
0.396483 42.455 44.5112
0.399356 42.493 44.4742
0.402250 42.530 44.4369
0.405165 42.568 44.3993
0.408101 42.606 44.3613
0.411058 42.644 44.3230
0.414037 42.682 44.2843
0.417037 42.721 44.2453
0.420059 42.760 44.2059
0.423103 42.800 44.1661
0.426169 42.839 44.1260
0.429257 42.879 44.0855
0.432368 42.919 44.0446
0.435501 42.960 44.0033
0.438656 43.001 43.9616
0.441835 43.042 43.9195
0.445037 43.083 43.8769
0.448262 43.125 43.8340
0.451510 43.167 43.7906
0.454782 43.209 43.7468
0.458077 43.252 43.7025
0.461397 43.295 43.6577
0.464740 43.338 43.6125
0.468108 43.382 43.5668
0.471500 43.426 43.5206
0.474917 43.470 43.4739
0.478358 43.514 43.4266
0.481825 43.559 43.3789
0.485316 43.604 43.3306
0.488833 43.650 43.2817
0.492375 43.696 43.2323
0.495943 43.742 43.1823
0.499537 43.788 43.1317
0.503157 43.835 43.0804
0.506803 43.882 43.0286
0.510475 43.930 42.9761
0.514175 43.978 42.9229
0.517900 44.026 42.8691
0.521653 44.074 42.8146
0.525434 44.123 42.7593
0.529241 44.172 42.7034
0.533076 44.222 42.6467
0.536939 44.272 42.5892
0.540830 44.322 42.5309
0.544749 44.373 42.4718
0.548696 44.424 42.4118
0.552673 44.476 42.3510
0.556677 44.527 42.2894
0.560711 44.580 42.2268
0.564774 44.632 42.1633
0.568867 44.685 42.0988
0.572989 44.738 42.0333
0.577141 44.792 41.9668
0.581324 44.846 41.8993
0.585536 44.901 41.8307
0.589779 44.956 41.7610
0.594053 45.011 41.6902
0.598358 45.067 41.6181
0.602694 45.123 41.5449
0.607061 45.179 41.4705
0.611460 45.236 41.3947
0.615891 45.293 41.3177
0.620354 45.351 41.2393
0.624849 45.409 41.1594
0.629377 45.468 41.0782
0.633938 45.527 40.9955
0.638532 45.586 40.9112
0.643159 45.646 40.8253
0.647819 45.706 40.7378
0.652514 45.767 40.6487
0.657242 45.828 40.5578
0.662005 45.890 40.4651
0.666802 45.952 40.3706
0.671634 46.015 40.2742
0.676501 46.078 40.1758
0.681403 46.141 40.0753
0.686341 46.205 39.9728
0.691314 46.269 39.8681
0.696324 46.334 39.7611
0.701370 46.399 39.6519
0.706452 46.464 39.5402
0.711571 46.529 39.4261
0.716728 46.593 39.3094
0.721921 46.657 39.1901
0.727153 46.719 39.0680
0.732422 46.779 38.9432
0.737729 46.837 38.8156
0.743075 46.893 38.6851
0.748460 46.946 38.5519
0.753883 46.999 38.4158
0.759346 47.050 38.2769
0.764849 47.100 38.1354
0.770391 47.150 37.9912
0.775974 47.200 37.8443
0.781597 47.249 37.6949
0.787261 47.297 37.5430
0.792966 47.346 37.3887
0.798712 47.394 37.2320
0.804500 47.441 37.0730
0.810329 47.488 36.9118
0.816201 47.535 36.7484
0.822116 47.582 36.5829
0.828073 47.628 36.4153
0.834074 47.674 36.2458
0.840118 47.719 36.0743
0.846206 47.764 35.9010
0.852338 47.809 35.7259
0.858514 47.854 35.5491
0.864735 47.898 35.3706
0.871001 47.942 35.1906
0.877313 47.985 35.0090
0.883670 48.029 34.8260
0.890074 48.072 34.6416
0.896524 48.115 34.4559
0.903020 48.157 34.2690
0.909564 48.199 34.0809
0.916155 48.241 33.8917
0.922794 48.283 33.7014
0.929481 48.325 33.5101
0.936216 48.366 33.3179
0.943000 48.407 33.1249
0.949834 48.449 32.9311
0.956717 48.489 32.7366
0.963649 48.530 32.5414
0.970632 48.571 32.3456
0.977666 48.612 32.1492
0.984750 48.652 31.9524
0.991886 48.693 31.7552
0.999074 48.733 31.5576
1.006314 48.774 31.3596
1.013606 48.814 31.1615
1.020951 48.855 30.9632
1.028349 48.895 30.7647
1.035801 48.936 30.5661
1.043307 48.977 30.3675
1.050867 49.018 30.1688
1.058482 49.059 29.9701
1.066152 49.100 29.7713
1.073878 49.142 29.5724
1.081660 49.184 29.3731
1.089498 49.226 29.1730
1.097393 49.267 28.9718
1.105345 49.309 28.7688
1.113355 49.351 28.5634
1.121423 49.392 28.3553
1.129549 49.433 28.1440
1.137734 49.473 27.9294
1.145979 49.513 27.7114
1.154283 49.553 27.4901
1.162647 49.591 27.2654
1.171072 49.630 27.0376
1.179558 49.668 26.8067
1.188106 49.706 26.5729
1.196715 49.743 26.3364
1.205387 49.780 26.0973
1.214122 49.816 25.8559
1.222920 49.853 25.6122
1.231782 49.888 25.3666
1.240708 49.924 25.1193
1.249699 49.959 24.8704
1.258754 49.995 24.6202
1.267876 50.029 24.3690
1.277063 50.064 24.1170
1.286318 50.099 23.8646
1.295639 50.134 23.6120
1.305027 50.168 23.3596
1.314484 50.203 23.1075
1.324009 50.238 22.8563
1.333604 50.272 22.6062
1.343268 50.307 22.3577
1.353002 50.343 22.1110
1.362806 50.378 21.8666
1.372681 50.414 21.6249
1.382628 50.450 21.3864
1.392647 50.486 21.1513
1.402739 50.523 20.9203
1.412904 50.561 20.6937
1.423142 50.599 20.4718
1.433455 50.637 20.2551
1.443843 50.677 20.0438
1.454305 50.716 19.8379
1.464844 50.756 19.6375
1.475459 50.796 19.4422
1.486150 50.837 19.2518
1.496920 50.877 19.0658
1.507767 50.917 18.8841
1.518693 50.958 18.7061
1.529698 50.998 18.5318
1.540783 51.038 18.3608
1.551948 51.078 18.1929
1.563194 51.118 18.0280
1.574521 51.158 17.8659
1.585931 51.198 17.7063
1.597423 51.238 17.5491
1.608999 51.279 17.3941
1.620658 51.320 17.2412
1.632402 51.362 17.0902
1.644232 51.404 16.9408
1.656146 51.447 16.7930
1.668147 51.490 16.6465
1.680235 51.534 16.5013
1.692411 51.579 16.3571
1.704675 51.625 16.2137
1.717028 51.672 16.0711
1.729470 51.721 15.9291
1.742003 51.770 15.7876
1.754626 51.821 15.6464
1.767341 51.873 15.5057
1.780147 51.928 15.3655
1.793047 51.983 15.2260
1.806040 52.041 15.0877
1.819128 52.100 14.9514
1.832310 52.161 14.8181
1.845587 52.223 14.6888
1.858961 52.287 14.5646
1.872432 52.353 14.4459
1.886001 52.420 14.3328
1.899667 52.489 14.2250
1.913433 52.559 14.1220
1.927299 52.630 14.0229
1.941265 52.703 13.9269
1.955332 52.778 13.8329
1.969501 52.854 13.7400
1.983773 52.931 13.6471
1.998148 53.010 13.5531
2.012627 53.091 13.4571
2.027212 53.174 13.3578
2.041902 53.258 13.2543
2.056698 53.344 13.1455
2.071602 53.431 13.0303
2.086614 53.521 12.9079
2.101734 53.612 12.7774
2.116964 53.706 12.6379
2.132304 53.801 12.4889
2.147756 53.898 12.3304
2.163320 53.997 12.1627
2.178996 54.099 11.9868
2.194786 54.203 11.8044
2.210690 54.309 11.6177
2.226710 54.418 11.4288
2.242845 54.529 11.2391
2.259098 54.644 11.0494
2.275468 54.760 10.8592
2.291957 54.880 10.6679
2.308566 55.001 10.4740
2.325295 55.125 10.2762
2.342145 55.252 10.0729
2.359117 55.380 9.8623
2.376212 55.511 9.6427
2.393431 55.643 9.4126
2.410775 55.777 9.1702
2.428244 55.912 8.9140
2.445840 56.049 8.6425
2.463564 56.187 8.3543
2.481416 56.327 8.0485
2.499397 56.467 7.7242
2.517509 56.608 7.3813
2.535752 56.751 7.0203
2.554127 56.894 6.6426
2.572635 57.038 6.2504
2.591277 57.184 5.8462
2.610055 57.332 5.4321
2.628968 57.481 5.0098
2.648019 57.632 4.5797
2.667208 57.785 4.1419
2.686535 57.939 3.6959
2.706003 58.094 3.2409
2.725612 58.251 2.7760
2.745363 58.409 2.2999
2.765257 58.567 1.8115
2.785295 58.726 1.3096
2.805478 58.886 0.7931
2.825808 59.046 0.2607
2.846285 59.206 -0.2885
2.866910 59.365 -0.8553
2.887685 59.525 -1.4401
2.908611 59.685 -2.0428
2.929688 59.844 -2.6627
2.950917 60.003 -3.2985
2.972301 60.162 -3.9485
2.993839 60.322 -4.6111
3.015534 60.481 -5.2850
3.037386 60.641 -5.9692
3.059396 60.801 -6.6628
3.081565 60.961 -7.3653
3.103896 61.120 -8.0766
3.126388 61.279 -8.7965
3.149043 61.438 -9.5251
3.171862 61.596 -10.2628
3.194847 61.754 -11.0099
3.217998 61.911 -11.7671
3.241317 62.067 -12.5350
3.264805 62.222 -13.3143
3.288463 62.375 -14.1057
3.312293 62.528 -14.9096
3.336295 62.680 -15.7259
3.360471 62.831 -16.5539
3.384822 62.981 -17.3925
3.409350 63.130 -18.2404
3.434056 63.277 -19.0960
3.458940 63.424 -19.9579
3.484005 63.569 -20.8245
3.509252 63.713 -21.6950
3.534681 63.856 -22.5683
3.560295 63.997 -23.4440
3.586094 64.137 -24.3221
3.612081 64.276 -25.2032
3.638255 64.412 -26.0884
3.664620 64.547 -26.9790
3.691175 64.680 -27.8766
3.717923 64.812 -28.7822
3.744864 64.941 -29.6954
3.772001 65.069 -30.6154
3.799335 65.195 -31.5403
3.826866 65.319 -32.4677
3.854597 65.441 -33.3955
3.882529 65.561 -34.3212
3.910664 65.679 -35.2430
3.939002 65.795 -36.1595
3.967546 65.909 -37.0702
3.996296 66.021 -37.9753
4.025255 66.131 -38.8762
4.054423 66.239 -39.7748
4.083804 66.344 -40.6730
4.113396 66.447 -41.5715
4.143204 66.548 -42.4697
4.173227 66.646 -43.3660
4.203468 66.742 -44.2582
4.233928 66.836 -45.1434
4.264609 66.928 -46.0189
4.295512 67.017 -46.8821
4.326639 67.105 -47.7314
4.357992 67.190 -48.5660
4.389572 67.274 -49.3861
4.421380 67.355 -50.1933
4.453419 67.433 -50.9889
4.485691 67.510 -51.7741
4.518196 67.584 -52.5488
4.550936 67.656 -53.3118
4.583914 67.726 -54.0613
4.617131 67.795 -54.7948
4.650589 67.862 -55.5100
4.684289 67.928 -56.2043
4.718233 67.994 -56.8762
4.752424 68.057 -57.5247
4.786862 68.120 -58.1500
4.821549 68.182 -58.7528
4.856488 68.243 -59.3340
4.891680 68.302 -59.8943
4.927127 68.361 -60.4341
4.962831 68.420 -60.9532
4.998794 68.479 -61.4510
5.035017 68.539 -61.9269
5.071503 68.600 -62.3799
5.108253 68.663 -62.8089
5.145270 68.726 -63.2135
5.182555 68.791 -63.5935
5.220110 68.858 -63.9500
5.257937 68.926 -64.2848
5.296038 68.996 -64.6004
5.334415 69.068 -64.8997
5.373071 69.142 -65.1853
5.412006 69.220 -65.4595
5.451224 69.301 -65.7237
5.490725 69.385 -65.9786
5.530514 69.473 -66.2242
5.570590 69.564 -66.4613
5.610957 69.659 -66.6916
5.651616 69.757 -66.9182
5.692570 69.859 -67.1453
5.733821 69.963 -67.3773
5.775370 70.070 -67.6181
5.817221 70.180 -67.8709
5.859375 70.293 -68.1373
5.901834 70.408 -68.4179
5.944602 70.526 -68.7129
5.987679 70.646 -69.0228
6.031068 70.768 -69.3490
6.074771 70.891 -69.6937
6.118792 71.015 -70.0592
6.163131 71.138 -70.4478
6.207792 71.262 -70.8609
6.252776 71.384 -71.2993
6.298086 71.506 -71.7624
6.343725 71.626 -72.2489
6.389694 71.745 -72.7571
6.435996 71.862 -73.2853
6.482634 71.977 -73.8322
6.529610 72.088 -74.3970
6.576926 72.195 -74.9792
6.624585 72.298 -75.5787
6.672590 72.398 -76.1945
6.720942 72.492 -76.8242
6.769645 72.583 -77.4642
6.818700 72.669 -78.1104
6.868111 72.749 -78.7586
6.917881 72.825 -79.4056
6.968010 72.895 -80.0495
7.018504 72.960 -80.6892
7.069362 73.019 -81.3228
7.120590 73.073 -81.9471
7.172189 73.122 -82.5579
7.224161 73.166 -83.1500
7.276511 73.206 -83.7189
7.329239 73.242 -84.2612
7.382350 73.274 -84.7749
7.435845 73.302 -85.2589
7.489729 73.327 -85.7119
7.544002 73.351 -86.1321
7.598669 73.373 -86.5172
7.653732 73.395 -86.8650
7.709194 73.417 -87.1742
7.765058 73.441 -87.4450
7.821327 73.466 -87.6793
7.878004 73.494 -87.8809
7.935091 73.525 -88.0544
7.992592 73.561 -88.2044
8.050510 73.603 -88.3351
8.108847 73.651 -88.4508
8.167607 73.706 -88.5568
8.226793 73.766 -88.6609
8.286408 73.834 -88.7725
8.346454 73.907 -88.9014
8.406936 73.987 -89.0561
8.467856 74.072 -89.2431
8.529218 74.163 -89.4678
8.591024 74.258 -89.7356
8.653278 74.356 -90.0523
8.715983 74.455 -90.4239
8.779143 74.555 -90.8551
8.842760 74.654 -91.3482
8.906839 74.750 -91.9031
8.971381 74.842 -92.5178
9.036392 74.930 -93.1896
9.101873 75.010 -93.9159
9.167829 75.082 -94.6941
9.234263 75.145 -95.5202
9.301178 75.197 -96.3880
9.368578 75.238 -97.2882
9.436467 75.266 -98.2108
9.504847 75.280 -99.1460
9.573723 75.280 -100.0851
9.643099 75.266 -101.0186
9.712976 75.236 -101.9344
9.783361 75.191 -102.8173
9.854255 75.131 -103.6512
9.925663 75.057 -104.4214
9.997588 74.969 -105.1145
10.070035 74.868 -105.7158
10.143007 74.756 -106.2090
10.216507 74.637 -106.5767
10.290540 74.512 -106.8033
10.365109 74.384 -106.8768
10.440219 74.259 -106.7897
10.515873 74.140 -106.5385
10.592076 74.034 -106.1242
10.668830 73.946 -105.5533
10.746141 73.881 -104.8414
10.824012 73.843 -104.0148
10.902447 73.836 -103.1091
10.981451 73.864 -102.1654
11.061027 73.927 -101.2258
11.141180 74.026 -100.3333
11.221913 74.157 -99.5310
11.303232 74.316 -98.8581
11.385140 74.498 -98.3447
11.467641 74.698 -98.0101
11.550741 74.912 -97.8646
11.634442 75.131 -97.9115
11.718750 75.352 -98.1484
11.803669 75.568 -98.5665
11.889203 75.777 -99.1511
11.975357 75.975 -99.8839
12.062136 76.159 -100.7454
12.149543 76.327 -101.7163
12.237583 76.478 -102.7764
12.326262 76.611 -103.9042
12.415583 76.725 -105.0778
12.505552 76.821 -106.2773
12.596172 76.899 -107.4852
12.687449 76.960 -108.6835
12.779387 77.006 -109.8551
12.871992 77.039 -110.9849
12.965268 77.060 -112.0611
13.059220 77.072 -113.0742
13.153852 77.077 -114.0164
13.249170 77.077 -114.8829
13.345179 77.076 -115.6727
13.441884 77.076 -116.3884
13.539289 77.080 -117.0353
13.637401 77.088 -117.6214
13.736223 77.104 -118.1566
13.835761 77.126 -118.6535
13.936021 77.157 -119.1248
14.037007 77.196 -119.5828
14.138725 77.241 -120.0384
14.241180 77.293 -120.5011
14.344377 77.349 -120.9779
14.448323 77.408 -121.4729
14.553021 77.468 -121.9868
14.658478 77.529 -122.5182
14.764700 77.588 -123.0635
14.871691 77.645 -123.6174
14.979457 77.699 -124.1732
15.088005 77.751 -124.7243
15.197339 77.801 -125.2646
15.307465 77.848 -125.7890
15.418389 77.895 -126.2941
15.530117 77.941 -126.7784
15.642655 77.989 -127.2429
15.756008 78.038 -127.6907
15.870182 78.090 -128.1266
15.985184 78.144 -128.5568
16.101019 78.201 -128.9886
16.217694 78.260 -129.4286
16.335214 78.320 -129.8826
16.453586 78.380 -130.3549
16.572815 78.438 -130.8476
16.692909 78.494 -131.3600
16.813872 78.545 -131.8890
16.935713 78.590 -132.4288
17.058436 78.629 -132.9717
17.182048 78.660 -133.5086
17.306556 78.685 -134.0294
17.431967 78.702 -134.5245
17.558286 78.714 -134.9850
17.685521 78.722 -135.4039
17.813677 78.727 -135.7770
17.942762 78.731 -136.1032
18.072783 78.736 -136.3848
18.203746 78.744 -136.6273
18.335658 78.756 -136.8395
18.468526 78.772 -137.0323
18.602356 78.794 -137.2175
18.737156 78.821 -137.4076
18.872934 78.851 -137.6132
19.009695 78.885 -137.8434
19.147447 78.920 -138.1041
19.286197 78.954 -138.3981
19.425953 78.987 -138.7249
19.566721 79.016 -139.0814
19.708510 79.041 -139.4618
19.851326 79.061 -139.8590
19.995177 79.075 -140.2651
20.140070 79.084 -140.6722
20.286013 79.088 -141.0733
20.433014 79.089 -141.4628
20.581080 79.086 -141.8370
20.730219 79.082 -142.1944
20.880439 79.078 -142.5357
21.031747 79.074 -142.8638
21.184152 79.071 -143.1831
21.337661 79.070 -143.4993
21.492282 79.071 -143.8184
21.648024 79.074 -144.1465
21.804895 79.078 -144.4884
21.962902 79.082 -144.8473
22.122054 79.086 -145.2243
22.282360 79.089 -145.6178
22.443827 79.089 -146.0237
22.606464 79.086 -146.4356
22.770280 79.080 -146.8454
22.935283 79.071 -147.2438
23.101481 79.059 -147.6223
23.268884 79.046 -147.9737
23.437500 79.034 -148.2939
23.607338 79.024 -148.5828
23.778406 79.019 -148.8450
23.950714 79.020 -149.0898
24.124271 79.028 -149.3297
24.299086 79.043 -149.5794
24.475167 79.064 -149.8524
24.652524 79.090 -150.1597
24.831166 79.117 -150.5067
25.011103 79.142 -150.8926
25.192344 79.164 -151.3102
25.374898 79.181 -151.7468
25.558775 79.192 -152.1869
25.743984 79.196 -152.6145
25.930536 79.196 -153.0165
26.118439 79.194 -153.3856
26.307704 79.192 -153.7214
26.498341 79.192 -154.0313
26.690359 79.195 -154.3278
26.883768 79.202 -154.6257
27.078579 79.210 -154.9373
27.274801 79.216 -155.2684
27.472446 79.219 -155.6155
27.671522 79.214 -155.9650
27.872042 79.202 -156.2952
28.074014 79.182 -156.5807
28.277450 79.157 -156.7986
28.482360 79.134 -156.9352
28.688755 79.117 -156.9922
28.896645 79.113 -156.9898
29.106042 79.126 -156.9657
29.316957 79.159 -156.9688
29.529400 79.208 -157.0492
29.743382 79.268 -157.2473
29.958915 79.331 -157.5854
30.176009 79.390 -158.0633
30.394677 79.436 -158.6593
30.614929 79.464 -159.3357
30.836778 79.473 -160.0465
31.060234 79.464 -160.7465
31.285309 79.440 -161.3986
31.512015 79.408 -161.9807
31.740364 79.373 -162.4876
31.970368 79.341 -162.9303
32.202039 79.315 -163.3303
32.435388 79.297 -163.7125
32.670428 79.283 -164.0972
32.907171 79.273 -164.4950
33.145630 79.263 -164.9052
33.385817 79.252 -165.3181
33.627745 79.239 -165.7198
33.871425 79.225 -166.0973
34.116871 79.211 -166.4436
34.364096 79.201 -166.7590
34.613113 79.196 -167.0509
34.863934 79.195 -167.3301
35.116572 79.199 -167.6075
35.371041 79.206 -167.8908
35.627354 79.215 -168.1825
35.885525 79.223 -168.4811
36.145566 79.231 -168.7822
36.407492 79.238 -169.0815
36.671316 79.243 -169.3756
36.937051 79.248 -169.6635
37.204712 79.251 -169.9455
37.474313 79.252 -170.2219
37.745867 79.252 -170.4929
38.019389 79.250 -170.7576
38.294893 79.247 -171.0151
38.572394 79.242 -171.2655
38.851905 79.237 -171.5109
39.133442 79.232 -171.7556
39.417019 79.226 -172.0057
39.702651 79.220 -172.2667
39.990353 79.214 -172.5423
40.280140 79.205 -172.8326
40.572026 79.194 -173.1337
40.866028 79.179 -173.4387
41.162160 79.163 -173.7399
41.460438 79.145 -174.0316
41.760877 79.128 -174.3120
42.063494 79.113 -174.5844
42.368303 79.102 -174.8562
42.675322 79.093 -175.1366
42.984565 79.088 -175.4335
43.296048 79.083 -175.7507
43.609789 79.079 -176.0869
43.925804 79.073 -176.4359
44.244108 79.065 -176.7883
44.564719 79.055 -177.1343
44.887654 79.043 -177.4656
45.212928 79.031 -177.7774
45.540560 79.018 -178.0687
45.870565 79.007 -178.3425
46.202962 78.996 -178.6041
46.537768 78.987 -178.8594
46.875000 78.978 -179.1131
47.214676 78.968 -179.3668
47.556813 78.957 -179.6196
47.901429 78.945 -179.8684
48.248542 78.931 179.8893
48.598171 78.916 179.6538
48.950334 78.901 179.4229
49.305048 78.887 179.1922
49.662333 78.873 178.9574
50.022206 78.858 178.7161
50.384688 78.844 178.4691
50.749796 78.828 178.2198
51.117550 78.813 177.9720
51.487969 78.799 177.7277
51.861072 78.786 177.4855
52.236879 78.776 177.2411
52.615409 78.766 176.9905
52.996681 78.758 176.7341
53.380717 78.748 176.4775
53.767536 78.738 176.2293
54.157158 78.728 175.9950
54.549603 78.719 175.7721
54.944892 78.711 175.5517
55.343045 78.702 175.3257
55.744084 78.690 175.0942
56.148028 78.673 174.8675
56.554900 78.650 174.6603
56.964720 78.623 174.4842
57.377510 78.594 174.3439
57.793291 78.564 174.2405
58.212085 78.535 174.1739
58.633914 78.511 174.1376
59.058799 78.495 174.1080
59.486764 78.490 174.0421
59.917829 78.493 173.8924
60.352019 78.495 173.6347
60.789354 78.488 173.2866
61.229859 78.468 172.8998
61.673556 78.437 172.5308
62.120468 78.402 172.2086
62.570618 78.370 171.9242
63.024031 78.345 171.6455
63.480729 78.324 171.3448
63.940736 78.303 171.0151
64.404077 78.280 170.6691
64.870776 78.255 170.3261
65.340856 78.227 170.0004
65.814343 78.200 169.6957
66.291261 78.174 169.4056
66.771635 78.150 169.1173
67.255489 78.126 168.8191
67.742850 78.101 168.5087
68.233743 78.072 168.1971
68.728193 78.039 167.9032
69.226226 78.005 167.6415
69.727867 77.972 167.4128
70.233144 77.942 167.2053
70.742083 77.917 167.0037
71.254709 77.894 166.7993
71.771050 77.873 166.5914
72.291132 77.853 166.3835
72.814984 77.833 166.1777
73.342631 77.814 165.9733
73.874102 77.793 165.7682
74.409424 77.771 165.5634
74.948626 77.745 165.3665
75.491734 77.715 165.1898
76.038779 77.683 165.0424
76.589787 77.652 164.9205
77.144788 77.623 164.8076
77.703811 77.595 164.6847
78.266885 77.567 164.5424
78.834039 77.536 164.3833
79.405303 77.503 164.2164
79.980706 77.467 164.0533
80.560280 77.430 163.9047
81.144053 77.394 163.7754
81.732056 77.361 163.6591
82.324320 77.332 163.5399
82.920876 77.308 163.4037
83.521755 77.284 163.2484
84.126988 77.261 163.0803
84.736607 77.237 162.9027
85.350643 77.214 162.7125
85.969129 77.188 162.5090
86.592097 77.158 162.3025
87.219579 77.124 162.1076
87.851608 77.088 161.9323
88.488217 77.051 161.7754
89.129439 77.012 161.6357
89.775308 76.974 161.5154
90.425856 76.937 161.4114
91.081119 76.902 161.3094
91.741131 76.868 161.1945
92.405925 76.832 161.0702
93.075536 76.792 160.9576
93.750000 76.752 160.8708
94.429351 76.713 160.7978
95.113625 76.675 160.7171
95.802858 76.635 160.6276
96.497085 76.592 160.5508
97.196342 76.549 160.5010
97.900667 76.509 160.4680
98.610096 76.471 160.4351
99.324665 76.435 160.4031
100.044413 76.401 160.3846
100.769376 76.370 160.3796
101.499592 76.344 160.3712
102.235100 76.321 160.3481
102.975938 76.297 160.3232
103.722144 76.274 160.3190
104.473757 76.255 160.3376
105.230817 76.242 160.3513
105.993363 76.234 160.3290
106.761435 76.228 160.2652
107.535072 76.220 160.1785
108.314315 76.212 160.0882
109.099206 76.206 159.9966
109.889783 76.201 159.8943
110.686090 76.196 159.7736
111.488167 76.188 159.6371
112.296056 76.174 159.4958
113.109800 76.155 159.3602
113.929440 76.130 159.2313
114.755020 76.102 159.0994
115.586582 76.070 158.9525
116.424170 76.034 158.7886
117.267827 75.994 158.6230
118.117598 75.953 158.4824
118.973527 75.917 158.3900
119.835658 75.892 158.3448
120.704037 75.880 158.3118
121.578708 75.881 158.2397
122.459718 75.883 158.0963
123.347111 75.878 157.8928
124.240935 75.860 157.6752
125.141236 75.828 157.4868
126.048061 75.788 157.3376
126.961458 75.745 157.2086
127.881473 75.702 157.0740
128.808154 75.659 156.9185
129.741551 75.616 156.7448
130.681712 75.573 156.5714
131.628686 75.533 156.4187
132.582521 75.499 156.2949
133.543269 75.471 156.1935
134.510979 75.450 156.0986
135.485701 75.433 155.9915
136.467486 75.417 155.8602
137.456386 75.395 155.7051
138.452451 75.365 155.5411
139.455735 75.323 155.3947
140.466288 75.273 155.2927
141.484165 75.217 155.2457
142.509418 75.163 155.2422
143.542100 75.113 155.2552
144.582265 75.071 155.2546
145.629968 75.033 155.2217
146.685262 74.998 155.1561
147.748204 74.963 155.0709
148.818849 74.926 154.9825
149.897251 74.887 154.9031
150.983469 74.846 154.8354
152.077557 74.804 154.7733
153.179574 74.760 154.7090
154.289576 74.716 154.6402
155.407622 74.671 154.5707
156.533770 74.626 154.5055
157.668078 74.581 154.4482
158.810606 74.537 154.4026
159.961413 74.493 154.3721
161.120559 74.449 154.3568
162.288105 74.405 154.3550
163.464112 74.362 154.3650
164.648640 74.319 154.3857
165.841752 74.277 154.4165
167.043510 74.236 154.4563
168.253976 74.196 154.5040
169.473213 74.158 154.5583
170.701286 74.120 154.6191
171.938258 74.083 154.6871
173.184194 74.046 154.7634
174.439158 74.009 154.8486
175.703216 73.971 154.9421
176.976434 73.933 155.0414
178.258878 73.895 155.1410
179.550615 73.858 155.2329
180.851713 73.822 155.3066
182.162239 73.788 155.3525
183.482262 73.753 155.3654
184.811850 73.720 155.3457
186.151073 73.688 155.2982
187.500000 73.659 155.2323
188.858702 73.633 155.1613
190.227250 73.612 155.0991
191.605715 73.593 155.0551
192.994169 73.575 155.0320
194.392685 73.553 155.0261
195.801334 73.526 155.0276
197.220191 73.494 155.0247
198.649330 73.457 155.0086
200.088825 73.418 154.9796
201.538751 73.379 154.9487
202.999184 73.341 154.9299
204.470200 73.305 154.9311
205.951875 73.270 154.9521
207.444287 73.234 154.9871
208.947514 73.196 155.0291
210.461634 73.157 155.0737
211.986726 73.117 155.1195
213.522869 73.077 155.1661
215.070144 73.037 155.2124
216.628631 72.997 155.2570
218.198411 72.957 155.3007
219.779567 72.917 155.3459
221.372180 72.877 155.3967
222.976334 72.838 155.4561
224.592112 72.797 155.5262
226.219600 72.756 155.6068
227.858880 72.715 155.6939
229.510039 72.674 155.7809
231.173164 72.634 155.8622
232.848340 72.596 155.9359
234.535655 72.560 156.0043
236.235197 72.525 156.0738
237.947054 72.491 156.1519
239.671317 72.455 156.2459
241.408074 72.417 156.3597
243.157416 72.377 156.4895
244.919435 72.335 156.6252
246.694223 72.295 156.7576
248.481871 72.257 156.8832
250.282473 72.220 157.0036
252.096123 72.185 157.1219
253.922915 72.150 157.2401
255.762945 72.117 157.3591
257.616309 72.083 157.4788
259.483103 72.051 157.5995
261.363424 72.018 157.7204
263.257372 71.986 157.8390
265.165043 71.954 157.9527
267.086538 71.921 158.0608
269.021957 71.888 158.1653
270.971401 71.855 158.2695
272.934972 71.823 158.3770
274.912771 71.790 158.4900
276.904902 71.758 158.6094
278.911469 71.726 158.7342
280.932577 71.695 158.8631
282.968330 71.663 158.9955
285.018835 71.630 159.1320
287.084199 71.598 159.2729
289.164530 71.566 159.4170
291.259935 71.534 159.5631
293.370525 71.502 159.7119
295.496408 71.470 159.8650
297.637697 71.437 160.0229
299.794503 71.405 160.1832
301.966937 71.373 160.3418
304.155114 71.342 160.4955
306.359147 71.312 160.6432
308.579152 71.282 160.7858
310.815244 71.253 160.9255
313.067539 71.223 161.0647
315.336156 71.193 161.2064
317.621211 71.161 161.3537
319.922826 71.129 161.5080
322.241118 71.097 161.6686
324.576210 71.065 161.8333
326.928223 71.033 161.9998
329.297280 71.002 162.1673
331.683504 70.971 162.3364
334.087019 70.942 162.5081
336.507952 70.912 162.6826
338.946427 70.884 162.8587
341.402572 70.856 163.0362
343.876516 70.829 163.2155
346.368387 70.801 163.3968
348.878315 70.773 163.5803
351.406431 70.745 163.7666
353.952867 70.715 163.9555
356.517756 70.685 164.1463
359.101230 70.655 164.3380
361.703426 70.625 164.5294
364.324478 70.596 164.7196
366.964523 70.568 164.9095
369.623699 70.541 165.1012
372.302145 70.514 165.2958
375.000000 70.488 165.4940
377.717405 70.461 165.6963
380.454501 70.435 165.9032
383.211431 70.408 166.1149
385.988339 70.381 166.3301
388.785369 70.356 166.5472
391.602668 70.330 166.7660
394.440383 70.304 166.9887
397.298660 70.278 167.2169
400.177650 70.252 167.4492
403.077502 70.227 167.6810
405.998368 70.201 167.9080
408.940400 70.175 168.1302
411.903750 70.148 168.3514
414.888575 70.121 168.5771
417.895028 70.094 168.8126
420.923268 70.067 169.0607
423.973452 70.043 169.3199
427.045738 70.021 169.5845
430.140287 70.002 169.8467
433.257261 69.983 170.1020
436.396822 69.965 170.3497
439.559133 69.947 170.5932
442.744360 69.928 170.8362
445.952668 69.907 171.0816
449.184225 69.886 171.3300
452.439199 69.864 171.5809
455.717760 69.842 171.8329
459.020079 69.820 172.0856
462.346327 69.799 172.3394
465.696680 69.778 172.5956
469.071310 69.758 172.8564
472.470394 69.738 173.1233
475.894109 69.720 173.3961
479.342634 69.702 173.6723
482.816148 69.684 173.9488
486.314833 69.666 174.2241
489.838871 69.648 174.4991
493.388445 69.630 174.7759
496.963741 69.613 175.0554
500.564945 69.595 175.3375
504.192245 69.578 175.6219
507.845830 69.561 175.9087
511.525890 69.545 176.1977
515.232618 69.528 176.4893
518.966206 69.513 176.7838
522.726849 69.497 177.0814
526.514743 69.483 177.3815
530.330086 69.468 177.6831
534.173076 69.454 177.9861
538.043915 69.441 178.2909
541.942803 69.428 178.5979
545.869944 69.416 178.9077
549.825542 69.404 179.2203
553.809805 69.392 179.5358
557.822939 69.381 179.8539
561.865154 69.370 -179.8260
565.936660 69.360 -179.5044
570.037671 69.349 -179.1815
574.168399 69.339 -178.8571
578.329060 69.328 -178.5308
582.519870 69.319 -178.2025
586.741049 69.309 -177.8725
590.992817 69.300 -177.5411
595.275394 69.292 -177.2076
599.589005 69.284 -176.8713
603.933874 69.277 -176.5312
608.310228 69.270 -176.1873
612.718295 69.263 -175.8403
617.158304 69.256 -175.4908
621.630488 69.250 -175.1392
626.135079 69.245 -174.7851
630.672311 69.239 -174.4281
635.242423 69.235 -174.0677
639.845651 69.230 -173.7035
644.482237 69.226 -173.3354
649.152421 69.223 -172.9642
653.856447 69.221 -172.5912
658.594560 69.219 -172.2180
663.367008 69.218 -171.8457
668.174039 69.219 -171.4739
673.015903 69.219 -171.1007
677.892854 69.221 -170.7242
682.805145 69.223 -170.3436
687.753032 69.225 -169.9588
692.736774 69.227 -169.5702
697.756631 69.231 -169.1782
702.812863 69.234 -168.7827
707.905735 69.239 -168.3837
713.035511 69.245 -167.9815
718.202461 69.251 -167.5765
723.406852 69.258 -167.1686
728.648956 69.266 -166.7571
733.929047 69.274 -166.3419
739.247399 69.283 -165.9233
744.604290 69.293 -165.5020
750.000000 69.304 -165.0794
755.434809 69.315 -164.6564
760.909001 69.328 -164.2329
766.422861 69.341 -163.8078
771.976677 69.356 -163.3804
777.570739 69.371 -162.9505
783.205337 69.388 -162.5177
788.880766 69.406 -162.0816
794.597321 69.424 -161.6414
800.355301 69.444 -161.1972
806.155005 69.465 -160.7498
811.996736 69.488 -160.3006
817.880799 69.511 -159.8509
823.807501 69.536 -159.4013
829.777150 69.562 -158.9522
835.790057 69.589 -158.5035
841.846536 69.618 -158.0550
847.946903 69.648 -157.6067
854.091476 69.679 -157.1587
860.280575 69.712 -156.7110
866.514523 69.746 -156.2639
872.793644 69.782 -155.8174
879.118267 69.819 -155.3718
885.488720 69.858 -154.9273
891.905336 69.899 -154.4846
898.368450 69.941 -154.0440
904.878398 69.984 -153.6057
911.435520 70.029 -153.1703
918.040157 70.075 -152.7392
924.692655 70.123 -152.3131
931.393359 70.172 -151.8916
938.142619 70.222 -151.4741
944.940787 70.273 -151.0604
951.788218 70.326 -150.6507
958.685268 70.380 -150.2454
965.632296 70.436 -149.8453
972.629666 70.493 -149.4514
979.677741 70.551 -149.0651
986.776890 70.611 -148.6874
993.927482 70.672 -148.3188
1001.129891 70.734 -147.9592
1008.384491 70.798 -147.6082
1015.691660 70.863 -147.2650
1023.051781 70.929 -146.9292
1030.465236 70.995 -146.6000
1037.932411 71.063 -146.2779
1045.453698 71.131 -145.9639
1053.029486 71.201 -145.6597
1060.660172 71.271 -145.3667
1068.346153 71.341 -145.0856
1076.087829 71.413 -144.8160
1083.885605 71.484 -144.5563
1091.739887 71.556 -144.3050
1099.651084 71.629 -144.0612
1107.619609 71.701 -143.8245
1115.645878 71.774 -143.5957
1123.730308 71.848 -143.3750
1131.873321 71.921 -143.1624
1140.075341 71.995 -142.9575
1148.336797 72.069 -142.7597
1156.658119 72.142 -142.5692
1165.039741 72.216 -142.3862
1173.482099 72.290 -142.2109
1181.985634 72.363 -142.0432
1190.550789 72.437 -141.8827
1199.178011 72.511 -141.7282
1207.867749 72.585 -141.5793
1216.620457 72.660 -141.4360
1225.436590 72.734 -141.2986
1234.316609 72.808 -141.1668
1243.260976 72.883 -141.0401
1252.270157 72.957 -140.9182
1261.344623 73.032 -140.8011
1270.484846 73.106 -140.6889
1279.691303 73.181 -140.5818
1288.964474 73.255 -140.4799
1298.304842 73.329 -140.3832
1307.712894 73.404 -140.2911
1317.189120 73.479 -140.2029
1326.734016 73.555 -140.1184
1336.348077 73.632 -140.0377
1346.031806 73.709 -139.9615
1355.785708 73.786 -139.8904
1365.610290 73.864 -139.8250
1375.506065 73.943 -139.7657
1385.473549 74.023 -139.7129
1395.513261 74.103 -139.6667
1405.625726 74.184 -139.6274
1415.811469 74.266 -139.5949
1426.071023 74.349 -139.5691
1436.404921 74.432 -139.5505
1446.813703 74.516 -139.5402
1457.297912 74.601 -139.5394
1467.858093 74.686 -139.5495
1478.494798 74.773 -139.5715
1489.208581 74.861 -139.6060
1500.000000 74.950 -139.6535
1510.869618 75.039 -139.7146
1521.818002 75.130 -139.7905
1532.845723 75.221 -139.8833
1543.953355 75.313 -139.9951
1555.141477 75.406 -140.1279
1566.410674 75.499 -140.2834
1577.761531 75.593 -140.4634
1589.194642 75.687 -140.6703
1600.710601 75.781 -140.9065
1612.310010 75.875 -141.1744
1623.993473 75.967 -141.4758
1635.761599 76.058 -141.8124
1647.615002 76.147 -142.1859
1659.554299 76.232 -142.5978
1671.580114 76.313 -143.0491
1683.693072 76.389 -143.5398
1695.893807 76.459 -144.0688
1708.182952 76.521 -144.6334
1720.561150 76.574 -145.2287
1733.029045 76.617 -145.8470
1745.587288 76.648 -146.4777
1758.236533 76.666 -147.1077
1770.977440 76.670 -147.7217
1783.810673 76.660 -148.3024
1796.736900 76.637 -148.8309
1809.756796 76.601 -149.2871
1822.871040 76.555 -149.6511
1836.080315 76.502 -149.9057
1849.385310 76.444 -150.0384
1862.786718 76.387 -150.0429
1876.285239 76.333 -149.9204
1889.881575 76.288 -149.6793
1903.576436 76.255 -149.3346
1917.370535 76.237 -148.9065
1931.264593 76.236 -148.4190
1945.259332 76.252 -147.8974
1959.355483 76.286 -147.3663
1973.553781 76.337 -146.8475
1987.854965 76.403 -146.3595
2002.259781 76.482 -145.9164
2016.768981 76.572 -145.5287
2031.383320 76.671 -145.2031
2046.103561 76.777 -144.9430
2060.930471 76.888 -144.7495
2075.864823 77.003 -144.6219
2090.907395 77.120 -144.5577
2106.058972 77.239 -144.5535
2121.320344 77.357 -144.6054
2136.692305 77.475 -144.7094
2152.175658 77.592 -144.8617
2167.771210 77.706 -145.0592
2183.479774 77.819 -145.2990
2199.302169 77.930 -145.5783
2215.239219 78.037 -145.8943
2231.291755 78.142 -146.2441
2247.460615 78.244 -146.6248
2263.746641 78.343 -147.0335
2280.150683 78.439 -147.4677
2296.673595 78.531 -147.9253
2313.316238 78.621 -148.4046
2330.079481 78.709 -148.9049
2346.964198 78.793 -149.4256
2363.971268 78.874 -149.9652
2381.101578 78.952 -150.5211
2398.356022 79.026 -151.0903
2415.735498 79.096 -151.6700
2433.240913 79.162 -152.2589
2450.873180 79.223 -152.8569
2468.633217 79.280 -153.4642
2486.521951 79.333 -154.0803
2504.540314 79.382 -154.7042
2522.689246 79.428 -155.3346
2540.969692 79.470 -155.9701
2559.382606 79.510 -156.6093
2577.928947 79.546 -157.2510
2596.609683 79.579 -157.8946
2615.425787 79.609 -158.5396
2634.378241 79.637 -159.1857
2653.468031 79.662 -159.8329
2672.696154 79.685 -160.4816
2692.063613 79.705 -161.1319
2711.571415 79.724 -161.7845
2731.220579 79.740 -162.4402
2751.012130 79.755 -163.1001
2770.947098 79.768 -163.7654
2791.026522 79.779 -164.4376
2811.251451 79.788 -165.1183
2831.622938 79.795 -165.8094
2852.142045 79.801 -166.5133
2872.809842 79.804 -167.2322
2893.627406 79.805 -167.9685
2914.595823 79.803 -168.7239
2935.716186 79.798 -169.4998
2956.989596 79.791 -170.2979
2978.417161 79.779 -171.1199
3000.000000 79.763 -171.9678
3021.739237 79.742 -172.8440
3043.636005 79.716 -173.7505
3065.691446 79.683 -174.6890
3087.906710 79.643 -175.6608
3110.282955 79.595 -176.6667
3132.821347 79.537 -177.7065
3155.523062 79.467 -178.7793
3178.389283 79.385 -179.8827
3201.421202 79.288 178.9872
3224.620020 79.174 177.8371
3247.986946 79.042 176.6765
3271.523198 78.888 175.5188
3295.230004 78.711 174.3820
3319.108599 78.508 173.2901
3343.160228 78.279 172.2723
3367.386145 78.021 171.3630
3391.787613 77.735 170.6008
3416.365904 77.424 170.0270
3441.122300 77.089 169.6823
3466.058091 76.737 169.6034
3491.174576 76.374 169.8206
3516.473066 76.007 170.3557
3541.954880 75.647 171.2200
3567.621345 75.301 172.4104
3593.473800 74.979 173.9080
3619.513592 74.690 175.6772
3645.742080 74.440 177.6687
3672.160630 74.234 179.8228
3698.770620 74.075 -177.9240
3725.573436 73.962 -175.6334
3752.570477 73.894 -173.3604
3779.763150 73.866 -171.1500
3807.152872 73.874 -169.0353
3834.741071 73.912 -167.0376
3862.529185 73.976 -165.1685
3890.518664 74.060 -163.4320
3918.710966 74.162 -161.8271
3947.107561 74.278 -160.3495
3975.709929 74.404 -158.9930
4004.519563 74.540 -157.7503
4033.537962 74.682 -156.6145
4062.766641 74.831 -155.5797
4092.207123 74.986 -154.6409
4121.860942 75.145 -153.7940
4151.729646 75.308 -153.0353
4181.814790 75.475 -152.3619
4212.117944 75.645 -151.7721
4242.640687 75.818 -151.2654
4273.384610 75.994 -150.8420
4304.351317 76.171 -150.5024
4335.542421 76.350 -150.2476
4366.959549 76.529 -150.0790
4398.604338 76.709 -149.9982
4430.478438 76.888 -150.0065
4462.583511 77.066 -150.1051
4494.921231 77.241 -150.2939
4527.493283 77.413 -150.5723
4560.301365 77.580 -150.9395
4593.347189 77.743 -151.3939
4626.632476 77.899 -151.9342
4660.158962 78.048 -152.5581
4693.928395 78.189 -153.2629
4727.942535 78.320 -154.0452
4762.203156 78.441 -154.9010
4796.712043 78.551 -155.8256
4831.470996 78.649 -156.8134
4866.481826 78.734 -157.8572
4901.746360 78.805 -158.9480
4937.266434 78.860 -160.0747
4973.043902 78.899 -161.2259
5009.080628 78.921 -162.3907
5045.378492 78.925 -163.5587
5081.939384 78.912 -164.7190
5118.765212 78.883 -165.8600
5155.857894 78.837 -166.9704
5193.219366 78.775 -168.0384
5230.851574 78.699 -169.0532
5268.756481 78.610 -170.0046
5306.936062 78.509 -170.8835
5345.392309 78.397 -171.6823
5384.127225 78.276 -172.3948
5423.142830 78.147 -173.0161
5462.441159 78.011 -173.5431
5502.024259 77.871 -173.9745
5541.894195 77.729 -174.3114
5582.053045 77.586 -174.5557
5622.502902 77.444 -174.7095
5663.245876 77.304 -174.7751
5704.284090 77.168 -174.7554
5745.619684 77.035 -174.6538
5787.254813 76.908 -174.4739
5829.191647 76.787 -174.2198
5871.432373 76.673 -173.8960
5913.979192 76.565 -173.5073
5956.834323 76.465 -173.0582
6000.000000 76.374 -172.5534
6043.478473 76.290 -171.9973
6087.272010 76.216 -171.3932
6131.382892 76.150 -170.7438
6175.813420 76.094 -170.0515
6220.565910 76.047 -169.3185
6265.642695 76.011 -168.5465
6311.046124 75.986 -167.7373
6356.778566 75.972 -166.8924
6402.842404 75.971 -166.0140
6449.240040 75.983 -165.1054
6495.973891 76.009 -164.1710
6543.046396 76.051 -163.2172
6590.460007 76.109 -162.2520
6638.217197 76.184 -161.2843
6686.320456 76.276 -160.3233
6734.772290 76.386 -159.3778
6783.575226 76.514 -158.4561
6832.731809 76.662 -157.5669
6882.244600 76.829 -156.7196
6932.116181 77.016 -155.9243
6982.349153 77.225 -155.1927
7032.946133 77.457 -154.5387
7083.909760 77.712 -153.9796
7135.242690 77.991 -153.5360
7186.947600 78.295 -153.2326
7239.027185 78.622 -153.0971
7291.484160 78.973 -153.1601
7344.321260 79.344 -153.4544
7397.541239 79.732 -154.0151
7451.146872 80.133 -154.8789
7505.140954 80.541 -156.0825
7559.526299 80.948 -157.6593
7614.305743 81.346 -159.6358
7669.482141 81.721 -162.0271
7725.058371 82.063 -164.8326
7781.037328 82.358 -168.0325
7837.421932 82.591 -171.5853
7894.215122 82.752 -175.4267
7951.419859 82.830 -179.4712
8009.039125 82.820 176.3828
8067.075924 82.717 172.2462
8125.533282 82.524 168.2313
8184.414245 82.248 164.4424
8243.721885 81.896 160.9694
8303.459292 81.483 157.8803
8363.629581 81.021 155.2193
8424.235888 80.526 153.0055
8485.281374 80.009 151.2359
8546.769221 79.485 149.8907
8608.702634 78.961 148.9396
8671.084842 78.447 148.3464
8733.919097 77.948 148.0735
8797.208675 77.468 148.0826
8860.956876 77.012 148.3349
8925.167022 76.581 148.7908
8989.842461 76.178 149.4122
9054.986566 75.803 150.1632
9120.602731 75.456 151.0113
9186.694378 75.136 151.9265
9253.264952 74.841 152.8814
9320.317925 74.570 153.8503
9387.856790 74.320 154.8095
9455.885071 74.089 155.7380
9524.406312 73.872 156.6190
9593.424086 73.667 157.4406
9662.941992 73.469 158.1976
9732.963653 73.272 158.8928
9803.492719 73.074 159.5386
9874.532869 72.870 160.1582
9946.087805 72.658 160.7858
10018.161257 72.437 161.4642
10090.756983 72.209 162.2390
10163.878768 71.980 163.1479
10237.530423 71.758 164.2095
10311.715789 71.552 165.4139
10386.438732 71.373 166.7209
10461.703149 71.227 168.0650
10537.512962 71.115 169.3677
10613.872125 71.036 170.5523
10690.784618 70.984 171.5565
10768.254450 70.951 172.3408
10846.285661 70.925 172.8902
10924.882318 70.897 173.2126
11004.048518 70.859 173.3349
11083.788390 70.803 173.2977
11164.106090 70.724 173.1506
11245.005805 70.621 172.9474
11326.491752 70.493 172.7419
11408.568180 70.341 172.5849
11491.239368 70.170 172.5204
11574.509626 69.985 172.5829
11658.383294 69.794 172.7935
11742.864745 69.601 173.1577
11827.958384 69.416 173.6645
11913.668646 69.242 174.2910
12000.000000 69.082 175.0093
12086.956947 68.938 175.7939
12174.544019 68.811 176.6254
12262.765784 68.698 177.4891
12351.626840 68.599 178.3755
12441.131819 68.512 179.2799
12531.285389 68.435 -179.7962
12622.092249 68.366 -178.8459
12713.557132 68.303 -177.8577
12805.684808 68.246 -176.8185
12898.480079 68.195 -175.7151
12991.947783 68.151 -174.5356
13086.092792 68.116 -173.2707
13180.920015 68.092 -171.9142
13276.434395 68.081 -170.4639
13372.640911 68.086 -168.9225
13469.544580 68.111 -167.2973
13567.150452 68.157 -165.6005
13665.463617 68.228 -163.8485
13764.489200 68.325 -162.0614
13864.232362 68.450 -160.2614
13964.698305 68.604 -158.4695
14065.892266 68.790 -156.7085
14167.819519 69.009 -155.0083
14270.485380 69.263 -153.4096
14373.895200 69.555 -151.9641
14478.054370 69.882 -150.7330
14582.968320 70.244 -149.7836
14688.642520 70.635 -149.1870
14795.082478 71.049 -149.0131
14902.293745 71.474 -149.3265
15010.281908 71.899 -150.1810
15119.052599 72.307 -151.6140
15228.611486 72.680 -153.6398
15338.964283 72.998 -156.2425
15450.116741 73.241 -159.3685
15562.074656 73.391 -162.9248
15674.843864 73.436 -166.7826
15788.430244 73.367 -170.7901
15902.839718 73.185 -174.7887
16018.078250 72.898 -178.6317
16134.151848 72.520 177.7993
16251.066563 72.070 174.5815
16368.828491 71.570 171.7449
16487.443769 71.043 169.2720
16606.918584 70.509 167.1046
16727.259161 69.987 165.1544
16848.471777 69.486 163.3192
16970.562748 69.013 161.4990
17093.538442 68.566 159.6110
17217.405268 68.141 157.5995
17342.169684 67.728 155.4397
17467.838194 67.318 153.1393
17594.417350 66.899 150.7359
17721.913751 66.463 148.2932
17850.334044 66.004 145.8936
17979.684923 65.518 143.6293
18109.973131 65.007 141.5923
18241.205462 64.474 139.8661
18373.388756 63.923 138.5216
18506.529905 63.360 137.6184
18640.635849 62.791 137.2050
18775.713581 62.222 137.3172
18911.770141 61.661 137.9713
19048.812624 61.113 139.1565
19186.848172 60.585 140.8299
19325.883983 60.084 142.9114
19465.927305 59.618 145.2773
19606.985439 59.200 147.7486
19749.065738 58.847 150.0759
19892.175609 58.588 151.9387
20036.322514 58.450 152.9925
