* Measurement data measured by REW V5.31.3
* Source: Headset (CX31993 HIFI AUDIO), MICROPHONE (Master Volume), R, volume: 0.250
* Format: 256k Log Swept Sine, 1 sweep at -12.0 dBFS with no timing reference
* Dated: 03 3, 25 11:26:15 AM
* REW Settings:
*  C-weighting compensation: Off
*  Target level: 75.0 dB
* Note: ; 
* Measurement: SGOR Luna 400 R
* Smoothing: 1/12 octave
* Frequency Step: 96 ppo
* Start Frequency: 0.36621094 Hz
*
* Freq(Hz) SPL(dB) Phase(degrees)
0.366211 36.719 147.4232
0.368865 36.718 147.3610
0.371538 36.718 147.2682
0.374230 36.717 147.1522
0.376942 36.716 147.0196
0.379673 36.715 146.8750
0.382424 36.714 146.7216
0.385196 36.713 146.5613
0.387987 36.712 146.3952
0.390798 36.710 146.2237
0.393630 36.709 146.0473
0.396483 36.708 145.8660
0.399356 36.707 145.6798
0.402250 36.706 145.4888
0.405165 36.705 145.2928
0.408101 36.703 145.0919
0.411058 36.702 144.8859
0.414037 36.701 144.6748
0.417037 36.700 144.4584
0.420059 36.699 144.2368
0.423103 36.697 144.0099
0.426169 36.696 143.7775
0.429257 36.695 143.5396
0.432368 36.694 143.2961
0.435501 36.692 143.0469
0.438656 36.691 142.7920
0.441835 36.690 142.5313
0.445037 36.688 142.2646
0.448262 36.687 141.9920
0.451510 36.686 141.7133
0.454782 36.684 141.4284
0.458077 36.683 141.1373
0.461397 36.682 140.8399
0.464740 36.680 140.5361
0.468108 36.679 140.2258
0.471500 36.678 139.9089
0.474917 36.676 139.5854
0.478358 36.675 139.2552
0.481825 36.673 138.9181
0.485316 36.672 138.5742
0.488833 36.671 138.2233
0.492375 36.669 137.8653
0.495943 36.668 137.5002
0.499537 36.666 137.1280
0.503157 36.665 136.7484
0.506803 36.663 136.3614
0.510475 36.662 135.9671
0.514175 36.660 135.5652
0.517900 36.659 135.1557
0.521653 36.657 134.7385
0.525434 36.656 134.3136
0.529241 36.654 133.8809
0.533076 36.653 133.4403
0.536939 36.651 132.9918
0.540830 36.650 132.5353
0.544749 36.648 132.0707
0.548696 36.646 131.5980
0.552673 36.645 131.1171
0.556677 36.643 130.6279
0.560711 36.641 130.1304
0.564774 36.640 129.6246
0.568867 36.638 129.1104
0.572989 36.636 128.5878
0.577141 36.635 128.0567
0.581324 36.633 127.5170
0.585536 36.631 126.9688
0.589779 36.630 126.4120
0.594053 36.628 125.8466
0.598358 36.626 125.2726
0.602694 36.624 124.6899
0.607061 36.623 124.0985
0.611460 36.621 123.4984
0.615891 36.619 122.8897
0.620354 36.617 122.2722
0.624849 36.615 121.6461
0.629377 36.614 121.0113
0.633938 36.612 120.3678
0.638532 36.610 119.7157
0.643159 36.608 119.0549
0.647819 36.606 118.3855
0.652514 36.604 117.7075
0.657242 36.602 117.0210
0.662005 36.600 116.3260
0.666802 36.598 115.6225
0.671634 36.596 114.9106
0.676501 36.594 114.1903
0.681403 36.593 113.4618
0.686341 36.591 112.7250
0.691314 36.589 111.9800
0.696324 36.587 111.2269
0.701370 36.586 110.4658
0.706452 36.585 109.6966
0.711571 36.585 108.9196
0.716728 36.587 108.1346
0.721921 36.592 107.3417
0.727153 36.601 106.5409
0.732422 36.614 105.7321
0.737729 36.634 104.9154
0.743075 36.660 104.0908
0.748460 36.691 103.2585
0.753883 36.725 102.4186
0.759346 36.764 101.5714
0.764849 36.804 100.7175
0.770391 36.847 99.8570
0.775974 36.893 98.9904
0.781597 36.940 98.1183
0.787261 36.990 97.2410
0.792966 37.041 96.3589
0.798712 37.094 95.4727
0.804500 37.150 94.5826
0.810329 37.207 93.6893
0.816201 37.266 92.7931
0.822116 37.327 91.8946
0.828073 37.390 90.9943
0.834074 37.455 90.0925
0.840118 37.521 89.1898
0.846206 37.590 88.2866
0.852338 37.660 87.3834
0.858514 37.733 86.4806
0.864735 37.807 85.5786
0.871001 37.882 84.6778
0.877313 37.960 83.7786
0.883670 38.039 82.8815
0.890074 38.120 81.9868
0.896524 38.203 81.0947
0.903020 38.287 80.2058
0.909564 38.373 79.3201
0.916155 38.461 78.4382
0.922794 38.550 77.5602
0.929481 38.641 76.6863
0.936216 38.733 75.8169
0.943000 38.826 74.9520
0.949834 38.921 74.0920
0.956717 39.018 73.2370
0.963649 39.115 72.3871
0.970632 39.214 71.5425
0.977666 39.314 70.7032
0.984750 39.415 69.8694
0.991886 39.517 69.0411
0.999074 39.620 68.2185
1.006314 39.725 67.4014
1.013606 39.829 66.5900
1.020951 39.935 65.7843
1.028349 40.042 64.9842
1.035801 40.149 64.1897
1.043307 40.256 63.4009
1.050867 40.364 62.6176
1.058482 40.473 61.8399
1.066152 40.581 61.0678
1.073878 40.691 60.3013
1.081660 40.800 59.5407
1.089498 40.910 58.7862
1.097393 41.021 58.0382
1.105345 41.133 57.2972
1.113355 41.247 56.5639
1.121423 41.362 55.8386
1.129549 41.479 55.1217
1.137734 41.598 54.4132
1.145979 41.719 53.7133
1.154283 41.842 53.0217
1.162647 41.967 52.3384
1.171072 42.094 51.6634
1.179558 42.223 50.9962
1.188106 42.353 50.3369
1.196715 42.486 49.6851
1.205387 42.620 49.0408
1.214122 42.757 48.4036
1.222920 42.894 47.7735
1.231782 43.034 47.1501
1.240708 43.175 46.5334
1.249699 43.317 45.9230
1.258754 43.461 45.3188
1.267876 43.606 44.7205
1.277063 43.753 44.1281
1.286318 43.900 43.5412
1.295639 44.049 42.9597
1.305027 44.199 42.3834
1.314484 44.349 41.8120
1.324009 44.501 41.2455
1.333604 44.653 40.6835
1.343268 44.805 40.1260
1.353002 44.958 39.5727
1.362806 45.112 39.0235
1.372681 45.265 38.4783
1.382628 45.419 37.9367
1.392647 45.573 37.3988
1.402739 45.726 36.8645
1.412904 45.879 36.3335
1.423142 46.032 35.8061
1.433455 46.185 35.2824
1.443843 46.337 34.7627
1.454305 46.488 34.2475
1.464844 46.639 33.7376
1.475459 46.790 33.2340
1.486150 46.941 32.7373
1.496920 47.092 32.2481
1.507767 47.243 31.7665
1.518693 47.394 31.2924
1.529698 47.545 30.8255
1.540783 47.697 30.3652
1.551948 47.849 29.9111
1.563194 48.001 29.4625
1.574521 48.154 29.0188
1.585931 48.307 28.5795
1.597423 48.460 28.1439
1.608999 48.614 27.7114
1.620658 48.768 27.2815
1.632402 48.922 26.8536
1.644232 49.076 26.4271
1.656146 49.231 26.0015
1.668147 49.385 25.5763
1.680235 49.540 25.1509
1.692411 49.696 24.7250
1.704675 49.851 24.2978
1.717028 50.007 23.8692
1.729470 50.163 23.4385
1.742003 50.319 23.0054
1.754626 50.475 22.5695
1.767341 50.632 22.1307
1.780147 50.788 21.6887
1.793047 50.945 21.2436
1.806040 51.102 20.7958
1.819128 51.259 20.3458
1.832310 51.416 19.8947
1.845587 51.573 19.4437
1.858961 51.730 18.9938
1.872432 51.887 18.5458
1.886001 52.044 18.1003
1.899667 52.201 17.6573
1.913433 52.358 17.2168
1.927299 52.515 16.7784
1.941265 52.672 16.3417
1.955332 52.828 15.9064
1.969501 52.985 15.4720
1.983773 53.142 15.0381
1.998148 53.298 14.6040
2.012627 53.455 14.1694
2.027212 53.611 13.7338
2.041902 53.768 13.2966
2.056698 53.925 12.8575
2.071602 54.081 12.4159
2.086614 54.238 11.9714
2.101734 54.394 11.5236
2.116964 54.551 11.0721
2.132304 54.708 10.6166
2.147756 54.865 10.1571
2.163320 55.022 9.6935
2.178996 55.178 9.2263
2.194786 55.335 8.7559
2.210690 55.492 8.2834
2.226710 55.649 7.8096
2.242845 55.805 7.3352
2.259098 55.961 6.8608
2.275468 56.117 6.3864
2.291957 56.273 5.9121
2.308566 56.429 5.4377
2.325295 56.584 4.9628
2.342145 56.739 4.4871
2.359117 56.894 4.0103
2.376212 57.048 3.5319
2.393431 57.203 3.0515
2.410775 57.357 2.5685
2.428244 57.511 2.0827
2.445840 57.664 1.5934
2.463564 57.818 1.1003
2.481416 57.971 0.6030
2.499397 58.124 0.1012
2.517509 58.277 -0.4054
2.535752 58.430 -0.9168
2.554127 58.582 -1.4328
2.572635 58.734 -1.9530
2.591277 58.886 -2.4767
2.610055 59.037 -3.0035
2.628968 59.188 -3.5328
2.648019 59.339 -4.0644
2.667208 59.489 -4.5979
2.686535 59.638 -5.1334
2.706003 59.787 -5.6710
2.725612 59.935 -6.2105
2.745363 60.083 -6.7523
2.765257 60.231 -7.2966
2.785295 60.378 -7.8434
2.805478 60.524 -8.3932
2.825808 60.670 -8.9461
2.846285 60.816 -9.5026
2.866910 60.961 -10.0629
2.887685 61.105 -10.6272
2.908611 61.249 -11.1959
2.929688 61.393 -11.7691
2.950917 61.535 -12.3467
2.972301 61.677 -12.9286
2.993839 61.819 -13.5145
3.015534 61.959 -14.1040
3.037386 62.099 -14.6969
3.059396 62.238 -15.2926
3.081565 62.377 -15.8908
3.103896 62.514 -16.4913
3.126388 62.651 -17.0938
3.149043 62.787 -17.6980
3.171862 62.922 -18.3040
3.194847 63.057 -18.9116
3.217998 63.191 -19.5209
3.241317 63.324 -20.1322
3.264805 63.456 -20.7458
3.288463 63.588 -21.3621
3.312293 63.718 -21.9816
3.336295 63.848 -22.6046
3.360471 63.976 -23.2312
3.384822 64.104 -23.8612
3.409350 64.231 -24.4943
3.434056 64.356 -25.1298
3.458940 64.481 -25.7672
3.484005 64.604 -26.4059
3.509252 64.727 -27.0453
3.534681 64.849 -27.6848
3.560295 64.970 -28.3242
3.586094 65.089 -28.9633
3.612081 65.208 -29.6021
3.638255 65.326 -30.2410
3.664620 65.443 -30.8805
3.691175 65.559 -31.5214
3.717923 65.674 -32.1641
3.744864 65.787 -32.8088
3.772001 65.900 -33.4553
3.799335 66.011 -34.1031
3.826866 66.121 -34.7514
3.854597 66.230 -35.3995
3.882529 66.338 -36.0465
3.910664 66.445 -36.6917
3.939002 66.551 -37.3345
3.967546 66.656 -37.9747
3.996296 66.761 -38.6122
4.025255 66.864 -39.2473
4.054423 66.966 -39.8809
4.083804 67.067 -40.5134
4.113396 67.167 -41.1452
4.143204 67.265 -41.7763
4.173227 67.363 -42.4064
4.203468 67.459 -43.0348
4.233928 67.555 -43.6610
4.264609 67.650 -44.2840
4.295512 67.743 -44.9034
4.326639 67.836 -45.5185
4.357992 67.929 -46.1292
4.389572 68.020 -46.7357
4.421380 68.111 -47.3382
4.453419 68.200 -47.9372
4.485691 68.289 -48.5332
4.518196 68.377 -49.1263
4.550936 68.464 -49.7163
4.583914 68.551 -50.3029
4.617131 68.636 -50.8858
4.650589 68.722 -51.4645
4.684289 68.806 -52.0387
4.718233 68.890 -52.6080
4.752424 68.974 -53.1725
4.786862 69.057 -53.7323
4.821549 69.140 -54.2877
4.856488 69.222 -54.8391
4.891680 69.304 -55.3865
4.927127 69.385 -55.9303
4.962831 69.466 -56.4705
4.998794 69.547 -57.0071
5.035017 69.627 -57.5402
5.071503 69.707 -58.0697
5.108253 69.787 -58.5957
5.145270 69.867 -59.1181
5.182555 69.947 -59.6373
5.220110 70.026 -60.1532
5.257937 70.106 -60.6663
5.296038 70.185 -61.1768
5.334415 70.264 -61.6850
5.373071 70.343 -62.1912
5.412006 70.421 -62.6957
5.451224 70.500 -63.1987
5.490725 70.578 -63.7004
5.530514 70.657 -64.2008
5.570590 70.735 -64.7001
5.610957 70.813 -65.1984
5.651616 70.891 -65.6959
5.692570 70.969 -66.1927
5.733821 71.046 -66.6890
5.775370 71.123 -67.1851
5.817221 71.200 -67.6811
5.859375 71.277 -68.1773
5.901834 71.353 -68.6738
5.944602 71.429 -69.1706
5.987679 71.504 -69.6677
6.031068 71.580 -70.1651
6.074771 71.654 -70.6624
6.118792 71.728 -71.1598
6.163131 71.802 -71.6571
6.207792 71.875 -72.1543
6.252776 71.948 -72.6516
6.298086 72.019 -73.1489
6.343725 72.091 -73.6462
6.389694 72.161 -74.1432
6.435996 72.231 -74.6397
6.482634 72.300 -75.1353
6.529610 72.369 -75.6296
6.576926 72.437 -76.1226
6.624585 72.504 -76.6141
6.672590 72.571 -77.1042
6.720942 72.637 -77.5929
6.769645 72.702 -78.0798
6.818700 72.766 -78.5649
6.868111 72.830 -79.0478
6.917881 72.894 -79.5282
6.968010 72.957 -80.0062
7.018504 73.019 -80.4816
7.069362 73.081 -80.9546
7.120590 73.142 -81.4252
7.172189 73.203 -81.8934
7.224161 73.263 -82.3594
7.276511 73.323 -82.8230
7.329239 73.383 -83.2844
7.382350 73.442 -83.7437
7.435845 73.501 -84.2009
7.489729 73.560 -84.6563
7.544002 73.618 -85.1101
7.598669 73.677 -85.5626
7.653732 73.734 -86.0139
7.709194 73.792 -86.4642
7.765058 73.849 -86.9137
7.821327 73.906 -87.3623
7.878004 73.962 -87.8102
7.935091 74.018 -88.2575
7.992592 74.074 -88.7041
8.050510 74.129 -89.1501
8.108847 74.184 -89.5955
8.167607 74.238 -90.0403
8.226793 74.291 -90.4840
8.286408 74.344 -90.9264
8.346454 74.397 -91.3672
8.406936 74.448 -91.8059
8.467856 74.499 -92.2424
8.529218 74.550 -92.6763
8.591024 74.599 -93.1072
8.653278 74.649 -93.5348
8.715983 74.698 -93.9583
8.779143 74.746 -94.3775
8.842760 74.794 -94.7921
8.906839 74.843 -95.2019
8.971381 74.891 -95.6070
9.036392 74.939 -96.0075
9.101873 74.987 -96.4035
9.167829 75.036 -96.7953
9.234263 75.085 -97.1832
9.301178 75.136 -97.5680
9.368578 75.186 -97.9509
9.436467 75.238 -98.3331
9.504847 75.292 -98.7160
9.573723 75.346 -99.1008
9.643099 75.401 -99.4889
9.712976 75.458 -99.8821
9.783361 75.516 -100.2825
9.854255 75.575 -100.6918
9.925663 75.634 -101.1120
9.997588 75.695 -101.5443
10.070035 75.756 -101.9902
10.143007 75.817 -102.4508
10.216507 75.877 -102.9274
10.290540 75.937 -103.4209
10.365109 75.996 -103.9313
10.440219 76.054 -104.4584
10.515873 76.110 -105.0014
10.592076 76.163 -105.5594
10.668830 76.214 -106.1310
10.746141 76.261 -106.7144
10.824012 76.305 -107.3072
10.902447 76.345 -107.9062
10.981451 76.381 -108.5080
11.061027 76.413 -109.1096
11.141180 76.441 -109.7075
11.221913 76.465 -110.2976
11.303232 76.484 -110.8757
11.385140 76.500 -111.4379
11.467641 76.512 -111.9806
11.550741 76.521 -112.5008
11.634442 76.528 -112.9953
11.718750 76.533 -113.4613
11.803669 76.537 -113.8973
11.889203 76.540 -114.3022
11.975357 76.544 -114.6764
12.062136 76.550 -115.0205
12.149543 76.558 -115.3365
12.237583 76.569 -115.6268
12.326262 76.583 -115.8956
12.415583 76.601 -116.1474
12.505552 76.624 -116.3874
12.596172 76.651 -116.6205
12.687449 76.683 -116.8526
12.779387 76.720 -117.0891
12.871992 76.760 -117.3353
12.965268 76.804 -117.5953
13.059220 76.851 -117.8726
13.153852 76.900 -118.1699
13.249170 76.951 -118.4889
13.345179 77.002 -118.8299
13.441884 77.054 -119.1921
13.539289 77.104 -119.5742
13.637401 77.153 -119.9737
13.736223 77.201 -120.3879
13.835761 77.247 -120.8134
13.936021 77.290 -121.2466
14.037007 77.332 -121.6843
14.138725 77.372 -122.1236
14.241180 77.410 -122.5620
14.344377 77.447 -122.9977
14.448323 77.484 -123.4297
14.553021 77.520 -123.8582
14.658478 77.556 -124.2838
14.764700 77.593 -124.7081
14.871691 77.631 -125.1333
14.979457 77.669 -125.5621
15.088005 77.708 -125.9971
15.197339 77.747 -126.4408
15.307465 77.786 -126.8954
15.418389 77.825 -127.3622
15.530117 77.863 -127.8419
15.642655 77.899 -128.3339
15.756008 77.933 -128.8366
15.870182 77.964 -129.3475
15.985184 77.992 -129.8632
16.101019 78.017 -130.3794
16.217694 78.039 -130.8917
16.335214 78.058 -131.3958
16.453586 78.073 -131.8872
16.572815 78.087 -132.3626
16.692909 78.099 -132.8195
16.813872 78.111 -133.2569
16.935713 78.122 -133.6750
17.058436 78.135 -134.0755
17.182048 78.149 -134.4619
17.306556 78.166 -134.8384
17.431967 78.185 -135.2100
17.558286 78.207 -135.5821
17.685521 78.230 -135.9599
17.813677 78.256 -136.3474
17.942762 78.282 -136.7475
18.072783 78.308 -137.1617
18.203746 78.333 -137.5895
18.335658 78.356 -138.0285
18.468526 78.377 -138.4750
18.602356 78.395 -138.9239
18.737156 78.410 -139.3695
18.872934 78.423 -139.8061
19.009695 78.433 -140.2285
19.147447 78.442 -140.6328
19.286197 78.451 -141.0170
19.425953 78.461 -141.3810
19.566721 78.472 -141.7272
19.708510 78.486 -142.0601
19.851326 78.503 -142.3858
19.995177 78.523 -142.7114
20.140070 78.547 -143.0443
20.286013 78.573 -143.3910
20.433014 78.601 -143.7563
20.581080 78.629 -144.1428
20.730219 78.656 -144.5501
20.880439 78.680 -144.9750
21.031747 78.701 -145.4116
21.184152 78.718 -145.8522
21.337661 78.730 -146.2877
21.492282 78.739 -146.7094
21.648024 78.745 -147.1092
21.804895 78.749 -147.4817
21.962902 78.753 -147.8242
22.122054 78.758 -148.1379
22.282360 78.767 -148.4275
22.443827 78.779 -148.7011
22.606464 78.797 -148.9690
22.770280 78.819 -149.2422
22.935283 78.846 -149.5311
23.101481 78.875 -149.8440
23.268884 78.905 -150.1855
23.437500 78.934 -150.5565
23.607338 78.961 -150.9534
23.778406 78.984 -151.3696
23.950714 79.002 -151.7957
24.124271 79.016 -152.2217
24.299086 79.025 -152.6382
24.475167 79.032 -153.0380
24.652524 79.036 -153.4173
24.831166 79.041 -153.7759
25.011103 79.046 -154.1176
25.192344 79.054 -154.4488
25.374898 79.064 -154.7774
25.558775 79.075 -155.1111
25.743984 79.088 -155.4555
25.930536 79.101 -155.8132
26.118439 79.112 -156.1831
26.307704 79.121 -156.5608
26.498341 79.127 -156.9397
26.690359 79.131 -157.3129
26.883768 79.133 -157.6743
27.078579 79.134 -158.0211
27.274801 79.136 -158.3537
27.472446 79.140 -158.6766
27.671522 79.147 -158.9972
27.872042 79.156 -159.3241
28.074014 79.167 -159.6648
28.277450 79.179 -160.0242
28.482360 79.189 -160.4028
28.688755 79.197 -160.7966
28.896645 79.202 -161.1978
29.106042 79.202 -161.5966
29.316957 79.200 -161.9831
29.529400 79.195 -162.3500
29.743382 79.190 -162.6936
29.958915 79.186 -163.0151
30.176009 79.183 -163.3195
30.394677 79.184 -163.6145
30.614929 79.187 -163.9080
30.836778 79.193 -164.2062
31.060234 79.199 -164.5120
31.285309 79.205 -164.8250
31.512015 79.211 -165.1418
31.740364 79.216 -165.4582
31.970368 79.220 -165.7711
32.202039 79.225 -166.0802
32.435388 79.232 -166.3883
32.670428 79.239 -166.7012
32.907171 79.247 -167.0255
33.145630 79.255 -167.3667
33.385817 79.262 -167.7267
33.627745 79.266 -168.1028
33.871425 79.265 -168.4873
34.116871 79.259 -168.8699
34.364096 79.249 -169.2391
34.613113 79.235 -169.5857
34.863934 79.219 -169.9048
35.116572 79.204 -170.1969
35.371041 79.190 -170.4680
35.627354 79.180 -170.7271
35.885525 79.171 -170.9842
36.145566 79.165 -171.2473
36.407492 79.160 -171.5206
36.671316 79.155 -171.8044
36.937051 79.150 -172.0956
37.204712 79.143 -172.3900
37.474313 79.137 -172.6843
37.745867 79.130 -172.9774
38.019389 79.124 -173.2708
38.294893 79.119 -173.5679
38.572394 79.114 -173.8718
38.851905 79.109 -174.1844
39.133442 79.104 -174.5047
39.417019 79.097 -174.8295
39.702651 79.089 -175.1544
39.990353 79.079 -175.4750
40.280140 79.069 -175.7892
40.572026 79.058 -176.0968
40.866028 79.048 -176.3995
41.162160 79.038 -176.6994
41.460438 79.027 -176.9981
41.760877 79.016 -177.2952
42.063494 79.004 -177.5893
42.368303 78.992 -177.8787
42.675322 78.979 -178.1625
42.984565 78.965 -178.4411
43.296048 78.952 -178.7158
43.609789 78.938 -178.9875
43.925804 78.924 -179.2559
44.244108 78.909 -179.5188
44.564719 78.894 -179.7735
44.887654 78.879 179.9815
45.212928 78.866 179.7450
45.540560 78.855 179.5118
45.870565 78.846 179.2746
46.202962 78.839 179.0256
46.537768 78.834 178.7601
46.875000 78.828 178.4776
47.214676 78.821 178.1819
47.556813 78.813 177.8795
47.901429 78.803 177.5761
48.248542 78.792 177.2753
48.598171 78.781 176.9774
48.950334 78.769 176.6810
49.305048 78.758 176.3848
49.662333 78.745 176.0886
50.022206 78.732 175.7937
50.384688 78.719 175.5020
50.749796 78.705 175.2147
51.117550 78.690 174.9316
51.487969 78.676 174.6518
51.861072 78.661 174.3743
52.236879 78.646 174.0984
52.615409 78.631 173.8239
52.996681 78.615 173.5504
53.380717 78.599 173.2782
53.767536 78.582 173.0087
54.157158 78.564 172.7452
54.549603 78.546 172.4908
54.944892 78.527 172.2469
55.343045 78.509 172.0103
55.744084 78.492 171.7743
56.148028 78.475 171.5320
56.554900 78.457 171.2800
56.964720 78.437 171.0202
57.377510 78.412 170.7581
57.793291 78.384 170.4999
58.212085 78.353 170.2522
58.633914 78.317 170.0214
59.058799 78.280 169.8137
59.486764 78.243 169.6306
59.917829 78.209 169.4630
60.352019 78.180 169.2911
60.789354 78.156 169.0922
61.229859 78.135 168.8543
61.673556 78.113 168.5834
62.120468 78.090 168.2998
62.570618 78.068 168.0244
63.024031 78.052 167.7651
63.480729 78.043 167.5146
63.940736 78.044 167.2566
64.404077 78.053 166.9785
64.870776 78.067 166.6799
65.340856 78.084 166.3732
65.814343 78.105 166.0725
66.291261 78.129 165.7766
66.771635 78.158 165.4587
67.255489 78.185 165.0800
67.742850 78.201 164.6244
68.233743 78.192 164.1295
68.728193 78.154 163.6815
69.226226 78.090 163.3698
69.727867 78.015 163.2338
70.233144 77.943 163.2408
70.742083 77.880 163.3142
71.254709 77.827 163.3821
71.771050 77.781 163.4057
72.291132 77.737 163.3731
72.814984 77.696 163.2839
73.342631 77.657 163.1407
73.874102 77.618 162.9519
74.409424 77.582 162.7307
74.948626 77.548 162.4901
75.491734 77.518 162.2371
76.038779 77.492 161.9736
76.589787 77.469 161.7007
77.144788 77.447 161.4247
77.703811 77.424 161.1581
78.266885 77.400 160.9154
78.834039 77.373 160.7049
79.405303 77.346 160.5253
79.980706 77.319 160.3678
80.560280 77.292 160.2204
81.144053 77.265 160.0715
81.732056 77.237 159.9122
82.324320 77.208 159.7378
82.920876 77.178 159.5493
83.521755 77.146 159.3517
84.126988 77.113 159.1523
84.736607 77.080 158.9579
85.350643 77.047 158.7737
85.969129 77.014 158.6010
86.592097 76.983 158.4382
87.219579 76.952 158.2815
87.851608 76.921 158.1271
88.488217 76.889 157.9731
89.129439 76.856 157.8190
89.775308 76.820 157.6649
90.425856 76.783 157.5091
91.081119 76.745 157.3502
91.741131 76.707 157.1891
92.405925 76.670 157.0273
93.075536 76.635 156.8610
93.750000 76.604 156.6823
94.429351 76.574 156.4866
95.113625 76.545 156.2780
95.802858 76.514 156.0661
96.497085 76.483 155.8605
97.196342 76.449 155.6677
97.900667 76.415 155.4917
98.610096 76.380 155.3328
99.324665 76.344 155.1872
100.044413 76.308 155.0489
100.769376 76.272 154.9127
101.499592 76.235 154.7769
102.235100 76.197 154.6418
102.975938 76.159 154.5058
103.722144 76.121 154.3652
104.473757 76.083 154.2164
105.230817 76.045 154.0584
105.993363 76.007 153.8935
106.761435 75.969 153.7253
107.535072 75.932 153.5579
108.314315 75.894 153.3969
109.099206 75.856 153.2491
109.889783 75.817 153.1196
110.686090 75.777 153.0094
111.488167 75.735 152.9165
112.296056 75.689 152.8367
113.109800 75.640 152.7640
113.929440 75.589 152.6912
114.755020 75.536 152.6105
115.586582 75.483 152.5127
116.424170 75.435 152.3878
117.267827 75.390 152.2272
118.117598 75.350 152.0318
118.973527 75.312 151.8223
119.835658 75.273 151.6384
120.704037 75.236 151.5176
121.578708 75.201 151.4713
122.459718 75.169 151.4824
123.347111 75.139 151.5251
124.240935 75.107 151.5822
125.141236 75.074 151.6398
126.048061 75.040 151.6808
126.961458 75.005 151.7010
127.881473 74.971 151.7122
128.808154 74.941 151.7182
129.741551 74.916 151.7101
130.681712 74.893 151.6865
131.628686 74.869 151.6596
132.582521 74.843 151.6406
133.543269 74.813 151.6284
134.510979 74.780 151.6111
135.485701 74.744 151.5772
136.467486 74.707 151.5220
137.456386 74.670 151.4481
138.452451 74.634 151.3658
139.455735 74.599 151.2917
140.466288 74.567 151.2400
141.484165 74.536 151.2152
142.509418 74.507 151.2146
143.542100 74.478 151.2330
144.582265 74.449 151.2574
145.629968 74.421 151.2700
146.685262 74.392 151.2576
147.748204 74.362 151.2179
148.818849 74.332 151.1578
149.897251 74.303 151.0882
150.983469 74.274 151.0162
152.077557 74.246 150.9442
153.179574 74.219 150.8741
154.289576 74.192 150.8080
155.407622 74.165 150.7469
156.533770 74.138 150.6893
157.668078 74.111 150.6289
158.810606 74.082 150.5582
159.961413 74.050 150.4745
161.120559 74.014 150.3828
162.288105 73.975 150.2907
163.464112 73.933 150.2043
164.648640 73.889 150.1270
165.841752 73.846 150.0593
167.043510 73.803 149.9969
168.253976 73.763 149.9331
169.473213 73.724 149.8615
170.701286 73.686 149.7808
171.938258 73.648 149.6965
173.184194 73.609 149.6189
174.439158 73.570 149.5579
175.703216 73.531 149.5184
176.976434 73.491 149.4984
178.258878 73.451 149.4907
179.550615 73.411 149.4840
180.851713 73.372 149.4679
182.162239 73.334 149.4395
183.482262 73.295 149.4050
184.811850 73.257 149.3735
186.151073 73.217 149.3510
187.500000 73.177 149.3389
188.858702 73.137 149.3348
190.227250 73.095 149.3346
191.605715 73.054 149.3349
192.994169 73.012 149.3356
194.392685 72.970 149.3390
195.801334 72.928 149.3456
197.220191 72.887 149.3531
198.649330 72.845 149.3589
200.088825 72.803 149.3615
201.538751 72.760 149.3609
202.999184 72.717 149.3590
204.470200 72.673 149.3602
205.951875 72.630 149.3697
207.444287 72.586 149.3909
208.947514 72.543 149.4222
210.461634 72.500 149.4580
211.986726 72.457 149.4940
213.522869 72.414 149.5295
215.070144 72.372 149.5663
216.628631 72.330 149.6057
218.198411 72.289 149.6483
219.779567 72.249 149.6939
221.372180 72.209 149.7425
222.976334 72.169 149.7944
224.592112 72.129 149.8513
226.219600 72.089 149.9155
227.858880 72.050 149.9901
229.510039 72.011 150.0779
231.173164 71.971 150.1801
232.848340 71.931 150.2947
234.535655 71.891 150.4165
236.235197 71.852 150.5400
237.947054 71.814 150.6606
239.671317 71.778 150.7750
241.408074 71.745 150.8808
243.157416 71.711 150.9817
244.919435 71.677 151.0878
246.694223 71.642 151.2099
248.481871 71.607 151.3489
250.282473 71.574 151.4919
252.096123 71.544 151.6208
253.922915 71.517 151.7256
255.762945 71.493 151.8109
257.616309 71.468 151.8876
259.483103 71.441 151.9609
261.363424 71.412 152.0302
263.257372 71.379 152.0919
265.165043 71.343 152.1448
267.086538 71.307 152.1924
269.021957 71.271 152.2391
270.971401 71.237 152.2867
272.934972 71.206 152.3362
274.912771 71.178 152.3928
276.904902 71.152 152.4633
278.911469 71.127 152.5510
280.932577 71.100 152.6458
282.968330 71.071 152.7256
285.018835 71.038 152.7712
287.084199 71.001 152.7866
289.164530 70.962 152.7963
291.259935 70.922 152.8272
293.370525 70.883 152.8907
295.496408 70.846 152.9807
297.637697 70.809 153.0840
299.794503 70.772 153.1932
301.966937 70.736 153.3074
304.155114 70.699 153.4261
306.359147 70.661 153.5463
308.579152 70.622 153.6656
310.815244 70.585 153.7840
313.067539 70.547 153.9033
315.336156 70.511 154.0241
317.621211 70.475 154.1451
319.922826 70.440 154.2651
322.241118 70.406 154.3862
324.576210 70.372 154.5112
326.928223 70.339 154.6411
329.297280 70.307 154.7744
331.683504 70.274 154.9087
334.087019 70.241 155.0417
336.507952 70.207 155.1728
338.946427 70.173 155.3018
341.402572 70.138 155.4286
343.876516 70.104 155.5541
346.368387 70.071 155.6819
348.878315 70.038 155.8153
351.406431 70.005 155.9550
353.952867 69.972 156.0983
356.517756 69.940 156.2413
359.101230 69.908 156.3825
361.703426 69.876 156.5234
364.324478 69.844 156.6673
366.964523 69.814 156.8165
369.623699 69.783 156.9720
372.302145 69.753 157.1323
375.000000 69.723 157.2943
377.717405 69.693 157.4555
380.454501 69.662 157.6150
383.211431 69.631 157.7734
385.988339 69.600 157.9326
388.785369 69.569 158.0951
391.602668 69.538 158.2614
394.440383 69.508 158.4299
397.298660 69.479 158.5995
400.177650 69.451 158.7694
403.077502 69.423 158.9383
405.998368 69.396 159.1049
408.940400 69.370 159.2710
411.903750 69.343 159.4412
414.888575 69.316 159.6196
417.895028 69.289 159.8071
420.923268 69.262 160.0035
423.973452 69.234 160.2078
427.045738 69.206 160.4178
430.140287 69.177 160.6298
433.257261 69.148 160.8389
436.396822 69.119 161.0409
439.559133 69.090 161.2343
442.744360 69.062 161.4218
445.952668 69.035 161.6082
449.184225 69.008 161.7975
452.439199 68.982 161.9914
455.717760 68.956 162.1897
459.020079 68.930 162.3907
462.346327 68.905 162.5936
465.696680 68.879 162.7981
469.071310 68.854 163.0042
472.470394 68.828 163.2115
475.894109 68.803 163.4204
479.342634 68.778 163.6317
482.816148 68.754 163.8460
486.314833 68.730 164.0635
489.838871 68.707 164.2841
493.388445 68.684 164.5078
496.963741 68.661 164.7347
500.564945 68.638 164.9647
504.192245 68.615 165.1972
507.845830 68.591 165.4315
511.525890 68.568 165.6664
515.232618 68.545 165.9007
518.966206 68.523 166.1334
522.726849 68.501 166.3650
526.514743 68.479 166.5974
530.330086 68.456 166.8337
534.173076 68.434 167.0755
538.043915 68.412 167.3223
541.942803 68.391 167.5720
545.869944 68.371 167.8223
549.825542 68.352 168.0720
553.809805 68.334 168.3212
557.822939 68.315 168.5709
561.865154 68.296 168.8222
565.936660 68.278 169.0763
570.037671 68.259 169.3338
574.168399 68.240 169.5945
578.329060 68.221 169.8577
582.519870 68.203 170.1231
586.741049 68.186 170.3907
590.992817 68.168 170.6597
595.275394 68.151 170.9295
599.589005 68.134 171.2011
603.933874 68.117 171.4761
608.310228 68.100 171.7554
612.718295 68.083 172.0386
617.158304 68.066 172.3235
621.630488 68.050 172.6078
626.135079 68.035 172.8905
630.672311 68.020 173.1729
635.242423 68.006 173.4572
639.845651 67.993 173.7449
644.482237 67.981 174.0365
649.152421 67.969 174.3322
653.856447 67.957 174.6323
658.594560 67.946 174.9377
663.367008 67.934 175.2480
668.174039 67.922 175.5621
673.015903 67.911 175.8788
677.892854 67.899 176.1981
682.805145 67.888 176.5204
687.753032 67.877 176.8463
692.736774 67.867 177.1753
697.756631 67.857 177.5074
702.812863 67.848 177.8421
707.905735 67.839 178.1790
713.035511 67.832 178.5172
718.202461 67.825 178.8575
723.406852 67.819 179.2009
728.648956 67.814 179.5477
733.929047 67.810 179.8974
739.247399 67.807 -179.7504
744.604290 67.803 -179.3958
750.000000 67.801 -179.0385
755.434809 67.800 -178.6784
760.909001 67.799 -178.3150
766.422861 67.799 -177.9481
771.976677 67.801 -177.5779
777.570739 67.803 -177.2046
783.205337 67.805 -176.8289
788.880766 67.809 -176.4510
794.597321 67.813 -176.0705
800.355301 67.818 -175.6871
806.155005 67.824 -175.3014
811.996736 67.830 -174.9141
817.880799 67.838 -174.5255
823.807501 67.848 -174.1352
829.777150 67.858 -173.7428
835.790057 67.870 -173.3485
841.846536 67.883 -172.9526
847.946903 67.898 -172.5554
854.091476 67.914 -172.1573
860.280575 67.932 -171.7589
866.514523 67.950 -171.3606
872.793644 67.970 -170.9628
879.118267 67.991 -170.5655
885.488720 68.014 -170.1685
891.905336 68.037 -169.7716
898.368450 68.063 -169.3746
904.878398 68.090 -168.9779
911.435520 68.118 -168.5826
918.040157 68.148 -168.1901
924.692655 68.179 -167.8017
931.393359 68.212 -167.4183
938.142619 68.246 -167.0406
944.940787 68.282 -166.6689
951.788218 68.318 -166.3034
958.685268 68.357 -165.9439
965.632296 68.396 -165.5903
972.629666 68.438 -165.2428
979.677741 68.481 -164.9022
986.776890 68.525 -164.5681
993.927482 68.570 -164.2401
1001.129891 68.617 -163.9182
1008.384491 68.664 -163.6030
1015.691660 68.713 -163.2955
1023.051781 68.762 -162.9972
1030.465236 68.813 -162.7088
1037.932411 68.864 -162.4302
1045.453698 68.916 -162.1614
1053.029486 68.968 -161.9032
1060.660172 69.021 -161.6562
1068.346153 69.074 -161.4201
1076.087829 69.128 -161.1935
1083.885605 69.183 -160.9752
1091.739887 69.238 -160.7654
1099.651084 69.293 -160.5651
1107.619609 69.349 -160.3753
1115.645878 69.405 -160.1964
1123.730308 69.461 -160.0284
1131.873321 69.517 -159.8708
1140.075341 69.572 -159.7223
1148.336797 69.628 -159.5818
1156.658119 69.683 -159.4493
1165.039741 69.738 -159.3250
1173.482099 69.793 -159.2090
1181.985634 69.847 -159.1006
1190.550789 69.901 -158.9996
1199.178011 69.955 -158.9057
1207.867749 70.009 -158.8186
1216.620457 70.061 -158.7382
1225.436590 70.114 -158.6644
1234.316609 70.166 -158.5968
1243.260976 70.217 -158.5353
1252.270157 70.269 -158.4791
1261.344623 70.320 -158.4271
1270.484846 70.371 -158.3785
1279.691303 70.421 -158.3335
1288.964474 70.471 -158.2929
1298.304842 70.520 -158.2572
1307.712894 70.569 -158.2262
1317.189120 70.617 -158.1997
1326.734016 70.665 -158.1778
1336.348077 70.713 -158.1604
1346.031806 70.761 -158.1476
1355.785708 70.809 -158.1393
1365.610290 70.857 -158.1352
1375.506065 70.904 -158.1346
1385.473549 70.952 -158.1366
1395.513261 71.000 -158.1409
1405.625726 71.047 -158.1479
1415.811469 71.095 -158.1587
1426.071023 71.142 -158.1739
1436.404921 71.190 -158.1938
1446.813703 71.237 -158.2184
1457.297912 71.285 -158.2479
1467.858093 71.332 -158.2828
1478.494798 71.380 -158.3241
1489.208581 71.429 -158.3731
1500.000000 71.477 -158.4317
1510.869618 71.527 -158.5021
1521.818002 71.577 -158.5860
1532.845723 71.627 -158.6844
1543.953355 71.677 -158.7979
1555.141477 71.727 -158.9269
1566.410674 71.776 -159.0730
1577.761531 71.826 -159.2387
1589.194642 71.874 -159.4267
1600.710601 71.921 -159.6400
1612.310010 71.967 -159.8807
1623.993473 72.010 -160.1509
1635.761599 72.050 -160.4519
1647.615002 72.086 -160.7845
1659.554299 72.117 -161.1486
1671.580114 72.142 -161.5430
1683.693072 72.160 -161.9646
1695.893807 72.170 -162.4081
1708.182952 72.168 -162.8658
1720.561150 72.156 -163.3272
1733.029045 72.130 -163.7788
1745.587288 72.091 -164.2043
1758.236533 72.039 -164.5849
1770.977440 71.974 -164.9005
1783.810673 71.897 -165.1314
1796.736900 71.812 -165.2591
1809.756796 71.721 -165.2683
1822.871040 71.628 -165.1492
1836.080315 71.537 -164.8990
1849.385310 71.452 -164.5227
1862.786718 71.377 -164.0322
1876.285239 71.315 -163.4452
1889.881575 71.269 -162.7838
1903.576436 71.239 -162.0719
1917.370535 71.225 -161.3334
1931.264593 71.228 -160.5899
1945.259332 71.245 -159.8596
1959.355483 71.276 -159.1559
1973.553781 71.317 -158.4882
1987.854965 71.369 -157.8624
2002.259781 71.427 -157.2817
2016.768981 71.492 -156.7480
2031.383320 71.562 -156.2607
2046.103561 71.635 -155.8179
2060.930471 71.710 -155.4168
2075.864823 71.788 -155.0543
2090.907395 71.866 -154.7270
2106.058972 71.946 -154.4314
2121.320344 72.027 -154.1639
2136.692305 72.108 -153.9218
2152.175658 72.189 -153.7027
2167.771210 72.270 -153.5047
2183.479774 72.351 -153.3263
2199.302169 72.433 -153.1658
2215.239219 72.514 -153.0218
2231.291755 72.596 -152.8930
2247.460615 72.677 -152.7781
2263.746641 72.760 -152.6766
2280.150683 72.842 -152.5878
2296.673595 72.925 -152.5117
2313.316238 73.009 -152.4480
2330.079481 73.093 -152.3965
2346.964198 73.178 -152.3570
2363.971268 73.264 -152.3297
2381.101578 73.350 -152.3155
2398.356022 73.438 -152.3152
2415.735498 73.526 -152.3301
2433.240913 73.616 -152.3610
2450.873180 73.706 -152.4085
2468.633217 73.798 -152.4729
2486.521951 73.890 -152.5544
2504.540314 73.984 -152.6534
2522.689246 74.078 -152.7707
2540.969692 74.174 -152.9076
2559.382606 74.271 -153.0648
2577.928947 74.369 -153.2437
2596.609683 74.468 -153.4457
2615.425787 74.569 -153.6734
2634.378241 74.671 -153.9297
2653.468031 74.775 -154.2175
2672.696154 74.880 -154.5400
2692.063613 74.986 -154.9003
2711.571415 75.093 -155.3020
2731.220579 75.201 -155.7488
2751.012130 75.309 -156.2441
2770.947098 75.418 -156.7918
2791.026522 75.526 -157.3959
2811.251451 75.633 -158.0605
2831.622938 75.739 -158.7903
2852.142045 75.842 -159.5894
2872.809842 75.941 -160.4624
2893.627406 76.035 -161.4134
2914.595823 76.124 -162.4460
2935.716186 76.205 -163.5635
2956.989596 76.276 -164.7678
2978.417161 76.336 -166.0597
3000.000000 76.383 -167.4385
3021.739237 76.414 -168.9016
3043.636005 76.426 -170.4443
3065.691446 76.418 -172.0590
3087.906710 76.385 -173.7346
3110.282955 76.326 -175.4563
3132.821347 76.237 -177.2046
3155.523062 76.116 -178.9554
3178.389283 75.961 179.3203
3201.421202 75.770 177.6564
3224.620020 75.543 176.0912
3247.986946 75.280 174.6661
3271.523198 74.981 173.4247
3295.230004 74.651 172.4111
3319.108599 74.292 171.6685
3343.160228 73.911 171.2375
3367.386145 73.515 171.1531
3391.787613 73.112 171.4419
3416.365904 72.712 172.1179
3441.122300 72.327 173.1801
3466.058091 71.965 174.6100
3491.174576 71.639 176.3714
3516.473066 71.357 178.4109
3541.954880 71.125 -179.3378
3567.621345 70.949 -176.9492
3593.473800 70.829 -174.5004
3619.513592 70.764 -172.0650
3645.742080 70.749 -169.7070
3672.160630 70.780 -167.4772
3698.770620 70.848 -165.4114
3725.573436 70.948 -163.5314
3752.570477 71.072 -161.8470
3779.763150 71.213 -160.3581
3807.152872 71.367 -159.0578
3834.741071 71.528 -157.9346
3862.529185 71.694 -156.9754
3890.518664 71.862 -156.1658
3918.710966 72.030 -155.4911
3947.107561 72.196 -154.9370
3975.709929 72.359 -154.4899
4004.519563 72.520 -154.1385
4033.537962 72.677 -153.8738
4062.766641 72.832 -153.6895
4092.207123 72.982 -153.5813
4121.860942 73.130 -153.5469
4151.729646 73.274 -153.5853
4181.814790 73.414 -153.6963
4212.117944 73.550 -153.8803
4242.640687 73.681 -154.1377
4273.384610 73.806 -154.4685
4304.351317 73.924 -154.8712
4335.542421 74.034 -155.3429
4366.959549 74.134 -155.8791
4398.604338 74.224 -156.4739
4430.478438 74.303 -157.1199
4462.583511 74.370 -157.8088
4494.921231 74.424 -158.5313
4527.493283 74.464 -159.2777
4560.301365 74.492 -160.0375
4593.347189 74.507 -160.8002
4626.632476 74.508 -161.5552
4660.158962 74.498 -162.2929
4693.928395 74.477 -163.0052
4727.942535 74.445 -163.6857
4762.203156 74.405 -164.3297
4796.712043 74.357 -164.9344
4831.470996 74.302 -165.4983
4866.481826 74.242 -166.0216
4901.746360 74.177 -166.5049
4937.266434 74.107 -166.9491
4973.043902 74.034 -167.3549
5009.080628 73.956 -167.7225
5045.378492 73.875 -168.0512
5081.939384 73.791 -168.3400
5118.765212 73.704 -168.5878
5155.857894 73.615 -168.7930
5193.219366 73.524 -168.9547
5230.851574 73.431 -169.0717
5268.756481 73.338 -169.1432
5306.936062 73.244 -169.1688
5345.392309 73.150 -169.1485
5384.127225 73.057 -169.0831
5423.142830 72.965 -168.9736
5462.441159 72.874 -168.8209
5502.024259 72.786 -168.6253
5541.894195 72.700 -168.3874
5582.053045 72.618 -168.1084
5622.502902 72.538 -167.7900
5663.245876 72.463 -167.4346
5704.284090 72.391 -167.0440
5745.619684 72.323 -166.6193
5787.254813 72.260 -166.1617
5829.191647 72.202 -165.6719
5871.432373 72.149 -165.1512
5913.979192 72.101 -164.6009
5956.834323 72.059 -164.0228
6000.000000 72.023 -163.4184
6043.478473 71.993 -162.7894
6087.272010 71.969 -162.1369
6131.382892 71.953 -161.4626
6175.813420 71.943 -160.7688
6220.565910 71.940 -160.0570
6265.642695 71.944 -159.3287
6311.046124 71.955 -158.5855
6356.778566 71.975 -157.8290
6402.842404 72.002 -157.0608
6449.240040 72.038 -156.2827
6495.973891 72.081 -155.4965
6543.046396 72.134 -154.7038
6590.460007 72.195 -153.9062
6638.217197 72.264 -153.1055
6686.320456 72.343 -152.3025
6734.772290 72.432 -151.4976
6783.575226 72.530 -150.6912
6832.731809 72.638 -149.8838
6882.244600 72.757 -149.0760
6932.116181 72.887 -148.2688
6982.349153 73.030 -147.4631
7032.946133 73.185 -146.6609
7083.909760 73.355 -145.8656
7135.242690 73.540 -145.0825
7186.947600 73.741 -144.3177
7239.027185 73.960 -143.5774
7291.484160 74.198 -142.8687
7344.321260 74.455 -142.2003
7397.541239 74.734 -141.5833
7451.146872 75.037 -141.0319
7505.140954 75.364 -140.5635
7559.526299 75.717 -140.1998
7614.305743 76.099 -139.9678
7669.482141 76.509 -139.8997
7725.058371 76.949 -140.0329
7781.037328 77.417 -140.4102
7837.421932 77.909 -141.0776
7894.215122 78.423 -142.0837
7951.419859 78.951 -143.4760
8009.039125 79.484 -145.2978
8067.075924 80.010 -147.5843
8125.533282 80.516 -150.3591
8184.414245 80.988 -153.6302
8243.721885 81.410 -157.3843
8303.459292 81.768 -161.5834
8363.629581 82.045 -166.1636
8424.235888 82.232 -171.0365
8485.281374 82.318 -176.0936
8546.769221 82.299 178.7863
8608.702634 82.177 173.7279
8671.084842 81.955 168.8491
8733.919097 81.644 164.2521
8797.208675 81.256 160.0169
8860.956876 80.806 156.1978
8925.167022 80.307 152.8228
8989.842461 79.776 149.8963
9054.986566 79.226 147.4023
9120.602731 78.667 145.3091
9186.694378 78.109 143.5739
9253.264952 77.558 142.1472
9320.317925 77.019 140.9772
9387.856790 76.493 140.0126
9455.885071 75.980 139.2076
9524.406312 75.477 138.5263
9593.424086 74.981 137.9467
9662.941992 74.485 137.4640
9732.963653 73.986 137.0913
9803.492719 73.478 136.8583
9874.532869 72.961 136.8065
9946.087805 72.434 136.9803
10018.161257 71.904 137.4175
10090.756983 71.378 138.1382
10163.878768 70.865 139.1374
10237.530423 70.375 140.3818
10311.715789 69.917 141.8141
10386.438732 69.496 143.3621
10461.703149 69.113 144.9520
10537.512962 68.766 146.5203
10613.872125 68.449 148.0219
10690.784618 68.156 149.4320
10768.254450 67.880 150.7438
10846.285661 67.614 151.9654
10924.882318 67.354 153.1152
11004.048518 67.097 154.2188
11083.788390 66.840 155.3044
11164.106090 66.584 156.3981
11245.005805 66.329 157.5211
11326.491752 66.078 158.6897
11408.568180 65.833 159.9159
11491.239368 65.599 161.2060
11574.509626 65.378 162.5599
11658.383294 65.174 163.9702
11742.864745 64.991 165.4210
11827.958384 64.832 166.8882
11913.668646 64.698 168.3410
12000.000000 64.589 169.7491
12086.956947 64.504 171.0896
12174.544019 64.438 172.3502
12262.765784 64.390 173.5267
12351.626840 64.355 174.6204
12441.131819 64.331 175.6370
12531.285389 64.314 176.5874
12622.092249 64.303 177.4864
12713.557132 64.294 178.3517
12805.684808 64.288 179.2021
12898.480079 64.282 -179.9441
12991.947783 64.277 -179.0690
13086.092792 64.274 -178.1557
13180.920015 64.274 -177.1894
13276.434395 64.279 -176.1570
13372.640911 64.289 -175.0488
13469.544580 64.306 -173.8580
13567.150452 64.333 -172.5815
13665.463617 64.370 -171.2188
13764.489200 64.420 -169.7709
13864.232362 64.483 -168.2389
13964.698305 64.561 -166.6234
14065.892266 64.658 -164.9259
14167.819519 64.775 -163.1538
14270.485380 64.915 -161.3208
14373.895200 65.081 -159.4468
14478.054370 65.276 -157.5575
14582.968320 65.504 -155.6844
14688.642520 65.765 -153.8640
14795.082478 66.063 -152.1403
14902.293745 66.399 -150.5664
15010.281908 66.775 -149.2078
15119.052599 67.189 -148.1431
15228.611486 67.637 -147.4611
15338.964283 68.111 -147.2537
15450.116741 68.600 -147.6076
15562.074656 69.088 -148.5945
15674.843864 69.554 -150.2613
15788.430244 69.978 -152.6219
15902.839718 70.336 -155.6514
16018.078250 70.607 -159.2846
16134.151848 70.771 -163.4191
16251.066563 70.816 -167.9231
16368.828491 70.733 -172.6481
16487.443769 70.521 -177.4433
16606.918584 70.187 177.8297
16727.259161 69.739 173.2848
16848.471777 69.194 169.0059
16970.562748 68.567 165.0448
17093.538442 67.875 161.4233
17217.405268 67.138 158.1380
17342.169684 66.371 155.1640
17467.838194 65.589 152.4638
17594.417350 64.807 149.9957
17721.913751 64.036 147.7202
17850.334044 63.285 145.6041
17979.684923 62.561 143.6208
18109.973131 61.869 141.7546
18241.205462 61.211 140.0052
18373.388756 60.588 138.3945
18506.529905 59.998 136.9684
18640.635849 59.438 135.7880
18775.713581 58.907 134.9175
18911.770141 58.403 134.4116
19048.812624 57.927 134.3070
19186.848172 57.478 134.6172
19325.883983 57.056 135.3273
19465.927305 56.665 136.3831
19606.985439 56.312 137.6758
19749.065738 56.014 139.0266
19892.175609 55.793 140.1840
20036.322514 55.675 140.8657
