* Measurement data measured by REW V5.31.3
* Source: Headset (CX31993 HIFI AUDIO), MICROPHONE (Master Volume), R, volume: 0.250
* Format: 256k Log Swept Sine, 1 sweep at -12.0 dBFS with no timing reference
* Dated: 03 3, 25 11:22:22 AM
* REW Settings:
*  C-weighting compensation: Off
*  Target level: 75.0 dB
* Note: ; 
* Measurement: SGOR Luna 500 R
* Smoothing: 1/12 octave
* Frequency Step: 96 ppo
* Start Frequency: 0.36621094 Hz
*
* Freq(Hz) SPL(dB) Phase(degrees)
0.366211 27.405 28.9827
0.368865 27.432 29.0024
0.371538 27.470 29.0319
0.374230 27.518 29.0690
0.376942 27.572 29.1118
0.379673 27.629 29.1589
0.382424 27.689 29.2094
0.385196 27.750 29.2627
0.387987 27.812 29.3184
0.390798 27.876 29.3764
0.393630 27.939 29.4365
0.396483 28.004 29.4986
0.399356 28.068 29.5626
0.402250 28.134 29.6284
0.405165 28.199 29.6961
0.408101 28.265 29.7656
0.411058 28.332 29.8367
0.414037 28.399 29.9095
0.417037 28.467 29.9839
0.420059 28.535 30.0598
0.423103 28.604 30.1371
0.426169 28.673 30.2159
0.429257 28.743 30.2959
0.432368 28.813 30.3773
0.435501 28.883 30.4598
0.438656 28.955 30.5434
0.441835 29.026 30.6280
0.445037 29.098 30.7136
0.448262 29.171 30.8001
0.451510 29.244 30.8874
0.454782 29.318 30.9755
0.458077 29.393 31.0641
0.461397 29.467 31.1533
0.464740 29.543 31.2430
0.468108 29.619 31.3331
0.471500 29.695 31.4234
0.474917 29.772 31.5140
0.478358 29.850 31.6046
0.481825 29.928 31.6953
0.485316 30.007 31.7859
0.488833 30.086 31.8763
0.492375 30.166 31.9665
0.495943 30.247 32.0562
0.499537 30.328 32.1455
0.503157 30.409 32.2342
0.506803 30.492 32.3223
0.510475 30.574 32.4096
0.514175 30.658 32.4960
0.517900 30.742 32.5814
0.521653 30.827 32.6657
0.525434 30.912 32.7488
0.529241 30.998 32.8307
0.533076 31.084 32.9112
0.536939 31.171 32.9901
0.540830 31.259 33.0675
0.544749 31.347 33.1431
0.548696 31.437 33.2169
0.552673 31.526 33.2889
0.556677 31.617 33.3587
0.560711 31.708 33.4265
0.564774 31.799 33.4921
0.568867 31.892 33.5553
0.572989 31.985 33.6160
0.577141 32.078 33.6743
0.581324 32.173 33.7299
0.585536 32.268 33.7828
0.589779 32.363 33.8328
0.594053 32.460 33.8800
0.598358 32.557 33.9241
0.602694 32.655 33.9651
0.607061 32.753 34.0029
0.611460 32.852 34.0374
0.615891 32.952 34.0685
0.620354 33.053 34.0962
0.624849 33.155 34.1203
0.629377 33.257 34.1407
0.633938 33.360 34.1575
0.638532 33.463 34.1704
0.643159 33.568 34.1795
0.647819 33.673 34.1846
0.652514 33.779 34.1857
0.657242 33.885 34.1826
0.662005 33.993 34.1755
0.666802 34.101 34.1641
0.671634 34.210 34.1484
0.676501 34.320 34.1283
0.681403 34.431 34.1039
0.686341 34.542 34.0750
0.691314 34.654 34.0416
0.696324 34.767 34.0037
0.701370 34.881 33.9614
0.706452 34.995 33.9146
0.711571 35.110 33.8636
0.716728 35.226 33.8085
0.721921 35.341 33.7500
0.727153 35.457 33.6886
0.732422 35.572 33.6253
0.737729 35.687 33.5612
0.743075 35.802 33.4974
0.748460 35.916 33.4346
0.753883 36.031 33.3733
0.759346 36.146 33.3139
0.764849 36.262 33.2563
0.770391 36.378 33.2005
0.775974 36.495 33.1463
0.781597 36.612 33.0935
0.787261 36.731 33.0420
0.792966 36.849 32.9914
0.798712 36.969 32.9415
0.804500 37.089 32.8922
0.810329 37.210 32.8432
0.816201 37.331 32.7941
0.822116 37.453 32.7449
0.828073 37.576 32.6953
0.834074 37.699 32.6450
0.840118 37.823 32.5939
0.846206 37.948 32.5416
0.852338 38.073 32.4881
0.858514 38.199 32.4330
0.864735 38.325 32.3763
0.871001 38.452 32.3176
0.877313 38.580 32.2568
0.883670 38.708 32.1937
0.890074 38.837 32.1281
0.896524 38.966 32.0598
0.903020 39.096 31.9885
0.909564 39.227 31.9143
0.916155 39.358 31.8367
0.922794 39.489 31.7558
0.929481 39.621 31.6712
0.936216 39.753 31.5829
0.943000 39.886 31.4907
0.949834 40.020 31.3944
0.956717 40.154 31.2938
0.963649 40.288 31.1888
0.970632 40.423 31.0792
0.977666 40.558 30.9650
0.984750 40.694 30.8458
0.991886 40.830 30.7217
0.999074 40.966 30.5924
1.006314 41.103 30.4579
1.013606 41.240 30.3180
1.020951 41.378 30.1725
1.028349 41.515 30.0214
1.035801 41.653 29.8645
1.043307 41.792 29.7018
1.050867 41.930 29.5332
1.058482 42.069 29.3586
1.066152 42.208 29.1782
1.073878 42.347 28.9922
1.081660 42.486 28.8010
1.089498 42.626 28.6051
1.097393 42.765 28.4056
1.105345 42.905 28.2035
1.113355 43.045 27.9998
1.121423 43.185 27.7956
1.129549 43.325 27.5914
1.137734 43.465 27.3876
1.145979 43.606 27.1842
1.154283 43.746 26.9813
1.162647 43.887 26.7787
1.171072 44.028 26.5763
1.179558 44.169 26.3740
1.188106 44.310 26.1715
1.196715 44.452 25.9687
1.205387 44.593 25.7652
1.214122 44.735 25.5611
1.222920 44.877 25.3559
1.231782 45.019 25.1496
1.240708 45.161 24.9420
1.249699 45.303 24.7327
1.258754 45.445 24.5218
1.267876 45.588 24.3089
1.277063 45.730 24.0938
1.286318 45.873 23.8764
1.295639 46.016 23.6565
1.305027 46.159 23.4339
1.314484 46.303 23.2085
1.324009 46.446 22.9799
1.333604 46.590 22.7481
1.343268 46.734 22.5129
1.353002 46.878 22.2741
1.362806 47.022 22.0315
1.372681 47.167 21.7849
1.382628 47.312 21.5343
1.392647 47.456 21.2794
1.402739 47.602 21.0201
1.412904 47.747 20.7564
1.423142 47.893 20.4883
1.433455 48.038 20.2159
1.443843 48.184 19.9395
1.454305 48.330 19.6598
1.464844 48.477 19.3774
1.475459 48.623 19.0933
1.486150 48.769 18.8084
1.496920 48.915 18.5234
1.507767 49.061 18.2386
1.518693 49.207 17.9543
1.529698 49.352 17.6704
1.540783 49.498 17.3866
1.551948 49.643 17.1029
1.563194 49.788 16.8188
1.574521 49.933 16.5341
1.585931 50.078 16.2486
1.597423 50.223 15.9617
1.608999 50.367 15.6734
1.620658 50.512 15.3832
1.632402 50.656 15.0908
1.644232 50.801 14.7959
1.656146 50.945 14.4982
1.668147 51.089 14.1975
1.680235 51.233 13.8934
1.692411 51.377 13.5855
1.704675 51.521 13.2737
1.717028 51.665 12.9577
1.729470 51.809 12.6371
1.742003 51.954 12.3117
1.754626 52.098 11.9813
1.767341 52.242 11.6456
1.780147 52.387 11.3047
1.793047 52.531 10.9583
1.806040 52.676 10.6068
1.819128 52.820 10.2504
1.832310 52.965 9.8898
1.845587 53.109 9.5256
1.858961 53.253 9.1586
1.872432 53.397 8.7894
1.886001 53.541 8.4183
1.899667 53.684 8.0458
1.913433 53.827 7.6718
1.927299 53.969 7.2965
1.941265 54.111 6.9198
1.955332 54.253 6.5416
1.969501 54.395 6.1618
1.983773 54.536 5.7804
1.998148 54.677 5.3972
2.012627 54.818 5.0121
2.027212 54.959 4.6249
2.041902 55.099 4.2355
2.056698 55.239 3.8437
2.071602 55.379 3.4493
2.086614 55.519 3.0521
2.101734 55.659 2.6521
2.116964 55.799 2.2489
2.132304 55.939 1.8425
2.147756 56.078 1.4327
2.163320 56.218 1.0196
2.178996 56.357 0.6032
2.194786 56.497 0.1837
2.210690 56.636 -0.2386
2.226710 56.775 -0.6633
2.242845 56.913 -1.0901
2.259098 57.052 -1.5188
2.275468 57.189 -1.9492
2.291957 57.326 -2.3812
2.308566 57.463 -2.8147
2.325295 57.600 -3.2497
2.342145 57.736 -3.6862
2.359117 57.871 -4.1244
2.376212 58.007 -4.5642
2.393431 58.142 -5.0058
2.410775 58.276 -5.4493
2.428244 58.411 -5.8947
2.445840 58.545 -6.3422
2.463564 58.679 -6.7919
2.481416 58.813 -7.2439
2.499397 58.946 -7.6984
2.517509 59.080 -8.1555
2.535752 59.213 -8.6152
2.554127 59.347 -9.0775
2.572635 59.480 -9.5422
2.591277 59.612 -10.0094
2.610055 59.744 -10.4787
2.628968 59.876 -10.9501
2.648019 60.007 -11.4234
2.667208 60.138 -11.8985
2.686535 60.269 -12.3753
2.706003 60.399 -12.8539
2.725612 60.528 -13.3342
2.745363 60.657 -13.8161
2.765257 60.786 -14.2999
2.785295 60.914 -14.7854
2.805478 61.042 -15.2728
2.825808 61.170 -15.7621
2.846285 61.298 -16.2535
2.866910 61.425 -16.7471
2.887685 61.552 -17.2430
2.908611 61.679 -17.7412
2.929688 61.805 -18.2418
2.950917 61.931 -18.7449
2.972301 62.057 -19.2504
2.993839 62.183 -19.7582
3.015534 62.307 -20.2682
3.037386 62.432 -20.7804
3.059396 62.555 -21.2945
3.081565 62.679 -21.8106
3.103896 62.802 -22.3285
3.126388 62.924 -22.8483
3.149043 63.046 -23.3698
3.171862 63.167 -23.8932
3.194847 63.289 -24.4184
3.217998 63.409 -24.9456
3.241317 63.530 -25.4749
3.264805 63.650 -26.0064
3.288463 63.769 -26.5403
3.312293 63.888 -27.0768
3.336295 64.007 -27.6160
3.360471 64.125 -28.1579
3.384822 64.243 -28.7024
3.409350 64.360 -29.2493
3.434056 64.476 -29.7985
3.458940 64.592 -30.3498
3.484005 64.707 -30.9030
3.509252 64.822 -31.4580
3.534681 64.936 -32.0146
3.560295 65.049 -32.5728
3.586094 65.162 -33.1327
3.612081 65.274 -33.6944
3.638255 65.386 -34.2581
3.664620 65.497 -34.8243
3.691175 65.607 -35.3931
3.717923 65.717 -35.9649
3.744864 65.826 -36.5396
3.772001 65.934 -37.1170
3.799335 66.041 -37.6969
3.826866 66.148 -38.2786
3.854597 66.254 -38.8619
3.882529 66.358 -39.4463
3.910664 66.463 -40.0314
3.939002 66.566 -40.6171
3.967546 66.668 -41.2033
3.996296 66.770 -41.7902
4.025255 66.871 -42.3783
4.054423 66.970 -42.9679
4.083804 67.069 -43.5595
4.113396 67.167 -44.1532
4.143204 67.264 -44.7487
4.173227 67.360 -45.3457
4.203468 67.454 -45.9434
4.233928 67.548 -46.5410
4.264609 67.641 -47.1379
4.295512 67.732 -47.7334
4.326639 67.823 -48.3273
4.357992 67.913 -48.9195
4.389572 68.001 -49.5102
4.421380 68.088 -50.1000
4.453419 68.174 -50.6894
4.485691 68.259 -51.2786
4.518196 68.343 -51.8672
4.550936 68.426 -52.4548
4.583914 68.507 -53.0404
4.617131 68.588 -53.6231
4.650589 68.667 -54.2020
4.684289 68.745 -54.7764
4.718233 68.822 -55.3458
4.752424 68.898 -55.9103
4.786862 68.973 -56.4701
4.821549 69.047 -57.0257
4.856488 69.120 -57.5772
4.891680 69.192 -58.1247
4.927127 69.263 -58.6675
4.962831 69.332 -59.2051
4.998794 69.401 -59.7366
5.035017 69.469 -60.2611
5.071503 69.537 -60.7781
5.108253 69.604 -61.2871
5.145270 69.670 -61.7881
5.182555 69.736 -62.2813
5.220110 69.801 -62.7670
5.257937 69.865 -63.2453
5.296038 69.929 -63.7164
5.334415 69.993 -64.1801
5.373071 70.057 -64.6362
5.412006 70.120 -65.0844
5.451224 70.184 -65.5244
5.490725 70.247 -65.9560
5.530514 70.311 -66.3792
5.570590 70.376 -66.7941
5.610957 70.440 -67.2012
5.651616 70.505 -67.6012
5.692570 70.570 -67.9948
5.733821 70.636 -68.3827
5.775370 70.702 -68.7655
5.817221 70.770 -69.1437
5.859375 70.838 -69.5173
5.901834 70.907 -69.8866
5.944602 70.977 -70.2518
5.987679 71.049 -70.6135
6.031068 71.121 -70.9729
6.074771 71.194 -71.3311
6.118792 71.268 -71.6896
6.163131 71.343 -72.0493
6.207792 71.419 -72.4112
6.252776 71.496 -72.7756
6.298086 71.574 -73.1428
6.343725 71.653 -73.5132
6.389694 71.732 -73.8874
6.435996 71.813 -74.2663
6.482634 71.894 -74.6511
6.529610 71.975 -75.0426
6.576926 72.057 -75.4417
6.624585 72.138 -75.8486
6.672590 72.220 -76.2636
6.720942 72.303 -76.6864
6.769645 72.385 -77.1171
6.818700 72.466 -77.5555
6.868111 72.547 -78.0017
6.917881 72.628 -78.4559
6.968010 72.707 -78.9182
7.018504 72.786 -79.3884
7.069362 72.864 -79.8662
7.120590 72.941 -80.3507
7.172189 73.016 -80.8410
7.224161 73.090 -81.3361
7.276511 73.163 -81.8352
7.329239 73.234 -82.3376
7.382350 73.303 -82.8430
7.435845 73.371 -83.3507
7.489729 73.437 -83.8599
7.544002 73.502 -84.3691
7.598669 73.565 -84.8771
7.653732 73.627 -85.3826
7.709194 73.687 -85.8848
7.765058 73.745 -86.3833
7.821327 73.803 -86.8775
7.878004 73.859 -87.3668
7.935091 73.914 -87.8506
7.992592 73.968 -88.3279
8.050510 74.021 -88.7983
8.108847 74.074 -89.2614
8.167607 74.127 -89.7174
8.226793 74.179 -90.1665
8.286408 74.231 -90.6093
8.346454 74.283 -91.0463
8.406936 74.336 -91.4779
8.467856 74.389 -91.9046
8.529218 74.442 -92.3272
8.591024 74.496 -92.7469
8.653278 74.551 -93.1651
8.715983 74.607 -93.5832
8.779143 74.663 -94.0027
8.842760 74.720 -94.4248
8.906839 74.778 -94.8503
8.971381 74.837 -95.2805
9.036392 74.895 -95.7167
9.101873 74.954 -96.1602
9.167829 75.014 -96.6120
9.234263 75.072 -97.0727
9.301178 75.131 -97.5425
9.368578 75.189 -98.0214
9.436467 75.246 -98.5092
9.504847 75.302 -99.0058
9.573723 75.356 -99.5107
9.643099 75.408 -100.0230
9.712976 75.459 -100.5412
9.783361 75.507 -101.0636
9.854255 75.553 -101.5883
9.925663 75.597 -102.1135
9.997588 75.638 -102.6375
10.070035 75.677 -103.1579
10.143007 75.713 -103.6724
10.216507 75.747 -104.1782
10.290540 75.779 -104.6731
10.365109 75.809 -105.1553
10.440219 75.837 -105.6232
10.515873 75.865 -106.0748
10.592076 75.891 -106.5089
10.668830 75.917 -106.9245
10.746141 75.944 -107.3212
10.824012 75.971 -107.6995
10.902447 75.999 -108.0604
10.981451 76.029 -108.4051
11.061027 76.062 -108.7354
11.141180 76.097 -109.0539
11.221913 76.135 -109.3638
11.303232 76.177 -109.6690
11.385140 76.222 -109.9732
11.467641 76.270 -110.2803
11.550741 76.322 -110.5942
11.634442 76.377 -110.9193
11.718750 76.435 -111.2595
11.803669 76.495 -111.6182
11.889203 76.558 -111.9980
11.975357 76.621 -112.4011
12.062136 76.686 -112.8292
12.149543 76.750 -113.2832
12.237583 76.813 -113.7630
12.326262 76.875 -114.2674
12.415583 76.935 -114.7950
12.505552 76.992 -115.3435
12.596172 77.046 -115.9102
12.687449 77.096 -116.4914
12.779387 77.143 -117.0832
12.871992 77.185 -117.6814
12.965268 77.223 -118.2821
13.059220 77.256 -118.8809
13.153852 77.286 -119.4735
13.249170 77.312 -120.0561
13.345179 77.335 -120.6254
13.441884 77.355 -121.1785
13.539289 77.372 -121.7132
13.637401 77.388 -122.2277
13.736223 77.402 -122.7214
13.835761 77.416 -123.1945
13.936021 77.430 -123.6476
14.037007 77.445 -124.0821
14.138725 77.460 -124.5002
14.241180 77.477 -124.9043
14.344377 77.495 -125.2974
14.448323 77.515 -125.6820
14.553021 77.536 -126.0611
14.658478 77.558 -126.4371
14.764700 77.581 -126.8120
14.871691 77.605 -127.1872
14.979457 77.630 -127.5636
15.088005 77.654 -127.9413
15.197339 77.679 -128.3196
15.307465 77.703 -128.6976
15.418389 77.726 -129.0736
15.530117 77.748 -129.4459
15.642655 77.770 -129.8125
15.756008 77.791 -130.1717
15.870182 77.812 -130.5220
15.985184 77.834 -130.8627
16.101019 77.856 -131.1937
16.217694 77.879 -131.5155
16.335214 77.903 -131.8298
16.453586 77.929 -132.1391
16.572815 77.958 -132.4465
16.692909 77.988 -132.7559
16.813872 78.021 -133.0712
16.935713 78.056 -133.3966
17.058436 78.092 -133.7358
17.182048 78.129 -134.0918
17.306556 78.167 -134.4669
17.431967 78.204 -134.8621
17.558286 78.239 -135.2770
17.685521 78.273 -135.7100
17.813677 78.304 -136.1581
17.942762 78.331 -136.6173
18.072783 78.354 -137.0824
18.203746 78.373 -137.5478
18.335658 78.388 -138.0077
18.468526 78.400 -138.4562
18.602356 78.408 -138.8884
18.737156 78.414 -139.3001
18.872934 78.419 -139.6886
19.009695 78.423 -140.0529
19.147447 78.428 -140.3936
19.286197 78.434 -140.7133
19.425953 78.443 -141.0163
19.566721 78.456 -141.3078
19.708510 78.471 -141.5945
19.851326 78.491 -141.8829
19.995177 78.513 -142.1797
20.140070 78.538 -142.4904
20.286013 78.565 -142.8196
20.433014 78.594 -143.1701
20.581080 78.622 -143.5432
20.730219 78.650 -143.9380
20.880439 78.675 -144.3526
21.031747 78.699 -144.7836
21.184152 78.720 -145.2265
21.337661 78.737 -145.6766
21.492282 78.752 -146.1291
21.648024 78.764 -146.5795
21.804895 78.773 -147.0236
21.962902 78.779 -147.4583
22.122054 78.784 -147.8812
22.282360 78.788 -148.2905
22.443827 78.791 -148.6853
22.606464 78.794 -149.0653
22.770280 78.797 -149.4305
22.935283 78.800 -149.7815
23.101481 78.804 -150.1192
23.268884 78.810 -150.4450
23.437500 78.818 -150.7608
23.607338 78.827 -151.0691
23.778406 78.839 -151.3733
23.950714 78.854 -151.6772
24.124271 78.871 -151.9851
24.299086 78.890 -152.3016
24.475167 78.912 -152.6307
24.652524 78.934 -152.9758
24.831166 78.957 -153.3389
25.011103 78.979 -153.7203
25.192344 78.999 -154.1183
25.374898 79.018 -154.5294
25.558775 79.033 -154.9488
25.743984 79.045 -155.3705
25.930536 79.054 -155.7885
26.118439 79.060 -156.1974
26.307704 79.064 -156.5935
26.498341 79.067 -156.9747
26.690359 79.070 -157.3414
26.883768 79.073 -157.6962
27.078579 79.077 -158.0432
27.274801 79.083 -158.3874
27.472446 79.089 -158.7337
27.671522 79.096 -159.0861
27.872042 79.103 -159.4468
28.074014 79.108 -159.8164
28.277450 79.113 -160.1934
28.482360 79.115 -160.5751
28.688755 79.116 -160.9578
28.896645 79.114 -161.3378
29.106042 79.111 -161.7117
29.316957 79.106 -162.0770
29.529400 79.100 -162.4320
29.743382 79.094 -162.7762
29.958915 79.089 -163.1096
30.176009 79.084 -163.4335
30.394677 79.081 -163.7501
30.614929 79.079 -164.0629
30.836778 79.081 -164.3767
31.060234 79.085 -164.6980
31.285309 79.091 -165.0340
31.512015 79.099 -165.3915
31.740364 79.108 -165.7759
31.970368 79.116 -166.1893
32.202039 79.121 -166.6291
32.435388 79.121 -167.0877
32.670428 79.115 -167.5527
32.907171 79.103 -168.0088
33.145630 79.085 -168.4398
33.385817 79.064 -168.8321
33.627745 79.040 -169.1770
33.871425 79.018 -169.4730
34.116871 79.000 -169.7260
34.364096 78.988 -169.9483
34.613113 78.982 -170.1557
34.863934 78.983 -170.3647
35.116572 78.990 -170.5886
35.371041 79.000 -170.8360
35.627354 79.011 -171.1098
35.885525 79.022 -171.4081
36.145566 79.032 -171.7259
36.407492 79.039 -172.0567
36.671316 79.044 -172.3943
36.937051 79.046 -172.7341
37.204712 79.047 -173.0726
37.474313 79.046 -173.4078
37.745867 79.043 -173.7389
38.019389 79.039 -174.0653
38.294893 79.033 -174.3868
38.572394 79.027 -174.7031
38.851905 79.019 -175.0138
39.133442 79.011 -175.3184
39.417019 79.002 -175.6169
39.702651 78.993 -175.9095
39.990353 78.985 -176.1971
40.280140 78.976 -176.4811
40.572026 78.968 -176.7635
40.866028 78.961 -177.0462
41.162160 78.954 -177.3306
41.460438 78.948 -177.6178
41.760877 78.942 -177.9091
42.063494 78.936 -178.2057
42.368303 78.931 -178.5094
42.675322 78.925 -178.8221
42.984565 78.918 -179.1442
43.296048 78.909 -179.4740
43.609789 78.898 -179.8072
43.925804 78.885 179.8628
44.244108 78.869 179.5427
44.564719 78.851 179.2367
44.887654 78.833 178.9455
45.212928 78.815 178.6666
45.540560 78.797 178.3959
45.870565 78.780 178.1306
46.202962 78.763 177.8702
46.537768 78.747 177.6161
46.875000 78.731 177.3691
47.214676 78.716 177.1270
47.556813 78.703 176.8843
47.901429 78.693 176.6334
48.248542 78.683 176.3688
48.598171 78.673 176.0899
48.950334 78.662 175.8009
49.305048 78.649 175.5092
49.662333 78.635 175.2214
50.022206 78.621 174.9409
50.384688 78.606 174.6672
50.749796 78.592 174.3978
51.117550 78.577 174.1303
51.487969 78.563 173.8642
51.861072 78.548 173.6006
52.236879 78.532 173.3412
52.615409 78.516 173.0868
52.996681 78.500 172.8363
53.380717 78.483 172.5871
53.767536 78.466 172.3362
54.157158 78.449 172.0812
54.549603 78.431 171.8212
54.944892 78.412 171.5559
55.343045 78.392 171.2846
55.744084 78.372 171.0055
56.148028 78.352 170.7168
56.554900 78.331 170.4180
56.964720 78.310 170.1114
57.377510 78.288 169.8000
57.793291 78.267 169.4854
58.212085 78.246 169.1663
58.633914 78.226 168.8412
59.058799 78.206 168.5142
59.486764 78.185 168.1967
59.917829 78.163 167.9031
60.352019 78.144 167.6412
60.789354 78.129 167.4043
61.229859 78.120 167.1737
61.673556 78.115 166.9291
62.120468 78.111 166.6606
62.570618 78.104 166.3712
63.024031 78.091 166.0726
63.480729 78.073 165.7774
63.940736 78.048 165.4967
64.404077 78.017 165.2407
64.870776 77.982 165.0186
65.340856 77.943 164.8352
65.814343 77.903 164.6873
66.291261 77.866 164.5641
66.771635 77.831 164.4518
67.255489 77.800 164.3366
67.742850 77.772 164.2067
68.233743 77.746 164.0535
68.728193 77.720 163.8745
69.226226 77.694 163.6747
69.727867 77.666 163.4641
70.233144 77.638 163.2512
70.742083 77.609 163.0389
71.254709 77.580 162.8265
71.771050 77.551 162.6139
72.291132 77.521 162.4023
72.814984 77.491 162.1918
73.342631 77.461 161.9819
73.874102 77.429 161.7743
74.409424 77.397 161.5747
74.948626 77.365 161.3872
75.491734 77.335 161.2077
76.038779 77.307 161.0246
76.589787 77.283 160.8274
77.144788 77.259 160.6127
77.703811 77.236 160.3841
78.266885 77.212 160.1473
78.834039 77.187 159.9087
79.405303 77.162 159.6751
79.980706 77.136 159.4525
80.560280 77.110 159.2418
81.144053 77.085 159.0386
81.732056 77.060 158.8366
82.324320 77.034 158.6335
82.920876 77.006 158.4319
83.521755 76.976 158.2371
84.126988 76.944 158.0515
84.736607 76.912 157.8725
85.350643 76.879 157.6961
85.969129 76.846 157.5199
86.592097 76.813 157.3431
87.219579 76.780 157.1638
87.851608 76.747 156.9800
88.488217 76.713 156.7932
89.129439 76.680 156.6068
89.775308 76.646 156.4225
90.425856 76.613 156.2376
91.081119 76.580 156.0492
91.741131 76.547 155.8568
92.405925 76.512 155.6637
93.075536 76.477 155.4755
93.750000 76.440 155.2977
94.429351 76.404 155.1325
95.113625 76.368 154.9779
95.802858 76.334 154.8292
96.497085 76.301 154.6822
97.196342 76.268 154.5343
97.900667 76.236 154.3849
98.610096 76.202 154.2360
99.324665 76.168 154.0900
100.044413 76.133 153.9479
100.769376 76.097 153.8087
101.499592 76.060 153.6710
102.235100 76.023 153.5330
102.975938 75.987 153.3920
103.722144 75.951 153.2445
104.473757 75.915 153.0886
105.230817 75.880 152.9256
105.993363 75.844 152.7590
106.761435 75.806 152.5935
107.535072 75.768 152.4345
108.314315 75.728 152.2861
109.099206 75.686 152.1491
109.889783 75.643 152.0208
110.686090 75.599 151.8971
111.488167 75.554 151.7767
112.296056 75.507 151.6625
113.109800 75.461 151.5609
113.929440 75.416 151.4779
114.755020 75.374 151.4153
115.586582 75.336 151.3687
116.424170 75.302 151.3301
117.267827 75.269 151.2924
118.117598 75.236 151.2513
118.973527 75.199 151.2021
119.835658 75.157 151.1382
120.704037 75.109 151.0530
121.578708 75.056 150.9407
122.459718 74.998 150.7994
123.347111 74.937 150.6404
124.240935 74.876 150.4879
125.141236 74.822 150.3627
126.048061 74.778 150.2740
126.961458 74.747 150.2197
127.881473 74.727 150.1879
128.808154 74.716 150.1639
129.741551 74.707 150.1367
130.681712 74.696 150.1014
131.628686 74.678 150.0583
132.582521 74.654 150.0084
133.543269 74.624 149.9521
134.510979 74.589 149.8900
135.485701 74.553 149.8239
136.467486 74.516 149.7547
137.456386 74.479 149.6804
138.452451 74.441 149.5994
139.455735 74.400 149.5157
140.466288 74.354 149.4368
141.484165 74.305 149.3725
142.509418 74.254 149.3311
143.542100 74.204 149.3121
144.582265 74.160 149.3084
145.629968 74.120 149.3137
146.685262 74.085 149.3285
147.748204 74.053 149.3564
148.818849 74.021 149.3965
149.897251 73.989 149.4415
150.983469 73.953 149.4841
152.077557 73.914 149.5218
153.179574 73.874 149.5529
154.289576 73.839 149.5668
155.407622 73.809 149.5473
156.533770 73.787 149.4848
157.668078 73.769 149.3853
158.810606 73.754 149.2661
159.961413 73.738 149.1436
161.120559 73.718 149.0298
162.288105 73.694 148.9306
163.464112 73.664 148.8439
164.648640 73.629 148.7643
165.841752 73.591 148.6895
167.043510 73.550 148.6155
168.253976 73.510 148.5348
169.473213 73.469 148.4452
170.701286 73.429 148.3517
171.938258 73.389 148.2617
173.184194 73.350 148.1813
174.439158 73.312 148.1140
175.703216 73.274 148.0597
176.976434 73.238 148.0153
178.258878 73.201 147.9746
179.550615 73.164 147.9322
180.851713 73.124 147.8875
182.162239 73.082 147.8435
183.482262 73.039 147.8032
184.811850 72.997 147.7698
186.151073 72.955 147.7462
187.500000 72.914 147.7330
188.858702 72.874 147.7289
190.227250 72.834 147.7311
191.605715 72.792 147.7357
192.994169 72.750 147.7375
194.392685 72.706 147.7333
195.801334 72.662 147.7219
197.220191 72.617 147.7036
198.649330 72.573 147.6812
200.088825 72.529 147.6595
201.538751 72.484 147.6430
202.999184 72.439 147.6362
204.470200 72.394 147.6417
205.951875 72.348 147.6594
207.444287 72.303 147.6868
208.947514 72.258 147.7214
210.461634 72.213 147.7621
211.986726 72.169 147.8082
213.522869 72.127 147.8562
215.070144 72.086 147.9003
216.628631 72.046 147.9373
218.198411 72.006 147.9687
219.779567 71.966 147.9982
221.372180 71.926 148.0287
222.976334 71.885 148.0620
224.592112 71.844 148.1002
226.219600 71.805 148.1470
227.858880 71.767 148.2047
229.510039 71.731 148.2750
231.173164 71.696 148.3600
232.848340 71.661 148.4619
234.535655 71.627 148.5818
236.235197 71.591 148.7164
237.947054 71.553 148.8557
239.671317 71.513 148.9864
241.408074 71.467 149.0991
243.157416 71.417 149.1949
244.919435 71.365 149.2834
246.694223 71.314 149.3755
248.481871 71.269 149.4745
250.282473 71.229 149.5759
252.096123 71.195 149.6750
253.922915 71.164 149.7722
255.762945 71.135 149.8693
257.616309 71.108 149.9653
259.483103 71.081 150.0562
261.363424 71.055 150.1381
263.257372 71.027 150.2112
265.165043 70.997 150.2776
267.086538 70.965 150.3347
269.021957 70.931 150.3748
270.971401 70.897 150.3926
272.934972 70.861 150.3886
274.912771 70.824 150.3674
276.904902 70.786 150.3361
278.911469 70.747 150.3055
280.932577 70.711 150.2920
282.968330 70.678 150.3109
285.018835 70.648 150.3687
287.084199 70.620 150.4609
289.164530 70.590 150.5790
291.259935 70.556 150.7175
293.370525 70.519 150.8714
295.496408 70.478 151.0320
297.637697 70.436 151.1875
299.794503 70.394 151.3259
301.966937 70.351 151.4420
304.155114 70.309 151.5418
306.359147 70.269 151.6384
308.579152 70.231 151.7471
310.815244 70.195 151.8792
313.067539 70.160 152.0363
315.336156 70.123 152.2090
317.621211 70.083 152.3818
319.922826 70.042 152.5407
322.241118 70.002 152.6785
324.576210 69.966 152.7971
326.928223 69.936 152.9013
329.297280 69.909 152.9968
331.683504 69.883 153.0909
334.087019 69.857 153.1879
336.507952 69.829 153.2870
338.946427 69.801 153.3851
341.402572 69.771 153.4804
343.876516 69.740 153.5733
346.368387 69.708 153.6658
348.878315 69.675 153.7623
351.406431 69.641 153.8685
353.952867 69.607 153.9873
356.517756 69.573 154.1169
359.101230 69.539 154.2523
361.703426 69.505 154.3894
364.324478 69.471 154.5267
366.964523 69.438 154.6655
369.623699 69.405 154.8077
372.302145 69.372 154.9544
375.000000 69.339 155.1061
377.717405 69.306 155.2626
380.454501 69.274 155.4231
383.211431 69.241 155.5861
385.988339 69.210 155.7492
388.785369 69.179 155.9109
391.602668 69.149 156.0710
394.440383 69.119 156.2303
397.298660 69.088 156.3903
400.177650 69.058 156.5530
403.077502 69.028 156.7204
405.998368 68.998 156.8931
408.940400 68.968 157.0704
411.903750 68.938 157.2495
414.888575 68.908 157.4274
417.895028 68.877 157.6014
420.923268 68.846 157.7710
423.973452 68.815 157.9378
427.045738 68.784 158.1057
430.140287 68.754 158.2778
433.257261 68.724 158.4545
436.396822 68.694 158.6342
439.559133 68.665 158.8156
442.744360 68.635 158.9991
445.952668 68.606 159.1850
449.184225 68.577 159.3730
452.439199 68.548 159.5632
455.717760 68.521 159.7559
459.020079 68.493 159.9517
462.346327 68.465 160.1511
465.696680 68.438 160.3547
469.071310 68.410 160.5622
472.470394 68.382 160.7728
475.894109 68.354 160.9840
479.342634 68.326 161.1932
482.816148 68.299 161.3984
486.314833 68.272 161.6006
489.838871 68.247 161.8027
493.388445 68.222 162.0073
496.963741 68.197 162.2160
500.564945 68.172 162.4288
504.192245 68.148 162.6447
507.845830 68.123 162.8626
511.525890 68.098 163.0822
515.232618 68.073 163.3041
518.966206 68.049 163.5301
522.726849 68.024 163.7609
526.514743 67.999 163.9963
530.330086 67.974 164.2354
534.173076 67.950 164.4771
538.043915 67.926 164.7189
541.942803 67.903 164.9582
545.869944 67.881 165.1945
549.825542 67.858 165.4295
553.809805 67.835 165.6658
557.822939 67.813 165.9049
561.865154 67.791 166.1470
565.936660 67.769 166.3908
570.037671 67.747 166.6357
574.168399 67.726 166.8818
578.329060 67.705 167.1303
582.519870 67.684 167.3823
586.741049 67.664 167.6382
590.992817 67.643 167.8981
595.275394 67.622 168.1613
599.589005 67.602 168.4269
603.933874 67.581 168.6943
608.310228 67.560 168.9635
612.718295 67.540 169.2343
617.158304 67.520 169.5066
621.630488 67.501 169.7815
626.135079 67.483 170.0611
630.672311 67.465 170.3462
635.242423 67.447 170.6355
639.845651 67.430 170.9279
644.482237 67.412 171.2234
649.152421 67.396 171.5227
653.856447 67.380 171.8260
658.594560 67.364 172.1332
663.367008 67.349 172.4441
668.174039 67.334 172.7578
673.015903 67.320 173.0733
677.892854 67.307 173.3882
682.805145 67.294 173.7009
687.753032 67.281 174.0115
692.736774 67.269 174.3221
697.756631 67.257 174.6354
702.812863 67.245 174.9536
707.905735 67.233 175.2775
713.035511 67.222 175.6074
718.202461 67.212 175.9433
723.406852 67.202 176.2844
728.648956 67.193 176.6294
733.929047 67.185 176.9769
739.247399 67.177 177.3264
744.604290 67.170 177.6779
750.000000 67.163 178.0307
755.434809 67.158 178.3849
760.909001 67.152 178.7406
766.422861 67.148 179.0984
771.976677 67.145 179.4592
777.570739 67.142 179.8241
783.205337 67.140 -179.8055
788.880766 67.139 -179.4295
794.597321 67.139 -179.0488
800.355301 67.140 -178.6644
806.155005 67.142 -178.2769
811.996736 67.145 -177.8867
817.880799 67.149 -177.4938
823.807501 67.154 -177.0986
829.777150 67.160 -176.7019
835.790057 67.168 -176.3052
841.846536 67.177 -175.9092
847.946903 67.187 -175.5136
854.091476 67.198 -175.1171
860.280575 67.211 -174.7192
866.514523 67.225 -174.3207
872.793644 67.239 -173.9225
879.118267 67.255 -173.5251
885.488720 67.272 -173.1287
891.905336 67.291 -172.7330
898.368450 67.312 -172.3371
904.878398 67.334 -171.9399
911.435520 67.359 -171.5416
918.040157 67.384 -171.1436
924.692655 67.412 -170.7487
931.393359 67.440 -170.3596
938.142619 67.471 -169.9777
944.940787 67.502 -169.6024
951.788218 67.535 -169.2324
958.685268 67.570 -168.8661
965.632296 67.604 -168.5030
972.629666 67.640 -168.1438
979.677741 67.677 -167.7903
986.776890 67.715 -167.4447
993.927482 67.754 -167.1079
1001.129891 67.794 -166.7796
1008.384491 67.837 -166.4587
1015.691660 67.880 -166.1443
1023.051781 67.925 -165.8369
1030.465236 67.972 -165.5374
1037.932411 68.019 -165.2467
1045.453698 68.067 -164.9655
1053.029486 68.115 -164.6940
1060.660172 68.164 -164.4325
1068.346153 68.214 -164.1814
1076.087829 68.263 -163.9411
1083.885605 68.312 -163.7122
1091.739887 68.361 -163.4951
1099.651084 68.410 -163.2896
1107.619609 68.460 -163.0960
1115.645878 68.510 -162.9139
1123.730308 68.560 -162.7419
1131.873321 68.611 -162.5776
1140.075341 68.662 -162.4194
1148.336797 68.714 -162.2678
1156.658119 68.765 -162.1242
1165.039741 68.816 -161.9897
1173.482099 68.866 -161.8630
1181.985634 68.916 -161.7425
1190.550789 68.965 -161.6273
1199.178011 69.013 -161.5175
1207.867749 69.060 -161.4138
1216.620457 69.106 -161.3164
1225.436590 69.152 -161.2261
1234.316609 69.198 -161.1429
1243.260976 69.244 -161.0657
1252.270157 69.289 -160.9931
1261.344623 69.334 -160.9237
1270.484846 69.379 -160.8569
1279.691303 69.423 -160.7935
1288.964474 69.467 -160.7341
1298.304842 69.510 -160.6791
1307.712894 69.552 -160.6277
1317.189120 69.593 -160.5784
1326.734016 69.634 -160.5299
1336.348077 69.675 -160.4816
1346.031806 69.715 -160.4337
1355.785708 69.756 -160.3870
1365.610290 69.797 -160.3422
1375.506065 69.837 -160.3003
1385.473549 69.878 -160.2622
1395.513261 69.918 -160.2280
1405.625726 69.958 -160.1971
1415.811469 69.998 -160.1689
1426.071023 70.038 -160.1433
1436.404921 70.078 -160.1206
1446.813703 70.118 -160.1010
1457.297912 70.158 -160.0845
1467.858093 70.199 -160.0714
1478.494798 70.240 -160.0622
1489.208581 70.282 -160.0586
1500.000000 70.324 -160.0622
1510.869618 70.366 -160.0742
1521.818002 70.408 -160.0949
1532.845723 70.451 -160.1240
1543.953355 70.494 -160.1622
1555.141477 70.537 -160.2115
1566.410674 70.580 -160.2744
1577.761531 70.624 -160.3529
1589.194642 70.667 -160.4490
1600.710601 70.711 -160.5643
1612.310010 70.753 -160.7004
1623.993473 70.794 -160.8585
1635.761599 70.833 -161.0408
1647.615002 70.870 -161.2496
1659.554299 70.904 -161.4869
1671.580114 70.935 -161.7528
1683.693072 70.961 -162.0467
1695.893807 70.981 -162.3668
1708.182952 70.994 -162.7102
1720.561150 70.998 -163.0724
1733.029045 70.993 -163.4462
1745.587288 70.976 -163.8219
1758.236533 70.947 -164.1858
1770.977440 70.907 -164.5215
1783.810673 70.854 -164.8109
1796.736900 70.789 -165.0351
1809.756796 70.715 -165.1761
1822.871040 70.632 -165.2182
1836.080315 70.545 -165.1488
1849.385310 70.456 -164.9597
1862.786718 70.369 -164.6488
1876.285239 70.288 -164.2201
1889.881575 70.217 -163.6845
1903.576436 70.158 -163.0586
1917.370535 70.112 -162.3629
1931.264593 70.082 -161.6195
1945.259332 70.067 -160.8500
1959.355483 70.067 -160.0736
1973.553781 70.081 -159.3061
1987.854965 70.107 -158.5594
2002.259781 70.143 -157.8419
2016.768981 70.189 -157.1591
2031.383320 70.243 -156.5138
2046.103561 70.303 -155.9079
2060.930471 70.368 -155.3422
2075.864823 70.437 -154.8156
2090.907395 70.509 -154.3259
2106.058972 70.583 -153.8698
2121.320344 70.660 -153.4445
2136.692305 70.738 -153.0472
2152.175658 70.817 -152.6759
2167.771210 70.898 -152.3287
2183.479774 70.979 -152.0035
2199.302169 71.061 -151.6984
2215.239219 71.144 -151.4115
2231.291755 71.228 -151.1415
2247.460615 71.312 -150.8869
2263.746641 71.397 -150.6467
2280.150683 71.483 -150.4203
2296.673595 71.569 -150.2068
2313.316238 71.657 -150.0058
2330.079481 71.745 -149.8174
2346.964198 71.835 -149.6418
2363.971268 71.926 -149.4796
2381.101578 72.018 -149.3314
2398.356022 72.112 -149.1978
2415.735498 72.208 -149.0793
2433.240913 72.304 -148.9764
2450.873180 72.403 -148.8898
2468.633217 72.502 -148.8204
2486.521951 72.604 -148.7687
2504.540314 72.707 -148.7351
2522.689246 72.811 -148.7201
2540.969692 72.917 -148.7247
2559.382606 73.025 -148.7501
2577.928947 73.134 -148.7978
2596.609683 73.245 -148.8696
2615.425787 73.358 -148.9675
2634.378241 73.472 -149.0937
2653.468031 73.589 -149.2503
2672.696154 73.707 -149.4395
2692.063613 73.826 -149.6637
2711.571415 73.947 -149.9260
2731.220579 74.069 -150.2299
2751.012130 74.193 -150.5793
2770.947098 74.317 -150.9781
2791.026522 74.442 -151.4310
2811.251451 74.567 -151.9425
2831.622938 74.691 -152.5174
2852.142045 74.814 -153.1600
2872.809842 74.935 -153.8744
2893.627406 75.052 -154.6642
2914.595823 75.164 -155.5328
2935.716186 75.271 -156.4830
2956.989596 75.370 -157.5169
2978.417161 75.461 -158.6356
3000.000000 75.541 -159.8392
3021.739237 75.608 -161.1262
3043.636005 75.660 -162.4930
3065.691446 75.695 -163.9342
3087.906710 75.710 -165.4419
3110.282955 75.703 -167.0058
3132.821347 75.672 -168.6125
3155.523062 75.615 -170.2456
3178.389283 75.529 -171.8860
3201.421202 75.414 -173.5110
3224.620020 75.267 -175.0949
3247.986946 75.089 -176.6084
3271.523198 74.879 -178.0194
3295.230004 74.637 -179.2934
3319.108599 74.366 179.6058
3343.160228 74.067 178.7151
3367.386145 73.745 178.0707
3391.787613 73.402 177.7068
3416.365904 73.047 177.6534
3441.122300 72.686 177.9338
3466.058091 72.327 178.5626
3491.174576 71.981 179.5422
3516.473066 71.656 -179.1393
3541.954880 71.362 -177.5106
3567.621345 71.108 -175.6161
3593.473800 70.900 -173.5132
3619.513592 70.743 -171.2689
3645.742080 70.639 -168.9550
3672.160630 70.588 -166.6414
3698.770620 70.585 -164.3905
3725.573436 70.626 -162.2534
3752.570477 70.704 -160.2695
3779.763150 70.814 -158.4647
3807.152872 70.948 -156.8527
3834.741071 71.100 -155.4356
3862.529185 71.264 -154.2075
3890.518664 71.436 -153.1572
3918.710966 71.611 -152.2707
3947.107561 71.789 -151.5325
3975.709929 71.965 -150.9265
4004.519563 72.139 -150.4377
4033.537962 72.309 -150.0531
4062.766641 72.476 -149.7614
4092.207123 72.638 -149.5531
4121.860942 72.797 -149.4202
4151.729646 72.951 -149.3554
4181.814790 73.100 -149.3537
4212.117944 73.246 -149.4109
4242.640687 73.388 -149.5238
4273.384610 73.526 -149.6888
4304.351317 73.660 -149.9024
4335.542421 73.789 -150.1619
4366.959549 73.915 -150.4654
4398.604338 74.037 -150.8117
4430.478438 74.156 -151.2002
4462.583511 74.272 -151.6314
4494.921231 74.385 -152.1076
4527.493283 74.496 -152.6324
4560.301365 74.603 -153.2106
4593.347189 74.707 -153.8469
4626.632476 74.807 -154.5452
4660.158962 74.902 -155.3091
4693.928395 74.991 -156.1422
4727.942535 75.073 -157.0469
4762.203156 75.146 -158.0242
4796.712043 75.209 -159.0729
4831.470996 75.258 -160.1893
4866.481826 75.293 -161.3673
4901.746360 75.312 -162.5979
4937.266434 75.312 -163.8698
4973.043902 75.293 -165.1685
5009.080628 75.253 -166.4775
5045.378492 75.191 -167.7777
5081.939384 75.108 -169.0488
5118.765212 75.004 -170.2701
5155.857894 74.879 -171.4218
5193.219366 74.736 -172.4853
5230.851574 74.575 -173.4442
5268.756481 74.401 -174.2845
5306.936062 74.214 -174.9956
5345.392309 74.018 -175.5698
5384.127225 73.817 -176.0031
5423.142830 73.612 -176.2952
5462.441159 73.407 -176.4490
5502.024259 73.203 -176.4700
5541.894195 73.005 -176.3653
5582.053045 72.812 -176.1425
5622.502902 72.627 -175.8092
5663.245876 72.451 -175.3741
5704.284090 72.285 -174.8461
5745.619684 72.129 -174.2353
5787.254813 71.985 -173.5512
5829.191647 71.853 -172.8020
5871.432373 71.732 -171.9949
5913.979192 71.624 -171.1362
5956.834323 71.528 -170.2318
6000.000000 71.444 -169.2871
6043.478473 71.372 -168.3077
6087.272010 71.313 -167.2984
6131.382892 71.266 -166.2634
6175.813420 71.231 -165.2061
6220.565910 71.208 -164.1297
6265.642695 71.198 -163.0366
6311.046124 71.200 -161.9293
6356.778566 71.214 -160.8103
6402.842404 71.241 -159.6819
6449.240040 71.281 -158.5467
6495.973891 71.334 -157.4070
6543.046396 71.400 -156.2653
6590.460007 71.480 -155.1248
6638.217197 71.574 -153.9885
6686.320456 71.682 -152.8592
6734.772290 71.805 -151.7399
6783.575226 71.943 -150.6338
6832.731809 72.098 -149.5449
6882.244600 72.269 -148.4776
6932.116181 72.458 -147.4370
6982.349153 72.666 -146.4297
7032.946133 72.893 -145.4635
7083.909760 73.140 -144.5476
7135.242690 73.408 -143.6931
7186.947600 73.698 -142.9124
7239.027185 74.009 -142.2194
7291.484160 74.343 -141.6290
7344.321260 74.700 -141.1579
7397.541239 75.080 -140.8251
7451.146872 75.486 -140.6528
7505.140954 75.916 -140.6675
7559.526299 76.370 -140.9004
7614.305743 76.847 -141.3871
7669.482141 77.345 -142.1668
7725.058371 77.859 -143.2815
7781.037328 78.383 -144.7731
7837.421932 78.909 -146.6808
7894.215122 79.425 -149.0362
7951.419859 79.920 -151.8593
8009.039125 80.378 -155.1540
8067.075924 80.785 -158.9047
8125.533282 81.126 -163.0718
8184.414245 81.388 -167.5904
8243.721885 81.560 -172.3723
8303.459292 81.634 -177.3109
8363.629581 81.607 177.7110
8424.235888 81.482 172.8112
8485.281374 81.263 168.0987
8546.769221 80.961 163.6655
8608.702634 80.587 159.5819
8671.084842 80.156 155.8937
8733.919097 79.682 152.6233
8797.208675 79.177 149.7715
8860.956876 78.653 147.3220
8925.167022 78.121 145.2466
8989.842461 77.587 143.5090
9054.986566 77.058 142.0703
9120.602731 76.538 140.8903
9186.694378 76.029 139.9304
9253.264952 75.533 139.1545
9320.317925 75.049 138.5295
9387.856790 74.577 138.0255
9455.885071 74.115 137.6165
9524.406312 73.660 137.2819
9593.424086 73.209 137.0090
9662.941992 72.757 136.7948
9732.963653 72.301 136.6467
9803.492719 71.836 136.5830
9874.532869 71.361 136.6320
9946.087805 70.874 136.8288
10018.161257 70.377 137.2123
10090.756983 69.873 137.8175
10163.878768 69.369 138.6676
10237.530423 68.872 139.7670
10311.715789 68.392 141.0967
10386.438732 67.936 142.6164
10461.703149 67.510 144.2701
10537.512962 67.116 145.9968
10613.872125 66.754 147.7411
10690.784618 66.421 149.4608
10768.254450 66.111 151.1307
10846.285661 65.820 152.7416
10924.882318 65.543 154.2982
11004.048518 65.276 155.8148
11083.788390 65.018 157.3114
11164.106090 64.767 158.8093
11245.005805 64.523 160.3278
11326.491752 64.288 161.8821
11408.568180 64.066 163.4832
11491.239368 63.858 165.1357
11574.509626 63.669 166.8378
11658.383294 63.502 168.5789
11742.864745 63.362 170.3396
11827.958384 63.250 172.0929
11913.668646 63.167 173.8077
12000.000000 63.112 175.4542
12086.956947 63.082 177.0099
12174.544019 63.075 178.4620
12262.765784 63.085 179.8071
12351.626840 63.110 -178.9512
12441.131819 63.146 -177.8041
12531.285389 63.189 -176.7392
12622.092249 63.238 -175.7409
12713.557132 63.290 -174.7896
12805.684808 63.344 -173.8634
12898.480079 63.400 -172.9398
12991.947783 63.457 -171.9983
13086.092792 63.517 -171.0213
13180.920015 63.581 -169.9948
13276.434395 63.650 -168.9081
13372.640911 63.728 -167.7540
13469.544580 63.815 -166.5288
13567.150452 63.913 -165.2320
13665.463617 64.024 -163.8666
13764.489200 64.150 -162.4382
13864.232362 64.292 -160.9530
13964.698305 64.450 -159.4164
14065.892266 64.628 -157.8346
14167.819519 64.827 -156.2185
14270.485380 65.051 -154.5854
14373.895200 65.301 -152.9601
14478.054370 65.581 -151.3749
14582.968320 65.892 -149.8694
14688.642520 66.237 -148.4903
14795.082478 66.615 -147.2914
14902.293745 67.027 -146.3361
15010.281908 67.472 -145.6984
15119.052599 67.946 -145.4613
15228.611486 68.439 -145.7126
15338.964283 68.941 -146.5348
15450.116741 69.433 -147.9948
15562.074656 69.896 -150.1335
15674.843864 70.307 -152.9574
15788.430244 70.642 -156.4328
15902.839718 70.879 -160.4840
16018.078250 71.000 -164.9955
16134.151848 70.991 -169.8214
16251.066563 70.848 -174.7997
16368.828491 70.572 -179.7721
16487.443769 70.171 175.3991
16606.918584 69.661 170.8190
16727.259161 69.057 166.5561
16848.471777 68.378 162.6445
16970.562748 67.641 159.0906
17093.538442 66.863 155.8800
17217.405268 66.059 152.9856
17342.169684 65.243 150.3728
17467.838194 64.427 148.0057
17594.417350 63.623 145.8509
17721.913751 62.840 143.8821
17850.334044 62.088 142.0822
17979.684923 61.373 140.4432
18109.973131 60.702 138.9658
18241.205462 60.078 137.6584
18373.388756 59.502 136.5400
18506.529905 58.971 135.6441
18640.635849 58.482 135.0176
18775.713581 58.030 134.7125
18911.770141 57.611 134.7742
19048.812624 57.222 135.2291
19186.848172 56.858 136.0777
19325.883983 56.520 137.2899
19465.927305 56.207 138.7938
19606.985439 55.927 140.4615
19749.065738 55.690 142.0987
19892.175609 55.516 143.4470
20036.322514 55.423 144.2234
