* Measurement data measured by REW V5.31.3
* Source: Headset (CX31993 HIFI AUDIO), MICROPHONE (Master Volume), R, volume: 0.250
* Format: 256k Log Swept Sine, 1 sweep at -12.0 dBFS with no timing reference
* Dated: 01 11, 25 3:43:13 PM
* REW Settings:
*  C-weighting compensation: Off
*  Target level: 75.0 dB
* Note: ; 
* Measurement: Softears Volume S low R
* Smoothing: 1/12 octave
* Frequency Step: 96 ppo
* Start Frequency: 0.36621094 Hz
*
* Freq(Hz) SPL(dB) Phase(degrees)
0.366211 52.583 -57.9020
0.368865 52.598 -58.0565
0.371538 52.619 -58.2872
0.374230 52.645 -58.5757
0.376942 52.675 -58.9058
0.379673 52.707 -59.2660
0.382424 52.740 -59.6484
0.385196 52.774 -60.0482
0.387987 52.808 -60.4629
0.390798 52.843 -60.8908
0.393630 52.878 -61.3312
0.396483 52.914 -61.7838
0.399356 52.950 -62.2485
0.402250 52.986 -62.7253
0.405165 53.022 -63.2142
0.408101 53.059 -63.7153
0.411058 53.096 -64.2286
0.414037 53.133 -64.7543
0.417037 53.170 -65.2923
0.420059 53.208 -65.8429
0.423103 53.246 -66.4060
0.426169 53.284 -66.9816
0.429257 53.323 -67.5699
0.432368 53.362 -68.1708
0.435501 53.401 -68.7844
0.438656 53.440 -69.4105
0.441835 53.480 -70.0493
0.445037 53.520 -70.7007
0.448262 53.560 -71.3646
0.451510 53.601 -72.0409
0.454782 53.641 -72.7297
0.458077 53.683 -73.4307
0.461397 53.724 -74.1438
0.464740 53.766 -74.8690
0.468108 53.808 -75.6060
0.471500 53.850 -76.3547
0.474917 53.893 -77.1149
0.478358 53.936 -77.8864
0.481825 53.979 -78.6689
0.485316 54.023 -79.4622
0.488833 54.066 -80.2661
0.492375 54.111 -81.0801
0.495943 54.155 -81.9041
0.499537 54.200 -82.7377
0.503157 54.245 -83.5805
0.506803 54.291 -84.4323
0.510475 54.337 -85.2925
0.514175 54.383 -86.1609
0.517900 54.429 -87.0370
0.521653 54.476 -87.9204
0.525434 54.523 -88.8106
0.529241 54.571 -89.7073
0.533076 54.619 -90.6100
0.536939 54.667 -91.5183
0.540830 54.715 -92.4316
0.544749 54.764 -93.3495
0.548696 54.814 -94.2716
0.552673 54.863 -95.1974
0.556677 54.913 -96.1264
0.560711 54.964 -97.0581
0.564774 55.014 -97.9921
0.568867 55.066 -98.9280
0.572989 55.117 -99.8653
0.577141 55.169 -100.8035
0.581324 55.221 -101.7423
0.585536 55.274 -102.6812
0.589779 55.327 -103.6199
0.594053 55.380 -104.5579
0.598358 55.434 -105.4949
0.602694 55.488 -106.4305
0.607061 55.542 -107.3643
0.611460 55.597 -108.2962
0.615891 55.653 -109.2257
0.620354 55.708 -110.1526
0.624849 55.764 -111.0767
0.629377 55.821 -111.9976
0.633938 55.878 -112.9153
0.638532 55.935 -113.8294
0.643159 55.993 -114.7398
0.647819 56.051 -115.6463
0.652514 56.110 -116.5489
0.657242 56.169 -117.4473
0.662005 56.228 -118.3415
0.666802 56.288 -119.2315
0.671634 56.349 -120.1171
0.676501 56.409 -120.9983
0.681403 56.471 -121.8751
0.686341 56.532 -122.7475
0.691314 56.595 -123.6154
0.696324 56.657 -124.4790
0.701370 56.721 -125.3381
0.706452 56.786 -126.1927
0.711571 56.852 -127.0429
0.716728 56.919 -127.8885
0.721921 56.990 -128.7292
0.727153 57.064 -129.5645
0.732422 57.143 -130.3939
0.737729 57.228 -131.2164
0.743075 57.317 -132.0313
0.748460 57.412 -132.8375
0.753883 57.510 -133.6346
0.759346 57.612 -134.4219
0.764849 57.717 -135.1991
0.770391 57.824 -135.9660
0.775974 57.935 -136.7223
0.781597 58.048 -137.4680
0.787261 58.163 -138.2029
0.792966 58.281 -138.9272
0.798712 58.402 -139.6408
0.804500 58.524 -140.3437
0.810329 58.649 -141.0362
0.816201 58.777 -141.7182
0.822116 58.907 -142.3900
0.828073 59.039 -143.0516
0.834074 59.173 -143.7033
0.840118 59.309 -144.3453
0.846206 59.447 -144.9778
0.852338 59.588 -145.6010
0.858514 59.730 -146.2152
0.864735 59.875 -146.8206
0.871001 60.021 -147.4175
0.877313 60.169 -148.0062
0.883670 60.319 -148.5869
0.890074 60.471 -149.1600
0.896524 60.624 -149.7258
0.903020 60.779 -150.2844
0.909564 60.935 -150.8363
0.916155 61.092 -151.3818
0.922794 61.251 -151.9212
0.929481 61.411 -152.4547
0.936216 61.572 -152.9827
0.943000 61.734 -153.5055
0.949834 61.897 -154.0235
0.956717 62.060 -154.5369
0.963649 62.225 -155.0460
0.970632 62.389 -155.5512
0.977666 62.555 -156.0528
0.984750 62.720 -156.5511
0.991886 62.885 -157.0464
0.999074 63.051 -157.5390
1.006314 63.216 -158.0292
1.013606 63.381 -158.5173
1.020951 63.545 -159.0036
1.028349 63.709 -159.4885
1.035801 63.871 -159.9722
1.043307 64.033 -160.4549
1.050867 64.193 -160.9371
1.058482 64.353 -161.4188
1.066152 64.510 -161.9003
1.073878 64.666 -162.3816
1.081660 64.821 -162.8628
1.089498 64.973 -163.3437
1.097393 65.125 -163.8239
1.105345 65.275 -164.3028
1.113355 65.423 -164.7800
1.121423 65.572 -165.2547
1.129549 65.719 -165.7268
1.137734 65.866 -166.1959
1.145979 66.012 -166.6619
1.154283 66.158 -167.1248
1.162647 66.304 -167.5845
1.171072 66.449 -168.0411
1.179558 66.594 -168.4946
1.188106 66.738 -168.9452
1.196715 66.882 -169.3929
1.205387 67.026 -169.8377
1.214122 67.169 -170.2798
1.222920 67.312 -170.7194
1.231782 67.455 -171.1564
1.240708 67.597 -171.5911
1.249699 67.740 -172.0234
1.258754 67.882 -172.4537
1.267876 68.023 -172.8819
1.277063 68.165 -173.3082
1.286318 68.306 -173.7327
1.295639 68.447 -174.1556
1.305027 68.588 -174.5770
1.314484 68.729 -174.9971
1.324009 68.869 -175.4160
1.333604 69.010 -175.8337
1.343268 69.150 -176.2506
1.353002 69.291 -176.6667
1.362806 69.431 -177.0822
1.372681 69.572 -177.4971
1.382628 69.713 -177.9118
1.392647 69.853 -178.3263
1.402739 69.994 -178.7408
1.412904 70.135 -179.1553
1.423142 70.277 -179.5699
1.433455 70.418 -179.9846
1.443843 70.560 179.6006
1.454305 70.701 179.1860
1.464844 70.843 178.7719
1.475459 70.984 178.3588
1.486150 71.126 177.9471
1.496920 71.266 177.5371
1.507767 71.407 177.1290
1.518693 71.547 176.7228
1.529698 71.686 176.3184
1.540783 71.825 175.9158
1.551948 71.963 175.5146
1.563194 72.100 175.1148
1.574521 72.238 174.7161
1.585931 72.374 174.3181
1.597423 72.510 173.9207
1.608999 72.646 173.5237
1.620658 72.782 173.1266
1.632402 72.917 172.7294
1.644232 73.051 172.3317
1.656146 73.185 171.9332
1.668147 73.319 171.5336
1.680235 73.453 171.1328
1.692411 73.586 170.7304
1.704675 73.720 170.3262
1.717028 73.853 169.9197
1.729470 73.986 169.5110
1.742003 74.119 169.0995
1.754626 74.252 168.6850
1.767341 74.385 168.2674
1.780147 74.517 167.8463
1.793047 74.650 167.4218
1.806040 74.783 166.9935
1.819128 74.916 166.5618
1.832310 75.049 166.1266
1.845587 75.181 165.6885
1.858961 75.313 165.2477
1.872432 75.445 164.8047
1.886001 75.576 164.3597
1.899667 75.707 163.9131
1.913433 75.837 163.4650
1.927299 75.966 163.0156
1.941265 76.095 162.5649
1.955332 76.223 162.1132
1.969501 76.351 161.6605
1.983773 76.478 161.2068
1.998148 76.605 160.7521
2.012627 76.732 160.2964
2.027212 76.858 159.8398
2.041902 76.983 159.3821
2.056698 77.109 158.9235
2.071602 77.234 158.4636
2.086614 77.358 158.0026
2.101734 77.483 157.5402
2.116964 77.607 157.0764
2.132304 77.731 156.6110
2.147756 77.855 156.1439
2.163320 77.978 155.6748
2.178996 78.101 155.2036
2.194786 78.224 154.7301
2.210690 78.347 154.2542
2.226710 78.469 153.7756
2.242845 78.591 153.2946
2.259098 78.712 152.8112
2.275468 78.832 152.3256
2.291957 78.952 151.8378
2.308566 79.071 151.3483
2.325295 79.189 150.8572
2.342145 79.307 150.3646
2.359117 79.424 149.8707
2.376212 79.541 149.3758
2.393431 79.657 148.8799
2.410775 79.772 148.3832
2.428244 79.888 147.8857
2.445840 80.002 147.3875
2.463564 80.117 146.8887
2.481416 80.231 146.3892
2.499397 80.344 145.8888
2.517509 80.457 145.3876
2.535752 80.570 144.8852
2.554127 80.682 144.3813
2.572635 80.794 143.8755
2.591277 80.906 143.3676
2.610055 81.016 142.8571
2.628968 81.126 142.3441
2.648019 81.235 141.8287
2.667208 81.344 141.3111
2.686535 81.452 140.7915
2.706003 81.559 140.2703
2.725612 81.665 139.7476
2.745363 81.771 139.2239
2.765257 81.876 138.6995
2.785295 81.980 138.1744
2.805478 82.084 137.6492
2.825808 82.188 137.1238
2.846285 82.291 136.5984
2.866910 82.393 136.0731
2.887685 82.495 135.5476
2.908611 82.597 135.0218
2.929688 82.698 134.4951
2.950917 82.798 133.9672
2.972301 82.898 133.4374
2.993839 82.997 132.9057
3.015534 83.095 132.3719
3.037386 83.193 131.8362
3.059396 83.289 131.2989
3.081565 83.385 130.7603
3.103896 83.480 130.2208
3.126388 83.575 129.6808
3.149043 83.669 129.1408
3.171862 83.762 128.6010
3.194847 83.855 128.0619
3.217998 83.947 127.5235
3.241317 84.039 126.9861
3.264805 84.130 126.4494
3.288463 84.221 125.9131
3.312293 84.311 125.3769
3.336295 84.400 124.8402
3.360471 84.489 124.3026
3.384822 84.576 123.7641
3.409350 84.664 123.2245
3.434056 84.750 122.6842
3.458940 84.836 122.1434
3.484005 84.921 121.6024
3.509252 85.005 121.0616
3.534681 85.089 120.5213
3.560295 85.172 119.9819
3.586094 85.255 119.4435
3.612081 85.337 118.9062
3.638255 85.419 118.3699
3.664620 85.500 117.8343
3.691175 85.580 117.2990
3.717923 85.660 116.7636
3.744864 85.739 116.2280
3.772001 85.818 115.6919
3.799335 85.896 115.1556
3.826866 85.973 114.6193
3.854597 86.050 114.0831
3.882529 86.126 113.5476
3.910664 86.201 113.0129
3.939002 86.276 112.4793
3.967546 86.351 111.9470
3.996296 86.424 111.4158
4.025255 86.498 110.8858
4.054423 86.571 110.3566
4.083804 86.643 109.8278
4.113396 86.715 109.2992
4.143204 86.786 108.7708
4.173227 86.856 108.2426
4.203468 86.926 107.7149
4.233928 86.996 107.1877
4.264609 87.064 106.6613
4.295512 87.133 106.1359
4.326639 87.200 105.6117
4.357992 87.268 105.0885
4.389572 87.335 104.5664
4.421380 87.401 104.0451
4.453419 87.466 103.5244
4.485691 87.532 103.0040
4.518196 87.596 102.4839
4.550936 87.660 101.9644
4.583914 87.723 101.4455
4.617131 87.786 100.9275
4.650589 87.848 100.4105
4.684289 87.910 99.8949
4.718233 87.971 99.3806
4.752424 88.032 98.8675
4.786862 88.092 98.3555
4.821549 88.152 97.8444
4.856488 88.211 97.3340
4.891680 88.269 96.8244
4.927127 88.327 96.3157
4.962831 88.385 95.8082
4.998794 88.441 95.3020
5.035017 88.498 94.7973
5.071503 88.553 94.2944
5.108253 88.608 93.7932
5.145270 88.663 93.2937
5.182555 88.717 92.7956
5.220110 88.771 92.2990
5.257937 88.824 91.8037
5.296038 88.876 91.3099
5.334415 88.928 90.8177
5.373071 88.980 90.3275
5.412006 89.031 89.8392
5.451224 89.081 89.3532
5.490725 89.132 88.8694
5.530514 89.181 88.3878
5.570590 89.231 87.9082
5.610957 89.279 87.4305
5.651616 89.328 86.9549
5.692570 89.376 86.4812
5.733821 89.423 86.0097
5.775370 89.470 85.5403
5.817221 89.517 85.0732
5.859375 89.564 84.6084
5.901834 89.610 84.1458
5.944602 89.656 83.6854
5.987679 89.702 83.2271
6.031068 89.747 82.7706
6.074771 89.792 82.3160
6.118792 89.837 81.8632
6.163131 89.882 81.4120
6.207792 89.927 80.9625
6.252776 89.971 80.5146
6.298086 90.015 80.0681
6.343725 90.059 79.6231
6.389694 90.103 79.1793
6.435996 90.146 78.7366
6.482634 90.190 78.2948
6.529610 90.233 77.8538
6.576926 90.276 77.4134
6.624585 90.319 76.9735
6.672590 90.362 76.5341
6.720942 90.404 76.0951
6.769645 90.446 75.6564
6.818700 90.488 75.2179
6.868111 90.530 74.7795
6.917881 90.571 74.3412
6.968010 90.612 73.9029
7.018504 90.653 73.4645
7.069362 90.693 73.0259
7.120590 90.733 72.5874
7.172189 90.772 72.1489
7.224161 90.811 71.7107
7.276511 90.850 71.2728
7.329239 90.888 70.8352
7.382350 90.925 70.3980
7.435845 90.962 69.9614
7.489729 90.998 69.5254
7.544002 91.034 69.0904
7.598669 91.069 68.6566
7.653732 91.104 68.2243
7.709194 91.138 67.7937
7.765058 91.172 67.3648
7.821327 91.205 66.9379
7.878004 91.237 66.5131
7.935091 91.269 66.0907
7.992592 91.300 65.6710
8.050510 91.331 65.2541
8.108847 91.362 64.8401
8.167607 91.392 64.4293
8.226793 91.421 64.0215
8.286408 91.451 63.6169
8.346454 91.480 63.2154
8.406936 91.508 62.8172
8.467856 91.537 62.4221
8.529218 91.565 62.0301
8.591024 91.593 61.6411
8.653278 91.621 61.2549
8.715983 91.649 60.8712
8.779143 91.677 60.4898
8.842760 91.705 60.1106
8.906839 91.733 59.7333
8.971381 91.761 59.3578
9.036392 91.789 58.9837
9.101873 91.816 58.6107
9.167829 91.844 58.2385
9.234263 91.871 57.8671
9.301178 91.899 57.4962
9.368578 91.926 57.1257
9.436467 91.953 56.7555
9.504847 91.980 56.3856
9.573723 92.007 56.0157
9.643099 92.033 55.6461
9.712976 92.059 55.2768
9.783361 92.084 54.9079
9.854255 92.110 54.5396
9.925663 92.134 54.1722
9.997588 92.158 53.8057
10.070035 92.182 53.4405
10.143007 92.205 53.0769
10.216507 92.228 52.7151
10.290540 92.250 52.3554
10.365109 92.272 51.9981
10.440219 92.294 51.6433
10.515873 92.315 51.2913
10.592076 92.336 50.9420
10.668830 92.356 50.5958
10.746141 92.377 50.2526
10.824012 92.397 49.9122
10.902447 92.417 49.5746
10.981451 92.437 49.2397
11.061027 92.457 48.9072
11.141180 92.477 48.5768
11.221913 92.496 48.2484
11.303232 92.516 47.9215
11.385140 92.536 47.5959
11.467641 92.556 47.2711
11.550741 92.576 46.9471
11.634442 92.596 46.6235
11.718750 92.616 46.3000
11.803669 92.636 45.9767
11.889203 92.656 45.6532
11.975357 92.675 45.3297
12.062136 92.694 45.0063
12.149543 92.713 44.6830
12.237583 92.732 44.3599
12.326262 92.750 44.0373
12.415583 92.768 43.7155
12.505552 92.785 43.3947
12.596172 92.803 43.0750
12.687449 92.820 42.7567
12.779387 92.836 42.4401
12.871992 92.853 42.1252
12.965268 92.869 41.8120
13.059220 92.885 41.5005
13.153852 92.901 41.1906
13.249170 92.917 40.8821
13.345179 92.933 40.5749
13.441884 92.948 40.2685
13.539289 92.964 39.9628
13.637401 92.980 39.6573
13.736223 92.996 39.3520
13.835761 93.011 39.0463
13.936021 93.027 38.7403
14.037007 93.042 38.4339
14.138725 93.057 38.1270
14.241180 93.071 37.8198
14.344377 93.086 37.5126
14.448323 93.099 37.2058
14.553021 93.113 36.8997
14.658478 93.125 36.5948
14.764700 93.138 36.2917
14.871691 93.149 35.9910
14.979457 93.161 35.6930
15.088005 93.172 35.3983
15.197339 93.182 35.1070
15.307465 93.193 34.8195
15.418389 93.203 34.5358
15.530117 93.214 34.2557
15.642655 93.224 33.9792
15.756008 93.235 33.7058
15.870182 93.245 33.4350
15.985184 93.257 33.1665
16.101019 93.268 32.8996
16.217694 93.279 32.6339
16.335214 93.291 32.3689
16.453586 93.303 32.1042
16.572815 93.315 31.8395
16.692909 93.327 31.5748
16.813872 93.339 31.3099
16.935713 93.351 31.0449
17.058436 93.363 30.7799
17.182048 93.375 30.5152
17.306556 93.386 30.2510
17.431967 93.398 29.9875
17.558286 93.409 29.7248
17.685521 93.420 29.4631
17.813677 93.431 29.2023
17.942762 93.442 28.9425
18.072783 93.453 28.6834
18.203746 93.464 28.4250
18.335658 93.474 28.1669
18.468526 93.485 27.9090
18.602356 93.495 27.6511
18.737156 93.506 27.3931
18.872934 93.516 27.1351
19.009695 93.526 26.8772
19.147447 93.535 26.6195
19.286197 93.544 26.3625
19.425953 93.553 26.1066
19.566721 93.561 25.8521
19.708510 93.569 25.5994
19.851326 93.576 25.3489
19.995177 93.583 25.1010
20.140070 93.591 24.8556
20.286013 93.598 24.6127
20.433014 93.605 24.3722
20.581080 93.612 24.1337
20.730219 93.619 23.8966
20.880439 93.626 23.6606
21.031747 93.633 23.4251
21.184152 93.641 23.1896
21.337661 93.648 22.9536
21.492282 93.656 22.7170
21.648024 93.663 22.4799
21.804895 93.670 22.2422
21.962902 93.677 22.0042
22.122054 93.683 21.7665
22.282360 93.690 21.5293
22.443827 93.696 21.2933
22.606464 93.701 21.0585
22.770280 93.707 20.8253
22.935283 93.713 20.5934
23.101481 93.718 20.3624
23.268884 93.724 20.1320
23.437500 93.730 19.9014
23.607338 93.736 19.6699
23.778406 93.742 19.4371
23.950714 93.748 19.2027
24.124271 93.754 18.9666
24.299086 93.759 18.7292
24.475167 93.764 18.4915
24.652524 93.768 18.2542
24.831166 93.771 18.0186
25.011103 93.774 17.7856
25.192344 93.777 17.5563
25.374898 93.780 17.3309
25.558775 93.782 17.1093
25.743984 93.785 16.8909
25.930536 93.788 16.6748
26.118439 93.792 16.4596
26.307704 93.795 16.2441
26.498341 93.799 16.0275
26.690359 93.803 15.8090
26.883768 93.807 15.5887
27.078579 93.811 15.3673
27.274801 93.814 15.1456
27.472446 93.816 14.9247
27.671522 93.818 14.7059
27.872042 93.820 14.4899
28.074014 93.821 14.2769
28.277450 93.822 14.0668
28.482360 93.824 13.8590
28.688755 93.826 13.6525
28.896645 93.828 13.4464
29.106042 93.830 13.2403
29.316957 93.832 13.0338
29.529400 93.833 12.8271
29.743382 93.835 12.6208
29.958915 93.836 12.4154
30.176009 93.837 12.2114
30.394677 93.838 12.0089
30.614929 93.840 11.8076
30.836778 93.841 11.6067
31.060234 93.843 11.4054
31.285309 93.845 11.2029
31.512015 93.846 10.9987
31.740364 93.848 10.7927
31.970368 93.849 10.5856
32.202039 93.850 10.3782
32.435388 93.850 10.1713
32.670428 93.850 9.9658
32.907171 93.850 9.7617
33.145630 93.850 9.5587
33.385817 93.850 9.3564
33.627745 93.850 9.1542
33.871425 93.850 8.9518
34.116871 93.850 8.7494
34.364096 93.849 8.5479
34.613113 93.848 8.3481
34.863934 93.846 8.1511
35.116572 93.845 7.9570
35.371041 93.844 7.7655
35.627354 93.843 7.5751
35.885525 93.843 7.3846
36.145566 93.842 7.1927
36.407492 93.842 6.9990
36.671316 93.841 6.8043
36.937051 93.840 6.6101
37.204712 93.838 6.4181
37.474313 93.836 6.2295
37.745867 93.834 6.0443
38.019389 93.832 5.8611
38.294893 93.831 5.6777
38.572394 93.830 5.4918
38.851905 93.830 5.3019
39.133442 93.828 5.1084
39.417019 93.826 4.9128
39.702651 93.823 4.7179
39.990353 93.819 4.5259
40.280140 93.815 4.3379
40.572026 93.811 4.1534
40.866028 93.807 3.9707
41.162160 93.804 3.7874
41.460438 93.800 3.6023
41.760877 93.796 3.4153
42.063494 93.792 3.2278
42.368303 93.787 3.0420
42.675322 93.783 2.8593
42.984565 93.778 2.6797
43.296048 93.774 2.5015
43.609789 93.771 2.3218
43.925804 93.768 2.1381
44.244108 93.766 1.9490
44.564719 93.763 1.7555
44.887654 93.760 1.5596
45.212928 93.756 1.3636
45.540560 93.753 1.1685
45.870565 93.750 0.9724
46.202962 93.747 0.7725
46.537768 93.744 0.5662
46.875000 93.740 0.3531
47.214676 93.734 0.1375
47.556813 93.726 -0.0736
47.901429 93.716 -0.2720
48.248542 93.705 -0.4519
48.598171 93.694 -0.6128
48.950334 93.685 -0.7594
49.305048 93.679 -0.8999
49.662333 93.674 -1.0422
50.022206 93.670 -1.1913
50.384688 93.666 -1.3481
50.749796 93.662 -1.5109
51.117550 93.658 -1.6768
51.487969 93.652 -1.8439
51.861072 93.646 -2.0115
52.236879 93.639 -2.1796
52.615409 93.632 -2.3479
52.996681 93.625 -2.5159
53.380717 93.617 -2.6832
53.767536 93.609 -2.8502
54.157158 93.601 -3.0177
54.549603 93.593 -3.1871
54.944892 93.585 -3.3587
55.343045 93.577 -3.5321
55.744084 93.569 -3.7062
56.148028 93.560 -3.8799
56.554900 93.551 -4.0527
56.964720 93.542 -4.2244
57.377510 93.533 -4.3950
57.793291 93.524 -4.5643
58.212085 93.515 -4.7321
58.633914 93.507 -4.8982
59.058799 93.498 -5.0636
59.486764 93.490 -5.2299
59.917829 93.481 -5.3983
60.352019 93.472 -5.5695
60.789354 93.463 -5.7423
61.229859 93.453 -5.9155
61.673556 93.443 -6.0881
62.120468 93.432 -6.2597
62.570618 93.421 -6.4307
63.024031 93.410 -6.6013
63.480729 93.399 -6.7712
63.940736 93.387 -6.9401
64.404077 93.375 -7.1075
64.870776 93.363 -7.2738
65.340856 93.352 -7.4391
65.814343 93.340 -7.6037
66.291261 93.329 -7.7681
66.771635 93.317 -7.9324
67.255489 93.306 -8.0968
67.742850 93.294 -8.2605
68.233743 93.282 -8.4229
68.728193 93.270 -8.5836
69.226226 93.257 -8.7435
69.727867 93.245 -8.9031
70.233144 93.232 -9.0626
70.742083 93.219 -9.2225
71.254709 93.206 -9.3829
71.771050 93.192 -9.5441
72.291132 93.179 -9.7057
72.814984 93.165 -9.8668
73.342631 93.151 -10.0269
73.874102 93.137 -10.1863
74.409424 93.122 -10.3461
74.948626 93.108 -10.5064
75.491734 93.094 -10.6670
76.038779 93.079 -10.8274
76.589787 93.064 -10.9871
77.144788 93.049 -11.1455
77.703811 93.033 -11.3021
78.266885 93.017 -11.4562
78.834039 93.001 -11.6082
79.405303 92.985 -11.7594
79.980706 92.969 -11.9114
80.560280 92.952 -12.0645
81.144053 92.936 -12.2183
81.732056 92.919 -12.3724
82.324320 92.902 -12.5267
82.920876 92.885 -12.6810
83.521755 92.868 -12.8342
84.126988 92.850 -12.9858
84.736607 92.833 -13.1364
85.350643 92.815 -13.2864
85.969129 92.797 -13.4359
86.592097 92.778 -13.5844
87.219579 92.760 -13.7316
87.851608 92.741 -13.8779
88.488217 92.722 -14.0243
89.129439 92.703 -14.1713
89.775308 92.684 -14.3189
90.425856 92.664 -14.4671
91.081119 92.645 -14.6165
91.741131 92.625 -14.7673
92.405925 92.605 -14.9189
93.075536 92.584 -15.0697
93.750000 92.564 -15.2185
94.429351 92.543 -15.3654
95.113625 92.521 -15.5101
95.802858 92.499 -15.6515
96.497085 92.477 -15.7885
97.196342 92.455 -15.9210
97.900667 92.432 -16.0503
98.610096 92.410 -16.1771
99.324665 92.387 -16.3022
100.044413 92.365 -16.4274
100.769376 92.343 -16.5547
101.499592 92.321 -16.6857
102.235100 92.299 -16.8208
102.975938 92.276 -16.9589
103.722144 92.254 -17.0986
104.473757 92.230 -17.2396
105.230817 92.206 -17.3806
105.993363 92.181 -17.5199
106.761435 92.156 -17.6551
107.535072 92.130 -17.7856
108.314315 92.103 -17.9124
109.099206 92.076 -18.0366
109.889783 92.049 -18.1593
110.686090 92.021 -18.2812
111.488167 91.993 -18.4033
112.296056 91.966 -18.5265
113.109800 91.938 -18.6509
113.929440 91.911 -18.7762
114.755020 91.883 -18.9022
115.586582 91.856 -19.0280
116.424170 91.827 -19.1531
117.267827 91.798 -19.2770
118.117598 91.768 -19.3993
118.973527 91.737 -19.5193
119.835658 91.704 -19.6351
120.704037 91.670 -19.7439
121.578708 91.635 -19.8440
122.459718 91.600 -19.9360
123.347111 91.565 -20.0222
124.240935 91.530 -20.1061
125.141236 91.495 -20.1917
126.048061 91.459 -20.2832
126.961458 91.423 -20.3837
127.881473 91.386 -20.4937
128.808154 91.350 -20.6108
129.741551 91.313 -20.7313
130.681712 91.278 -20.8499
131.628686 91.242 -20.9606
132.582521 91.206 -21.0559
133.543269 91.169 -21.1276
134.510979 91.127 -21.1691
135.485701 91.081 -21.1776
136.467486 91.030 -21.1562
137.456386 90.975 -21.1118
138.452451 90.915 -21.0530
139.455735 90.854 -20.9883
140.466288 90.794 -20.9216
141.484165 90.737 -20.8506
142.509418 90.686 -20.7678
143.542100 90.642 -20.6631
144.582265 90.605 -20.5274
145.629968 90.575 -20.3568
146.685262 90.551 -20.1548
147.748204 90.534 -19.9321
148.818849 90.522 -19.7041
149.897251 90.516 -19.4881
150.983469 90.516 -19.3009
152.077557 90.523 -19.1569
153.179574 90.534 -19.0652
154.289576 90.548 -19.0277
155.407622 90.562 -19.0379
156.533770 90.573 -19.0834
157.668078 90.579 -19.1516
158.810606 90.581 -19.2335
159.961413 90.579 -19.3246
161.120559 90.573 -19.4219
162.288105 90.564 -19.5237
163.464112 90.553 -19.6282
164.648640 90.540 -19.7341
165.841752 90.526 -19.8403
167.043510 90.511 -19.9454
168.253976 90.494 -20.0479
169.473213 90.475 -20.1481
170.701286 90.455 -20.2478
171.938258 90.432 -20.3501
173.184194 90.406 -20.4568
174.439158 90.377 -20.5675
175.703216 90.346 -20.6787
176.976434 90.312 -20.7854
178.258878 90.277 -20.8828
179.550615 90.241 -20.9677
180.851713 90.206 -21.0391
182.162239 90.171 -21.0988
183.482262 90.136 -21.1501
184.811850 90.103 -21.1978
186.151073 90.070 -21.2455
187.500000 90.039 -21.2961
188.858702 90.008 -21.3505
190.227250 89.977 -21.4077
191.605715 89.945 -21.4661
192.994169 89.911 -21.5236
194.392685 89.875 -21.5784
195.801334 89.838 -21.6281
197.220191 89.799 -21.6700
198.649330 89.761 -21.7009
200.088825 89.722 -21.7174
201.538751 89.684 -21.7176
202.999184 89.646 -21.7013
204.470200 89.608 -21.6705
205.951875 89.570 -21.6288
207.444287 89.532 -21.5811
208.947514 89.494 -21.5324
210.461634 89.456 -21.4869
211.986726 89.417 -21.4474
213.522869 89.379 -21.4151
215.070144 89.341 -21.3900
216.628631 89.302 -21.3707
218.198411 89.263 -21.3547
219.779567 89.224 -21.3389
221.372180 89.184 -21.3203
222.976334 89.145 -21.2957
224.592112 89.105 -21.2626
226.219600 89.066 -21.2200
227.858880 89.028 -21.1681
229.510039 88.990 -21.1086
231.173164 88.953 -21.0435
232.848340 88.917 -20.9735
234.535655 88.881 -20.8992
236.235197 88.844 -20.8207
237.947054 88.807 -20.7385
239.671317 88.770 -20.6543
241.408074 88.731 -20.5697
243.157416 88.693 -20.4860
244.919435 88.654 -20.4023
246.694223 88.615 -20.3167
248.481871 88.575 -20.2271
250.282473 88.536 -20.1318
252.096123 88.496 -20.0305
253.922915 88.457 -19.9237
255.762945 88.418 -19.8132
257.616309 88.380 -19.6993
259.483103 88.342 -19.5816
261.363424 88.303 -19.4592
263.257372 88.265 -19.3320
265.165043 88.226 -19.1998
267.086538 88.186 -19.0620
269.021957 88.147 -18.9176
270.971401 88.107 -18.7657
272.934972 88.067 -18.6063
274.912771 88.027 -18.4391
276.904902 87.988 -18.2642
278.911469 87.948 -18.0814
280.932577 87.909 -17.8899
282.968330 87.871 -17.6891
285.018835 87.834 -17.4795
287.084199 87.797 -17.2623
289.164530 87.761 -17.0394
291.259935 87.727 -16.8112
293.370525 87.693 -16.5779
295.496408 87.659 -16.3394
297.637697 87.627 -16.0946
299.794503 87.594 -15.8417
301.966937 87.563 -15.5786
304.155114 87.533 -15.3034
306.359147 87.504 -15.0153
308.579152 87.476 -14.7139
310.815244 87.450 -14.4000
313.067539 87.426 -14.0753
315.336156 87.406 -13.7412
317.621211 87.389 -13.3998
319.922826 87.376 -13.0544
322.241118 87.367 -12.7095
324.576210 87.363 -12.3706
326.928223 87.364 -12.0459
329.297280 87.369 -11.7441
331.683504 87.378 -11.4723
334.087019 87.388 -11.2349
336.507952 87.398 -11.0339
338.946427 87.408 -10.8690
341.402572 87.415 -10.7371
343.876516 87.420 -10.6311
346.368387 87.420 -10.5417
348.878315 87.418 -10.4602
351.406431 87.412 -10.3805
353.952867 87.403 -10.2990
356.517756 87.391 -10.2130
359.101230 87.378 -10.1199
361.703426 87.363 -10.0173
364.324478 87.346 -9.9040
366.964523 87.329 -9.7788
369.623699 87.311 -9.6419
372.302145 87.294 -9.4949
375.000000 87.276 -9.3404
377.717405 87.260 -9.1807
380.454501 87.244 -9.0177
383.211431 87.228 -8.8528
385.988339 87.212 -8.6858
388.785369 87.197 -8.5166
391.602668 87.182 -8.3450
394.440383 87.166 -8.1717
397.298660 87.151 -7.9972
400.177650 87.136 -7.8214
403.077502 87.120 -7.6438
405.998368 87.105 -7.4638
408.940400 87.090 -7.2813
411.903750 87.076 -7.0965
414.888575 87.062 -6.9099
417.895028 87.048 -6.7223
420.923268 87.034 -6.5334
423.973452 87.020 -6.3424
427.045738 87.007 -6.1479
430.140287 86.993 -5.9490
433.257261 86.979 -5.7448
436.396822 86.965 -5.5348
439.559133 86.952 -5.3212
442.744360 86.940 -5.1086
445.952668 86.929 -4.9014
449.184225 86.918 -4.7004
452.439199 86.908 -4.5042
455.717760 86.897 -4.3094
459.020079 86.887 -4.1130
462.346327 86.877 -3.9131
465.696680 86.866 -3.7098
469.071310 86.856 -3.5040
472.470394 86.846 -3.2968
475.894109 86.836 -3.0882
479.342634 86.826 -2.8785
482.816148 86.817 -2.6677
486.314833 86.807 -2.4559
489.838871 86.798 -2.2424
493.388445 86.789 -2.0272
496.963741 86.780 -1.8099
500.564945 86.771 -1.5906
504.192245 86.762 -1.3693
507.845830 86.753 -1.1464
511.525890 86.744 -0.9223
515.232618 86.735 -0.6970
518.966206 86.727 -0.4703
522.726849 86.720 -0.2422
526.514743 86.713 -0.0125
530.330086 86.707 0.2186
534.173076 86.701 0.4502
538.043915 86.695 0.6810
541.942803 86.689 0.9108
545.869944 86.684 1.1403
549.825542 86.678 1.3710
553.809805 86.672 1.6028
557.822939 86.667 1.8350
561.865154 86.661 2.0663
565.936660 86.656 2.2964
570.037671 86.651 2.5262
574.168399 86.646 2.7581
578.329060 86.641 2.9934
582.519870 86.637 3.2302
586.741049 86.633 3.4657
590.992817 86.628 3.6991
595.275394 86.623 3.9330
599.589005 86.618 4.1706
603.933874 86.612 4.4136
608.310228 86.607 4.6616
612.718295 86.602 4.9135
617.158304 86.599 5.1685
621.630488 86.596 5.4274
626.135079 86.594 5.6910
630.672311 86.592 5.9599
635.242423 86.591 6.2329
639.845651 86.589 6.5076
644.482237 86.588 6.7819
649.152421 86.587 7.0555
653.856447 86.586 7.3293
658.594560 86.586 7.6036
663.367008 86.585 7.8787
668.174039 86.584 8.1541
673.015903 86.583 8.4297
677.892854 86.583 8.7059
682.805145 86.582 8.9843
687.753032 86.582 9.2657
692.736774 86.583 9.5513
697.756631 86.584 9.8412
702.812863 86.585 10.1354
707.905735 86.586 10.4334
713.035511 86.588 10.7351
718.202461 86.591 11.0405
723.406852 86.594 11.3495
728.648956 86.599 11.6616
733.929047 86.604 11.9772
739.247399 86.610 12.2963
744.604290 86.617 12.6180
750.000000 86.624 12.9410
755.434809 86.632 13.2645
760.909001 86.641 13.5890
766.422861 86.651 13.9150
771.976677 86.662 14.2432
777.570739 86.673 14.5739
783.205337 86.684 14.9075
788.880766 86.696 15.2439
794.597321 86.709 15.5830
800.355301 86.722 15.9248
806.155005 86.736 16.2695
811.996736 86.751 16.6172
817.880799 86.767 16.9678
823.807501 86.784 17.3210
829.777150 86.802 17.6764
835.790057 86.821 18.0336
841.846536 86.841 18.3922
847.946903 86.862 18.7519
854.091476 86.885 19.1122
860.280575 86.908 19.4728
866.514523 86.933 19.8333
872.793644 86.960 20.1929
879.118267 86.987 20.5514
885.488720 87.016 20.9084
891.905336 87.046 21.2635
898.368450 87.078 21.6167
904.878398 87.111 21.9677
911.435520 87.146 22.3162
918.040157 87.181 22.6620
924.692655 87.219 23.0045
931.393359 87.257 23.3431
938.142619 87.297 23.6774
944.940787 87.338 24.0069
951.788218 87.380 24.3310
958.685268 87.424 24.6489
965.632296 87.469 24.9601
972.629666 87.515 25.2637
979.677741 87.562 25.5594
986.776890 87.611 25.8470
993.927482 87.661 26.1260
1001.129891 87.711 26.3961
1008.384491 87.763 26.6568
1015.691660 87.815 26.9077
1023.051781 87.869 27.1483
1030.465236 87.923 27.3787
1037.932411 87.977 27.5988
1045.453698 88.032 27.8087
1053.029486 88.087 28.0083
1060.660172 88.143 28.1971
1068.346153 88.198 28.3747
1076.087829 88.253 28.5414
1083.885605 88.308 28.6974
1091.739887 88.363 28.8434
1099.651084 88.418 28.9798
1107.619609 88.474 29.1069
1115.645878 88.529 29.2250
1123.730308 88.583 29.3341
1131.873321 88.637 29.4338
1140.075341 88.691 29.5238
1148.336797 88.743 29.6041
1156.658119 88.795 29.6753
1165.039741 88.846 29.7383
1173.482099 88.896 29.7942
1181.985634 88.945 29.8438
1190.550789 88.993 29.8882
1199.178011 89.040 29.9275
1207.867749 89.086 29.9622
1216.620457 89.131 29.9928
1225.436590 89.175 30.0197
1234.316609 89.218 30.0435
1243.260976 89.260 30.0649
1252.270157 89.301 30.0845
1261.344623 89.342 30.1026
1270.484846 89.381 30.1197
1279.691303 89.419 30.1364
1288.964474 89.456 30.1529
1298.304842 89.493 30.1696
1307.712894 89.529 30.1870
1317.189120 89.563 30.2055
1326.734016 89.598 30.2255
1336.348077 89.631 30.2473
1346.031806 89.664 30.2709
1355.785708 89.696 30.2968
1365.610290 89.728 30.3253
1375.506065 89.759 30.3567
1385.473549 89.789 30.3914
1395.513261 89.820 30.4297
1405.625726 89.849 30.4716
1415.811469 89.879 30.5173
1426.071023 89.908 30.5666
1436.404921 89.938 30.6196
1446.813703 89.967 30.6765
1457.297912 89.996 30.7372
1467.858093 90.025 30.8019
1478.494798 90.054 30.8706
1489.208581 90.083 30.9435
1500.000000 90.112 31.0203
1510.869618 90.142 31.1010
1521.818002 90.171 31.1855
1532.845723 90.201 31.2738
1543.953355 90.232 31.3659
1555.141477 90.263 31.4618
1566.410674 90.294 31.5615
1577.761531 90.326 31.6648
1589.194642 90.358 31.7716
1600.710601 90.391 31.8815
1612.310010 90.425 31.9944
1623.993473 90.459 32.1101
1635.761599 90.494 32.2284
1647.615002 90.530 32.3490
1659.554299 90.567 32.4716
1671.580114 90.605 32.5962
1683.693072 90.643 32.7225
1695.893807 90.683 32.8506
1708.182952 90.724 32.9802
1720.561150 90.765 33.1109
1733.029045 90.808 33.2424
1745.587288 90.851 33.3742
1758.236533 90.896 33.5057
1770.977440 90.942 33.6369
1783.810673 90.989 33.7678
1796.736900 91.037 33.8983
1809.756796 91.086 34.0284
1822.871040 91.137 34.1577
1836.080315 91.189 34.2856
1849.385310 91.242 34.4119
1862.786718 91.297 34.5363
1876.285239 91.352 34.6588
1889.881575 91.410 34.7790
1903.576436 91.468 34.8967
1917.370535 91.529 35.0113
1931.264593 91.590 35.1224
1945.259332 91.654 35.2294
1959.355483 91.719 35.3319
1973.553781 91.786 35.4294
1987.854965 91.854 35.5217
2002.259781 91.924 35.6086
2016.768981 91.996 35.6897
2031.383320 92.070 35.7643
2046.103561 92.146 35.8316
2060.930471 92.224 35.8906
2075.864823 92.304 35.9401
2090.907395 92.386 35.9792
2106.058972 92.470 36.0068
2121.320344 92.556 36.0212
2136.692305 92.644 36.0212
2152.175658 92.734 36.0051
2167.771210 92.827 35.9716
2183.479774 92.921 35.9194
2199.302169 93.016 35.8473
2215.239219 93.114 35.7544
2231.291755 93.213 35.6397
2247.460615 93.312 35.5024
2263.746641 93.413 35.3420
2280.150683 93.515 35.1577
2296.673595 93.618 34.9489
2313.316238 93.721 34.7151
2330.079481 93.825 34.4553
2346.964198 93.929 34.1689
2363.971268 94.034 33.8547
2381.101578 94.139 33.5118
2398.356022 94.243 33.1389
2415.735498 94.348 32.7348
2433.240913 94.452 32.2987
2450.873180 94.555 31.8298
2468.633217 94.657 31.3273
2486.521951 94.757 30.7906
2504.540314 94.856 30.2189
2522.689246 94.953 29.6114
2540.969692 95.048 28.9676
2559.382606 95.140 28.2873
2577.928947 95.228 27.5707
2596.609683 95.313 26.8180
2615.425787 95.394 26.0300
2634.378241 95.470 25.2075
2653.468031 95.541 24.3519
2672.696154 95.607 23.4647
2692.063613 95.667 22.5478
2711.571415 95.720 21.6031
2731.220579 95.767 20.6327
2751.012130 95.807 19.6389
2770.947098 95.840 18.6245
2791.026522 95.865 17.5925
2811.251451 95.882 16.5465
2831.622938 95.891 15.4902
2852.142045 95.892 14.4277
2872.809842 95.884 13.3632
2893.627406 95.868 12.3008
2914.595823 95.843 11.2451
2935.716186 95.810 10.2006
2956.989596 95.769 9.1713
2978.417161 95.720 8.1617
3000.000000 95.664 7.1757
3021.739237 95.600 6.2173
3043.636005 95.529 5.2903
3065.691446 95.452 4.3978
3087.906710 95.368 3.5428
3110.282955 95.279 2.7278
3132.821347 95.184 1.9554
3155.523062 95.085 1.2279
3178.389283 94.982 0.5474
3201.421202 94.875 -0.0848
3224.620020 94.765 -0.6676
3247.986946 94.653 -1.2007
3271.523198 94.540 -1.6841
3295.230004 94.425 -2.1179
3319.108599 94.309 -2.5026
3343.160228 94.192 -2.8384
3367.386145 94.076 -3.1262
3391.787613 93.960 -3.3671
3416.365904 93.845 -3.5621
3441.122300 93.732 -3.7129
3466.058091 93.620 -3.8207
3491.174576 93.510 -3.8871
3516.473066 93.403 -3.9136
3541.954880 93.298 -3.9020
3567.621345 93.196 -3.8538
3593.473800 93.097 -3.7708
3619.513592 93.002 -3.6544
3645.742080 92.910 -3.5059
3672.160630 92.822 -3.3267
3698.770620 92.737 -3.1183
3725.573436 92.657 -2.8824
3752.570477 92.580 -2.6205
3779.763150 92.509 -2.3346
3807.152872 92.442 -2.0264
3834.741071 92.380 -1.6979
3862.529185 92.323 -1.3512
3890.518664 92.270 -0.9881
3918.710966 92.223 -0.6106
3947.107561 92.182 -0.2206
3975.709929 92.146 0.1801
4004.519563 92.115 0.5897
4033.537962 92.089 1.0066
4062.766641 92.070 1.4286
4092.207123 92.056 1.8539
4121.860942 92.048 2.2802
4151.729646 92.046 2.7048
4181.814790 92.050 3.1252
4212.117944 92.060 3.5387
4242.640687 92.076 3.9421
4273.384610 92.099 4.3320
4304.351317 92.128 4.7049
4335.542421 92.163 5.0568
4366.959549 92.205 5.3836
4398.604338 92.253 5.6810
4430.478438 92.306 5.9448
4462.583511 92.365 6.1702
4494.921231 92.429 6.3525
4527.493283 92.498 6.4871
4560.301365 92.571 6.5693
4593.347189 92.648 6.5950
4626.632476 92.728 6.5598
4660.158962 92.809 6.4602
4693.928395 92.892 6.2925
4727.942535 92.974 6.0538
4762.203156 93.056 5.7417
4796.712043 93.135 5.3546
4831.470996 93.211 4.8922
4866.481826 93.281 4.3547
4901.746360 93.345 3.7439
4937.266434 93.401 3.0626
4973.043902 93.448 2.3156
5009.080628 93.484 1.5089
5045.378492 93.507 0.6503
5081.939384 93.517 -0.2511
5118.765212 93.512 -1.1847
5155.857894 93.492 -2.1387
5193.219366 93.457 -3.1006
5230.851574 93.405 -4.0568
5268.756481 93.336 -4.9933
5306.936062 93.252 -5.8964
5345.392309 93.152 -6.7520
5384.127225 93.038 -7.5469
5423.142830 92.911 -8.2686
5462.441159 92.771 -8.9058
5502.024259 92.621 -9.4492
5541.894195 92.463 -9.8905
5582.053045 92.299 -10.2234
5622.502902 92.129 -10.4433
5663.245876 91.958 -10.5470
5704.284090 91.786 -10.5330
5745.619684 91.615 -10.4012
5787.254813 91.449 -10.1531
5829.191647 91.289 -9.7913
5871.432373 91.136 -9.3203
5913.979192 90.995 -8.7457
5956.834323 90.865 -8.0748
6000.000000 90.750 -7.3163
6043.478473 90.651 -6.4803
6087.272010 90.570 -5.5786
6131.382892 90.509 -4.6239
6175.813420 90.469 -3.6312
6220.565910 90.453 -2.6176
6265.642695 90.461 -1.6027
6311.046124 90.495 -0.6091
6356.778566 90.557 0.3372
6402.842404 90.646 1.2068
6449.240040 90.763 1.9672
6495.973891 90.906 2.5828
6543.046396 91.073 3.0165
6590.460007 91.262 3.2308
6638.217197 91.466 3.1907
6686.320456 91.679 2.8656
6734.772290 91.894 2.2333
6783.575226 92.101 1.2826
6832.731809 92.291 0.0165
6882.244600 92.453 -1.5457
6932.116181 92.578 -3.3680
6982.349153 92.658 -5.3991
7032.946133 92.687 -7.5750
7083.909760 92.661 -9.8247
7135.242690 92.582 -12.0758
7186.947600 92.449 -14.2603
7239.027185 92.269 -16.3187
7291.484160 92.047 -18.2021
7344.321260 91.788 -19.8727
7397.541239 91.502 -21.3029
7451.146872 91.195 -22.4760
7505.140954 90.875 -23.3859
7559.526299 90.550 -24.0381
7614.305743 90.228 -24.4480
7669.482141 89.914 -24.6400
7725.058371 89.613 -24.6442
7781.037328 89.329 -24.4938
7837.421932 89.064 -24.2230
7894.215122 88.820 -23.8657
7951.419859 88.595 -23.4531
8009.039125 88.391 -23.0138
8067.075924 88.204 -22.5724
8125.533282 88.033 -22.1497
8184.414245 87.875 -21.7618
8243.721885 87.728 -21.4209
8303.459292 87.588 -21.1340
8363.629581 87.453 -20.9044
8424.235888 87.320 -20.7311
8485.281374 87.185 -20.6100
8546.769221 87.048 -20.5341
8608.702634 86.905 -20.4936
8671.084842 86.755 -20.4771
8733.919097 86.597 -20.4718
8797.208675 86.430 -20.4646
8860.956876 86.253 -20.4423
8925.167022 86.066 -20.3918
8989.842461 85.869 -20.3006
9054.986566 85.661 -20.1561
9120.602731 85.444 -19.9458
9186.694378 85.218 -19.6569
9253.264952 84.983 -19.2764
9320.317925 84.741 -18.7916
9387.856790 84.493 -18.1906
9455.885071 84.241 -17.4631
9524.406312 83.986 -16.6008
9593.424086 83.732 -15.5981
9662.941992 83.481 -14.4528
9732.963653 83.235 -13.1656
9803.492719 82.997 -11.7402
9874.532869 82.770 -10.1827
9946.087805 82.554 -8.5012
10018.161257 82.353 -6.7048
10090.756983 82.169 -4.8041
10163.878768 82.001 -2.8097
10237.530423 81.853 -0.7334
10311.715789 81.726 1.4130
10386.438732 81.620 3.6171
10461.703149 81.537 5.8657
10537.512962 81.477 8.1455
10613.872125 81.442 10.4418
10690.784618 81.432 12.7389
10768.254450 81.448 15.0195
10846.285661 81.490 17.2646
10924.882318 81.559 19.4539
11004.048518 81.654 21.5648
11083.788390 81.775 23.5734
11164.106090 81.922 25.4537
11245.005805 82.093 27.1781
11326.491752 82.286 28.7163
11408.568180 82.498 30.0366
11491.239368 82.725 31.1072
11574.509626 82.962 31.8991
11658.383294 83.200 32.3903
11742.864745 83.433 32.5702
11827.958384 83.649 32.4453
11913.668646 83.840 32.0414
12000.000000 83.998 31.4045
12086.956947 84.115 30.5973
12174.544019 84.189 29.6947
12262.765784 84.220 28.7769
12351.626840 84.210 27.9208
12441.131819 84.167 27.1922
12531.285389 84.100 26.6388
12622.092249 84.018 26.2868
12713.557132 83.933 26.1415
12805.684808 83.854 26.1901
12898.480079 83.788 26.4075
12991.947783 83.741 26.7614
13086.092792 83.718 27.2181
13180.920015 83.721 27.7465
13276.434395 83.753 28.3185
13372.640911 83.817 28.9092
13469.544580 83.913 29.4938
13567.150452 84.046 30.0449
13665.463617 84.219 30.5297
13764.489200 84.433 30.9072
13864.232362 84.690 31.1261
13964.698305 84.992 31.1238
14065.892266 85.334 30.8275
14167.819519 85.711 30.1581
14270.485380 86.111 29.0378
14373.895200 86.517 27.4011
14478.054370 86.911 25.2095
14582.968320 87.269 22.4625
14688.642520 87.569 19.2050
14795.082478 87.792 15.5244
14902.293745 87.927 11.5396
15010.281908 87.968 7.3828
15119.052599 87.918 3.1793
15228.611486 87.784 -0.9702
15338.964283 87.578 -5.0022
15450.116741 87.312 -8.8927
15562.074656 86.995 -12.6501
15674.843864 86.631 -16.2991
15788.430244 86.219 -19.8589
15902.839718 85.753 -23.3268
16018.078250 85.224 -26.6690
16134.151848 84.626 -29.8229
16251.066563 83.956 -32.7063
16368.828491 83.215 -35.2324
16487.443769 82.407 -37.3230
16606.918584 81.542 -38.9188
16727.259161 80.633 -39.9850
16848.471777 79.690 -40.5087
16970.562748 78.725 -40.4894
17093.538442 77.748 -39.9173
17217.405268 76.767 -38.7396
17342.169684 75.791 -36.8156
17467.838194 74.842 -33.8767
17594.417350 73.963 -29.5444
17721.913751 73.241 -23.5383
17850.334044 72.790 -16.1893
17979.684923 72.687 -8.8476
18109.973131 72.896 -3.2293
18241.205462 73.279 -0.1531
18373.388756 73.692 0.6780
18506.529905 74.046 0.0092
18640.635849 74.311 -1.4919
18775.713581 74.490 -3.3895
18911.770141 74.598 -5.4497
19048.812624 74.647 -7.5643
19186.848172 74.644 -9.6846
19325.883983 74.592 -11.7754
19465.927305 74.497 -13.7894
19606.985439 74.369 -15.6528
19749.065738 74.231 -17.2584
19892.175609 74.110 -18.4661
20036.322514 74.040 -19.1243
