* Measurement data measured by REW V5.31.3
* Source: Headset (CX31993 HIFI AUDIO), MICROPHONE (Master Volume), R, volume: 0.400
* Format: 256k Log Swept Sine, 1 sweep at -11.9 dBFS with no timing reference
* Dated: 07 7, 25 1:20:06 PM
* REW Settings:
*  C-weighting compensation: Off
*  Target level: 75.0 dB
* Note: ; 
* Measurement: Sony Linkbuds Fit EQ L
* Smoothing: 1/12 octave
* Frequency Step: 96 ppo
* Start Frequency: 0.36621094 Hz
*
* Freq(Hz) SPL(dB) Phase(degrees)
0.366211 39.245 -39.3469
0.368865 39.247 -39.4108
0.371538 39.249 -39.5062
0.374230 39.251 -39.6255
0.376942 39.254 -39.7622
0.379673 39.257 -39.9113
0.382424 39.261 -40.0698
0.385196 39.264 -40.2357
0.387987 39.267 -40.4079
0.390798 39.271 -40.5857
0.393630 39.274 -40.7690
0.396483 39.278 -40.9576
0.399356 39.281 -41.1514
0.402250 39.285 -41.3504
0.405165 39.288 -41.5547
0.408101 39.292 -41.7644
0.411058 39.296 -41.9795
0.414037 39.299 -42.2001
0.417037 39.303 -42.4262
0.420059 39.307 -42.6578
0.423103 39.310 -42.8952
0.426169 39.314 -43.1382
0.429257 39.318 -43.3870
0.432368 39.322 -43.6416
0.435501 39.326 -43.9020
0.438656 39.329 -44.1685
0.441835 39.333 -44.4409
0.445037 39.337 -44.7193
0.448262 39.341 -45.0039
0.451510 39.345 -45.2947
0.454782 39.349 -45.5916
0.458077 39.353 -45.8948
0.461397 39.357 -46.2043
0.464740 39.361 -46.5202
0.468108 39.366 -46.8425
0.471500 39.370 -47.1712
0.474917 39.374 -47.5065
0.478358 39.378 -47.8483
0.481825 39.382 -48.1966
0.485316 39.387 -48.5515
0.488833 39.391 -48.9131
0.492375 39.395 -49.2814
0.495943 39.400 -49.6563
0.499537 39.404 -50.0380
0.503157 39.408 -50.4265
0.506803 39.413 -50.8217
0.510475 39.417 -51.2237
0.514175 39.422 -51.6325
0.517900 39.426 -52.0482
0.521653 39.431 -52.4707
0.525434 39.436 -52.9000
0.529241 39.440 -53.3361
0.533076 39.445 -53.7791
0.536939 39.450 -54.2289
0.540830 39.455 -54.6855
0.544749 39.459 -55.1489
0.548696 39.464 -55.6191
0.552673 39.469 -56.0961
0.556677 39.474 -56.5798
0.560711 39.479 -57.0703
0.564774 39.484 -57.5674
0.568867 39.489 -58.0712
0.572989 39.494 -58.5815
0.577141 39.499 -59.0985
0.581324 39.504 -59.6219
0.585536 39.509 -60.1518
0.589779 39.515 -60.6881
0.594053 39.520 -61.2307
0.598358 39.525 -61.7796
0.602694 39.530 -62.3347
0.607061 39.536 -62.8960
0.611460 39.541 -63.4633
0.615891 39.546 -64.0366
0.620354 39.552 -64.6158
0.624849 39.557 -65.2008
0.629377 39.563 -65.7915
0.633938 39.569 -66.3879
0.638532 39.574 -66.9898
0.643159 39.580 -67.5971
0.647819 39.586 -68.2098
0.652514 39.591 -68.8278
0.657242 39.597 -69.4509
0.662005 39.603 -70.0791
0.666802 39.609 -70.7122
0.671634 39.615 -71.3502
0.676501 39.621 -71.9929
0.681403 39.627 -72.6403
0.686341 39.633 -73.2923
0.691314 39.639 -73.9487
0.696324 39.645 -74.6096
0.701370 39.652 -75.2748
0.706452 39.659 -75.9443
0.711571 39.667 -76.6182
0.716728 39.676 -77.2965
0.721921 39.687 -77.9794
0.727153 39.700 -78.6672
0.732422 39.717 -79.3604
0.737729 39.738 -80.0595
0.743075 39.762 -80.7649
0.748460 39.790 -81.4770
0.753883 39.820 -82.1959
0.759346 39.853 -82.9216
0.764849 39.887 -83.6540
0.770391 39.923 -84.3930
0.775974 39.961 -85.1381
0.781597 39.999 -85.8892
0.787261 40.039 -86.6460
0.792966 40.081 -87.4080
0.798712 40.123 -88.1751
0.804500 40.167 -88.9467
0.810329 40.213 -89.7227
0.816201 40.259 -90.5025
0.822116 40.307 -91.2859
0.828073 40.356 -92.0725
0.834074 40.406 -92.8619
0.840118 40.458 -93.6537
0.846206 40.511 -94.4477
0.852338 40.565 -95.2433
0.858514 40.620 -96.0403
0.864735 40.677 -96.8383
0.871001 40.735 -97.6370
0.877313 40.794 -98.4359
0.883670 40.854 -99.2348
0.890074 40.916 -100.0333
0.896524 40.978 -100.8311
0.903020 41.042 -101.6279
0.909564 41.107 -102.4234
0.916155 41.173 -103.2173
0.922794 41.240 -104.0093
0.929481 41.308 -104.7991
0.936216 41.378 -105.5866
0.943000 41.448 -106.3714
0.949834 41.520 -107.1533
0.956717 41.592 -107.9322
0.963649 41.665 -108.7077
0.970632 41.740 -109.4799
0.977666 41.815 -110.2484
0.984750 41.891 -111.0131
0.991886 41.968 -111.7739
0.999074 42.046 -112.5308
1.006314 42.124 -113.2835
1.013606 42.203 -114.0320
1.020951 42.283 -114.7762
1.028349 42.364 -115.5161
1.035801 42.445 -116.2517
1.043307 42.527 -116.9829
1.050867 42.609 -117.7096
1.058482 42.692 -118.4321
1.066152 42.775 -119.1501
1.073878 42.859 -119.8639
1.081660 42.943 -120.5734
1.089498 43.028 -121.2788
1.097393 43.114 -121.9802
1.105345 43.200 -122.6776
1.113355 43.288 -123.3711
1.121423 43.377 -124.0609
1.129549 43.468 -124.7470
1.137734 43.560 -125.4293
1.145979 43.653 -126.1079
1.154283 43.748 -126.7827
1.162647 43.845 -127.4538
1.171072 43.943 -128.1212
1.179558 44.043 -128.7847
1.188106 44.144 -129.4444
1.196715 44.246 -130.1003
1.205387 44.350 -130.7522
1.214122 44.455 -131.4003
1.222920 44.562 -132.0444
1.231782 44.670 -132.6845
1.240708 44.779 -133.3206
1.249699 44.890 -133.9526
1.258754 45.001 -134.5805
1.267876 45.114 -135.2043
1.277063 45.227 -135.8238
1.286318 45.342 -136.4392
1.295639 45.458 -137.0502
1.305027 45.574 -137.6569
1.314484 45.691 -138.2593
1.324009 45.810 -138.8571
1.333604 45.928 -139.4506
1.343268 46.048 -140.0394
1.353002 46.167 -140.6237
1.362806 46.288 -141.2034
1.372681 46.408 -141.7783
1.382628 46.529 -142.3485
1.392647 46.650 -142.9138
1.402739 46.772 -143.4743
1.412904 46.893 -144.0298
1.423142 47.014 -144.5802
1.433455 47.135 -145.1253
1.443843 47.256 -145.6650
1.454305 47.377 -146.1990
1.464844 47.498 -146.7271
1.475459 47.619 -147.2488
1.486150 47.741 -147.7641
1.496920 47.863 -148.2727
1.507767 47.985 -148.7748
1.518693 48.107 -149.2706
1.529698 48.230 -149.7602
1.540783 48.354 -150.2441
1.551948 48.478 -150.7226
1.563194 48.603 -151.1960
1.574521 48.728 -151.6648
1.585931 48.853 -152.1292
1.597423 48.980 -152.5897
1.608999 49.106 -153.0467
1.620658 49.233 -153.5005
1.632402 49.361 -153.9514
1.644232 49.489 -154.3999
1.656146 49.617 -154.8463
1.668147 49.746 -155.2908
1.680235 49.875 -155.7339
1.692411 50.004 -156.1759
1.704675 50.134 -156.6171
1.717028 50.264 -157.0578
1.729470 50.395 -157.4983
1.742003 50.526 -157.9389
1.754626 50.657 -158.3798
1.767341 50.788 -158.8212
1.780147 50.920 -159.2631
1.793047 51.052 -159.7057
1.806040 51.184 -160.1488
1.819128 51.316 -160.5919
1.832310 51.449 -161.0345
1.845587 51.581 -161.4759
1.858961 51.714 -161.9154
1.872432 51.847 -162.3526
1.886001 51.981 -162.7871
1.899667 52.114 -163.2190
1.913433 52.248 -163.6483
1.927299 52.382 -164.0752
1.941265 52.516 -164.5001
1.955332 52.650 -164.9231
1.969501 52.785 -165.3446
1.983773 52.919 -165.7649
1.998148 53.054 -166.1843
2.012627 53.189 -166.6032
2.027212 53.324 -167.0220
2.041902 53.460 -167.4408
2.056698 53.596 -167.8602
2.071602 53.731 -168.2803
2.086614 53.868 -168.7014
2.101734 54.004 -169.1240
2.116964 54.140 -169.5482
2.132304 54.277 -169.9742
2.147756 54.414 -170.4021
2.163320 54.551 -170.8319
2.178996 54.688 -171.2633
2.194786 54.826 -171.6959
2.210690 54.963 -172.1290
2.226710 55.101 -172.5621
2.242845 55.239 -172.9946
2.259098 55.377 -173.4264
2.275468 55.515 -173.8573
2.291957 55.653 -174.2875
2.308566 55.791 -174.7172
2.325295 55.929 -175.1466
2.342145 56.067 -175.5760
2.359117 56.205 -176.0060
2.376212 56.343 -176.4367
2.393431 56.481 -176.8686
2.410775 56.619 -177.3021
2.428244 56.757 -177.7376
2.445840 56.895 -178.1754
2.463564 57.033 -178.6160
2.481416 57.171 -179.0596
2.499397 57.310 -179.5065
2.517509 57.448 -179.9570
2.535752 57.586 179.5892
2.554127 57.723 179.1320
2.572635 57.861 178.6719
2.591277 57.999 178.2094
2.610055 58.136 177.7449
2.628968 58.274 177.2787
2.648019 58.411 176.8112
2.667208 58.548 176.3422
2.686535 58.685 175.8719
2.706003 58.821 175.4001
2.725612 58.958 174.9266
2.745363 59.094 174.4513
2.765257 59.229 173.9739
2.785295 59.365 173.4942
2.805478 59.500 173.0118
2.825808 59.635 172.5266
2.846285 59.770 172.0383
2.866910 59.904 171.5464
2.887685 60.038 171.0510
2.908611 60.172 170.5516
2.929688 60.305 170.0484
2.950917 60.438 169.5413
2.972301 60.570 169.0305
2.993839 60.702 168.5164
3.015534 60.833 167.9990
3.037386 60.964 167.4789
3.059396 61.095 166.9562
3.081565 61.224 166.4312
3.103896 61.354 165.9042
3.126388 61.482 165.3752
3.149043 61.610 164.8445
3.171862 61.738 164.3120
3.194847 61.865 163.7778
3.217998 61.991 163.2418
3.241317 62.117 162.7039
3.264805 62.242 162.1638
3.288463 62.367 161.6212
3.312293 62.490 161.0757
3.336295 62.613 160.5272
3.360471 62.736 159.9756
3.384822 62.857 159.4210
3.409350 62.978 158.8637
3.434056 63.097 158.3042
3.458940 63.216 157.7430
3.484005 63.334 157.1805
3.509252 63.452 156.6172
3.534681 63.568 156.0536
3.560295 63.684 155.4898
3.586094 63.799 154.9260
3.612081 63.913 154.3622
3.638255 64.026 153.7981
3.664620 64.139 153.2333
3.691175 64.251 152.6672
3.717923 64.361 152.0995
3.744864 64.471 151.5299
3.772001 64.579 150.9589
3.799335 64.687 150.3867
3.826866 64.794 149.8140
3.854597 64.899 149.2415
3.882529 65.004 148.6700
3.910664 65.108 148.1000
3.939002 65.211 147.5321
3.967546 65.313 146.9666
3.996296 65.415 146.4035
4.025255 65.515 145.8425
4.054423 65.615 145.2831
4.083804 65.714 144.7249
4.113396 65.812 144.1675
4.143204 65.908 143.6109
4.173227 66.004 143.0555
4.203468 66.099 142.5018
4.233928 66.193 141.9503
4.264609 66.286 141.4018
4.295512 66.379 140.8568
4.326639 66.471 140.3157
4.357992 66.562 139.7787
4.389572 66.652 139.2458
4.421380 66.742 138.7167
4.453419 66.831 138.1910
4.485691 66.920 137.6685
4.518196 67.007 137.1489
4.550936 67.094 136.6325
4.583914 67.181 136.1194
4.617131 67.266 135.6100
4.650589 67.352 135.1048
4.684289 67.437 134.6039
4.718233 67.522 134.1076
4.752424 67.606 133.6160
4.786862 67.690 133.1291
4.821549 67.774 132.6465
4.856488 67.857 132.1681
4.891680 67.940 131.6936
4.927127 68.023 131.2228
4.962831 68.106 130.7556
4.998794 68.188 130.2917
5.035017 68.270 129.8314
5.071503 68.353 129.3743
5.108253 68.435 128.9207
5.145270 68.518 128.4705
5.182555 68.600 128.0235
5.220110 68.683 127.5796
5.257937 68.765 127.1385
5.296038 68.848 126.6999
5.334415 68.930 126.2633
5.373071 69.013 125.8283
5.412006 69.096 125.3945
5.451224 69.179 124.9617
5.490725 69.262 124.5298
5.530514 69.345 124.0985
5.570590 69.429 123.6680
5.610957 69.512 123.2380
5.651616 69.596 122.8082
5.692570 69.680 122.3784
5.733821 69.763 121.9480
5.775370 69.847 121.5168
5.817221 69.931 121.0844
5.859375 70.014 120.6506
5.901834 70.098 120.2152
5.944602 70.182 119.7783
5.987679 70.265 119.3399
6.031068 70.348 118.8998
6.074771 70.431 118.4582
6.118792 70.514 118.0148
6.163131 70.596 117.5695
6.207792 70.678 117.1223
6.252776 70.760 116.6730
6.298086 70.841 116.2216
6.343725 70.922 115.7682
6.389694 71.002 115.3131
6.435996 71.082 114.8566
6.482634 71.161 114.3989
6.529610 71.239 113.9403
6.576926 71.317 113.4809
6.624585 71.394 113.0207
6.672590 71.470 112.5599
6.720942 71.546 112.0985
6.769645 71.621 111.6370
6.818700 71.695 111.1758
6.868111 71.768 110.7154
6.917881 71.841 110.2561
6.968010 71.913 109.7981
7.018504 71.984 109.3416
7.069362 72.054 108.8867
7.120590 72.124 108.4334
7.172189 72.193 107.9822
7.224161 72.262 107.5334
7.276511 72.330 107.0872
7.329239 72.398 106.6438
7.382350 72.465 106.2034
7.435845 72.531 105.7658
7.489729 72.598 105.3311
7.544002 72.664 104.8992
7.598669 72.729 104.4700
7.653732 72.795 104.0435
7.709194 72.860 103.6197
7.765058 72.925 103.1984
7.821327 72.990 102.7794
7.878004 73.055 102.3625
7.935091 73.120 101.9471
7.992592 73.185 101.5331
8.050510 73.250 101.1200
8.108847 73.315 100.7076
8.167607 73.380 100.2956
8.226793 73.446 99.8837
8.286408 73.511 99.4715
8.346454 73.576 99.0585
8.406936 73.641 98.6443
8.467856 73.706 98.2288
8.529218 73.771 97.8116
8.591024 73.836 97.3927
8.653278 73.900 96.9719
8.715983 73.964 96.5489
8.779143 74.028 96.1238
8.842760 74.092 95.6964
8.906839 74.155 95.2668
8.971381 74.217 94.8351
9.036392 74.279 94.4017
9.101873 74.341 93.9667
9.167829 74.401 93.5304
9.234263 74.461 93.0931
9.301178 74.521 92.6549
9.368578 74.579 92.2165
9.436467 74.637 91.7782
9.504847 74.694 91.3406
9.573723 74.750 90.9040
9.643099 74.806 90.4687
9.712976 74.860 90.0351
9.783361 74.915 89.6035
9.854255 74.968 89.1744
9.925663 75.021 88.7479
9.997588 75.074 88.3242
10.070035 75.127 87.9034
10.143007 75.179 87.4854
10.216507 75.231 87.0702
10.290540 75.282 86.6577
10.365109 75.334 86.2477
10.440219 75.386 85.8398
10.515873 75.437 85.4337
10.592076 75.489 85.0288
10.668830 75.541 84.6249
10.746141 75.593 84.2213
10.824012 75.646 83.8177
10.902447 75.698 83.4135
10.981451 75.750 83.0082
11.061027 75.803 82.6014
11.141180 75.855 82.1929
11.221913 75.907 81.7822
11.303232 75.960 81.3694
11.385140 76.011 80.9541
11.467641 76.063 80.5365
11.550741 76.114 80.1167
11.634442 76.165 79.6949
11.718750 76.215 79.2715
11.803669 76.264 78.8469
11.889203 76.313 78.4214
11.975357 76.361 77.9956
12.062136 76.408 77.5701
12.149543 76.455 77.1455
12.237583 76.501 76.7222
12.326262 76.546 76.3008
12.415583 76.591 75.8816
12.505552 76.635 75.4650
12.596172 76.679 75.0514
12.687449 76.723 74.6407
12.779387 76.766 74.2332
12.871992 76.810 73.8285
12.965268 76.853 73.4267
13.059220 76.896 73.0273
13.153852 76.939 72.6299
13.249170 76.982 72.2343
13.345179 77.026 71.8397
13.441884 77.069 71.4458
13.539289 77.112 71.0520
13.637401 77.156 70.6579
13.736223 77.200 70.2630
13.835761 77.243 69.8671
13.936021 77.286 69.4697
14.037007 77.329 69.0708
14.138725 77.372 68.6703
14.241180 77.415 68.2682
14.344377 77.457 67.8647
14.448323 77.498 67.4598
14.553021 77.539 67.0540
14.658478 77.579 66.6474
14.764700 77.619 66.2404
14.871691 77.658 65.8335
14.979457 77.696 65.4270
15.088005 77.733 65.0214
15.197339 77.770 64.6171
15.307465 77.806 64.2144
15.418389 77.841 63.8138
15.530117 77.875 63.4158
15.642655 77.909 63.0206
15.756008 77.942 62.6287
15.870182 77.975 62.2402
15.985184 78.007 61.8555
16.101019 78.039 61.4746
16.217694 78.070 61.0975
16.335214 78.101 60.7240
16.453586 78.133 60.3539
16.572815 78.164 59.9866
16.692909 78.195 59.6216
16.813872 78.227 59.2579
16.935713 78.259 58.8947
17.058436 78.291 58.5309
17.182048 78.323 58.1656
17.306556 78.355 57.7978
17.431967 78.387 57.4267
17.558286 78.419 57.0516
17.685521 78.451 56.6723
17.813677 78.482 56.2887
17.942762 78.513 55.9010
18.072783 78.543 55.5098
18.203746 78.571 55.1158
18.335658 78.599 54.7200
18.468526 78.626 54.3233
18.602356 78.651 53.9267
18.737156 78.676 53.5309
18.872934 78.700 53.1366
19.009695 78.723 52.7438
19.147447 78.746 52.3525
19.286197 78.768 51.9626
19.425953 78.790 51.5734
19.566721 78.812 51.1846
19.708510 78.832 50.7957
19.851326 78.853 50.4067
19.995177 78.872 50.0178
20.140070 78.890 49.6296
20.286013 78.908 49.2432
20.433014 78.924 48.8601
20.581080 78.939 48.4817
20.730219 78.954 48.1096
20.880439 78.967 47.7452
21.031747 78.980 47.3893
21.184152 78.993 47.0425
21.337661 79.005 46.7047
21.492282 79.018 46.3752
21.648024 79.031 46.0536
21.804895 79.044 45.7392
21.962902 79.057 45.4318
22.122054 79.070 45.1320
22.282360 79.084 44.8409
22.443827 79.097 44.5607
22.606464 79.110 44.2935
22.770280 79.124 44.0417
22.935283 79.140 43.8065
23.101481 79.157 43.5877
23.268884 79.178 43.3827
23.437500 79.202 43.1864
23.607338 79.231 42.9909
23.778406 79.266 42.7866
23.950714 79.304 42.5627
24.124271 79.347 42.3093
24.299086 79.391 42.0184
24.475167 79.435 41.6857
24.652524 79.476 41.3118
24.831166 79.513 40.9022
25.011103 79.543 40.4669
25.192344 79.565 40.0199
25.374898 79.579 39.5767
25.558775 79.586 39.1530
25.743984 79.587 38.7618
25.930536 79.585 38.4123
26.118439 79.581 38.1077
26.307704 79.578 37.8453
26.498341 79.579 37.6168
26.690359 79.584 37.4099
26.883768 79.594 37.2103
27.078579 79.610 37.0049
27.274801 79.628 36.7833
27.472446 79.648 36.5394
27.671522 79.669 36.2719
27.872042 79.688 35.9833
28.074014 79.705 35.6787
28.277450 79.719 35.3640
28.482360 79.732 35.0444
28.688755 79.743 34.7232
28.896645 79.752 34.4019
29.106042 79.760 34.0804
29.316957 79.767 33.7578
29.529400 79.773 33.4338
29.743382 79.778 33.1096
29.958915 79.780 32.7878
30.176009 79.781 32.4722
30.394677 79.781 32.1669
30.614929 79.779 31.8752
30.836778 79.778 31.5984
31.060234 79.777 31.3354
31.285309 79.778 31.0832
31.512015 79.781 30.8373
31.740364 79.786 30.5931
31.970368 79.792 30.3471
32.202039 79.800 30.0974
32.435388 79.807 29.8438
32.670428 79.815 29.5875
32.907171 79.823 29.3299
33.145630 79.831 29.0722
33.385817 79.839 28.8142
33.627745 79.848 28.5553
33.871425 79.856 28.2942
34.116871 79.864 28.0299
34.364096 79.871 27.7627
34.613113 79.877 27.4940
34.863934 79.882 27.2264
35.116572 79.886 26.9628
35.371041 79.888 26.7057
35.627354 79.889 26.4568
35.885525 79.890 26.2164
36.145566 79.891 25.9836
36.407492 79.892 25.7571
36.671316 79.894 25.5353
36.937051 79.896 25.3166
37.204712 79.898 25.1000
37.474313 79.900 24.8840
37.745867 79.904 24.6672
38.019389 79.907 24.4480
38.294893 79.911 24.2246
38.572394 79.915 23.9961
38.851905 79.919 23.7628
39.133442 79.922 23.5261
39.417019 79.924 23.2891
39.702651 79.925 23.0542
39.990353 79.926 22.8237
40.280140 79.926 22.5980
40.572026 79.927 22.3761
40.866028 79.929 22.1558
41.162160 79.930 21.9356
41.460438 79.931 21.7151
41.760877 79.931 21.4957
42.063494 79.931 21.2804
42.368303 79.930 21.0723
42.675322 79.928 20.8730
42.984565 79.927 20.6828
43.296048 79.927 20.4992
43.609789 79.928 20.3188
43.925804 79.929 20.1379
44.244108 79.931 19.9532
44.564719 79.933 19.7631
44.887654 79.935 19.5669
45.212928 79.935 19.3656
45.540560 79.934 19.1617
45.870565 79.932 18.9590
46.202962 79.928 18.7620
46.537768 79.923 18.5745
46.875000 79.918 18.3977
47.214676 79.914 18.2297
47.556813 79.912 18.0656
47.901429 79.911 17.8990
48.248542 79.910 17.7264
48.598171 79.910 17.5472
48.950334 79.909 17.3644
49.305048 79.907 17.1827
49.662333 79.905 17.0050
50.022206 79.902 16.8315
50.384688 79.901 16.6595
50.749796 79.900 16.4856
51.117550 79.899 16.3081
51.487969 79.897 16.1278
51.861072 79.894 15.9474
52.236879 79.890 15.7696
52.615409 79.886 15.5961
52.996681 79.881 15.4263
53.380717 79.877 15.2584
53.767536 79.873 15.0901
54.157158 79.869 14.9196
54.549603 79.864 14.7465
54.944892 79.860 14.5712
55.343045 79.855 14.3948
55.744084 79.850 14.2181
56.148028 79.845 14.0409
56.554900 79.841 13.8627
56.964720 79.835 13.6839
57.377510 79.830 13.5069
57.793291 79.823 13.3364
58.212085 79.816 13.1774
58.633914 79.810 13.0328
59.058799 79.805 12.9015
59.486764 79.802 12.7784
59.917829 79.800 12.6573
60.352019 79.800 12.5334
60.789354 79.800 12.4047
61.229859 79.800 12.2725
61.673556 79.799 12.1392
62.120468 79.797 12.0065
62.570618 79.795 11.8741
63.024031 79.792 11.7400
63.480729 79.789 11.6018
63.940736 79.785 11.4584
64.404077 79.781 11.3102
64.870776 79.775 11.1580
65.340856 79.769 11.0028
65.814343 79.761 10.8455
66.291261 79.753 10.6880
66.771635 79.743 10.5342
67.255489 79.734 10.3878
67.742850 79.724 10.2503
68.233743 79.716 10.1199
68.728193 79.709 9.9933
69.226226 79.703 9.8677
69.727867 79.697 9.7427
70.233144 79.692 9.6182
70.742083 79.687 9.4933
71.254709 79.682 9.3668
71.771050 79.677 9.2384
72.291132 79.671 9.1097
72.814984 79.664 8.9830
73.342631 79.656 8.8595
73.874102 79.647 8.7388
74.409424 79.638 8.6204
74.948626 79.628 8.5052
75.491734 79.617 8.3944
76.038779 79.606 8.2889
76.589787 79.595 8.1881
77.144788 79.585 8.0900
77.703811 79.574 7.9929
78.266885 79.564 7.8959
78.834039 79.554 7.7989
79.405303 79.544 7.7019
79.980706 79.535 7.6045
80.560280 79.526 7.5056
81.144053 79.517 7.4035
81.732056 79.510 7.2951
82.324320 79.503 7.1774
82.920876 79.495 7.0498
83.521755 79.487 6.9150
84.126988 79.479 6.7772
84.736607 79.470 6.6395
85.350643 79.460 6.5035
85.969129 79.450 6.3727
86.592097 79.439 6.2528
87.219579 79.428 6.1489
87.851608 79.418 6.0608
88.488217 79.409 5.9830
89.129439 79.402 5.9084
89.775308 79.394 5.8329
90.425856 79.386 5.7557
91.081119 79.377 5.6792
91.741131 79.367 5.6056
92.405925 79.356 5.5364
93.075536 79.345 5.4698
93.750000 79.334 5.4012
94.429351 79.323 5.3249
95.113625 79.311 5.2378
95.802858 79.299 5.1415
96.497085 79.285 5.0414
97.196342 79.269 4.9449
97.900667 79.253 4.8577
98.610096 79.237 4.7816
99.324665 79.222 4.7142
100.044413 79.208 4.6526
100.769376 79.194 4.5948
101.499592 79.182 4.5393
102.235100 79.170 4.4832
102.975938 79.158 4.4235
103.722144 79.146 4.3593
104.473757 79.133 4.2928
105.230817 79.119 4.2280
105.993363 79.104 4.1680
106.761435 79.089 4.1135
107.535072 79.074 4.0637
108.314315 79.059 4.0172
109.099206 79.044 3.9734
109.889783 79.029 3.9321
110.686090 79.015 3.8922
111.488167 79.001 3.8518
112.296056 78.988 3.8085
113.109800 78.974 3.7604
113.929440 78.961 3.7072
114.755020 78.946 3.6513
115.586582 78.930 3.5973
116.424170 78.912 3.5508
117.267827 78.893 3.5161
118.117598 78.874 3.4929
118.973527 78.856 3.4761
119.835658 78.839 3.4565
120.704037 78.824 3.4249
121.578708 78.808 3.3768
122.459718 78.792 3.3162
123.347111 78.775 3.2530
124.240935 78.757 3.1979
125.141236 78.741 3.1586
126.048061 78.726 3.1364
126.961458 78.713 3.1270
127.881473 78.701 3.1227
128.808154 78.690 3.1161
129.741551 78.677 3.1040
130.681712 78.660 3.0895
131.628686 78.639 3.0797
132.582521 78.614 3.0804
133.543269 78.586 3.0948
134.510979 78.558 3.1222
135.485701 78.530 3.1560
136.467486 78.504 3.1852
137.456386 78.480 3.2004
138.452451 78.457 3.2015
139.455735 78.433 3.1987
140.466288 78.409 3.2106
141.484165 78.385 3.2567
142.509418 78.363 3.3495
143.542100 78.345 3.4863
144.582265 78.334 3.6453
145.629968 78.328 3.7944
146.685262 78.325 3.9091
147.748204 78.321 3.9841
148.818849 78.315 4.0337
149.897251 78.305 4.0809
150.983469 78.295 4.1439
152.077557 78.287 4.2286
153.179574 78.281 4.3298
154.289576 78.279 4.4359
155.407622 78.278 4.5377
156.533770 78.277 4.6312
157.668078 78.275 4.7164
158.810606 78.271 4.7943
159.961413 78.267 4.8673
161.120559 78.263 4.9374
162.288105 78.260 5.0050
163.464112 78.258 5.0689
164.648640 78.257 5.1246
165.841752 78.257 5.1649
167.043510 78.256 5.1844
168.253976 78.254 5.1833
169.473213 78.252 5.1665
170.701286 78.248 5.1411
171.938258 78.244 5.1130
173.184194 78.239 5.0841
174.439158 78.235 5.0541
175.703216 78.229 5.0237
176.976434 78.222 4.9960
178.258878 78.214 4.9779
179.550615 78.202 4.9785
180.851713 78.190 5.0052
182.162239 78.176 5.0573
183.482262 78.161 5.1257
184.811850 78.144 5.1990
186.151073 78.127 5.2666
187.500000 78.108 5.3201
188.858702 78.089 5.3552
190.227250 78.070 5.3727
191.605715 78.053 5.3772
192.994169 78.039 5.3754
194.392685 78.027 5.3752
195.801334 78.016 5.3836
197.220191 78.006 5.4044
198.649330 77.996 5.4375
200.088825 77.984 5.4799
201.538751 77.970 5.5269
202.999184 77.954 5.5757
204.470200 77.937 5.6266
205.951875 77.919 5.6830
207.444287 77.901 5.7482
208.947514 77.885 5.8241
210.461634 77.868 5.9100
211.986726 77.852 6.0024
213.522869 77.836 6.0958
215.070144 77.819 6.1854
216.628631 77.803 6.2703
218.198411 77.788 6.3523
219.779567 77.774 6.4344
221.372180 77.760 6.5188
222.976334 77.746 6.6061
224.592112 77.732 6.6962
226.219600 77.717 6.7883
227.858880 77.702 6.8838
229.510039 77.686 6.9844
231.173164 77.671 7.0917
232.848340 77.656 7.2051
234.535655 77.641 7.3225
236.235197 77.626 7.4401
237.947054 77.611 7.5557
239.671317 77.598 7.6716
241.408074 77.585 7.7932
243.157416 77.572 7.9250
244.919435 77.559 8.0685
246.694223 77.544 8.2208
248.481871 77.530 8.3778
250.282473 77.515 8.5347
252.096123 77.502 8.6859
253.922915 77.491 8.8281
255.762945 77.482 8.9627
257.616309 77.474 9.0953
259.483103 77.467 9.2318
261.363424 77.460 9.3757
263.257372 77.451 9.5255
265.165043 77.440 9.6744
267.086538 77.427 9.8158
269.021957 77.414 9.9491
270.971401 77.402 10.0804
272.934972 77.392 10.2177
274.912771 77.384 10.3656
276.904902 77.378 10.5253
278.911469 77.373 10.6959
280.932577 77.371 10.8779
282.968330 77.370 11.0733
285.018835 77.369 11.2808
287.084199 77.367 11.4928
289.164530 77.362 11.6984
291.259935 77.356 11.8894
293.370525 77.349 12.0646
295.496408 77.343 12.2303
297.637697 77.339 12.3953
299.794503 77.337 12.5636
301.966937 77.337 12.7344
304.155114 77.337 12.9069
306.359147 77.336 13.0809
308.579152 77.333 13.2550
310.815244 77.328 13.4283
313.067539 77.320 13.6043
315.336156 77.313 13.7870
317.621211 77.309 13.9785
319.922826 77.308 14.1796
322.241118 77.310 14.3880
324.576210 77.312 14.5978
326.928223 77.313 14.8027
329.297280 77.311 14.9995
331.683504 77.310 15.1843
334.087019 77.308 15.3546
336.507952 77.308 15.5133
338.946427 77.309 15.6706
341.402572 77.310 15.8372
343.876516 77.311 16.0190
346.368387 77.312 16.2172
348.878315 77.312 16.4287
351.406431 77.313 16.6490
353.952867 77.313 16.8734
356.517756 77.314 17.0982
359.101230 77.316 17.3212
361.703426 77.320 17.5411
364.324478 77.324 17.7556
366.964523 77.329 17.9604
369.623699 77.336 18.1501
372.302145 77.343 18.3219
375.000000 77.350 18.4788
377.717405 77.356 18.6310
380.454501 77.362 18.7913
383.211431 77.368 18.9685
385.988339 77.375 19.1631
388.785369 77.384 19.3693
391.602668 77.392 19.5799
394.440383 77.401 19.7899
397.298660 77.409 19.9968
400.177650 77.416 20.1996
403.077502 77.421 20.3977
405.998368 77.424 20.5908
408.940400 77.426 20.7797
411.903750 77.428 20.9681
414.888575 77.431 21.1617
417.895028 77.437 21.3677
420.923268 77.445 21.5919
423.973452 77.457 21.8359
427.045738 77.471 22.0951
430.140287 77.489 22.3601
433.257261 77.508 22.6206
436.396822 77.529 22.8682
439.559133 77.550 23.0979
442.744360 77.569 23.3073
445.952668 77.587 23.4965
449.184225 77.605 23.6682
452.439199 77.623 23.8276
455.717760 77.641 23.9798
459.020079 77.661 24.1272
462.346327 77.680 24.2678
465.696680 77.699 24.3982
469.071310 77.717 24.5184
472.470394 77.734 24.6353
475.894109 77.748 24.7589
479.342634 77.760 24.8976
482.816148 77.771 25.0540
486.314833 77.781 25.2245
489.838871 77.793 25.4026
493.388445 77.807 25.5820
496.963741 77.823 25.7585
500.564945 77.840 25.9287
504.192245 77.858 26.0898
507.845830 77.876 26.2402
511.525890 77.893 26.3803
515.232618 77.909 26.5110
518.966206 77.923 26.6347
522.726849 77.936 26.7546
526.514743 77.947 26.8726
530.330086 77.957 26.9889
534.173076 77.967 27.1057
538.043915 77.977 27.2278
541.942803 77.988 27.3592
545.869944 78.001 27.5010
549.825542 78.015 27.6505
553.809805 78.029 27.8036
557.822939 78.045 27.9571
561.865154 78.061 28.1109
565.936660 78.078 28.2658
570.037671 78.094 28.4217
574.168399 78.110 28.5774
578.329060 78.122 28.7320
582.519870 78.132 28.8856
586.741049 78.139 29.0396
590.992817 78.145 29.1959
595.275394 78.151 29.3552
599.589005 78.158 29.5172
603.933874 78.167 29.6808
608.310228 78.179 29.8440
612.718295 78.192 30.0048
617.158304 78.207 30.1632
621.630488 78.222 30.3201
626.135079 78.237 30.4770
630.672311 78.251 30.6358
635.242423 78.265 30.7980
639.845651 78.277 30.9643
644.482237 78.289 31.1326
649.152421 78.299 31.2997
653.856447 78.309 31.4648
658.594560 78.318 31.6315
663.367008 78.326 31.8053
668.174039 78.334 31.9898
673.015903 78.341 32.1856
677.892854 78.349 32.3899
682.805145 78.358 32.5982
687.753032 78.367 32.8060
692.736774 78.375 33.0103
697.756631 78.384 33.2116
702.812863 78.393 33.4142
707.905735 78.402 33.6260
713.035511 78.411 33.8546
718.202461 78.422 34.1022
723.406852 78.434 34.3633
728.648956 78.448 34.6262
733.929047 78.465 34.8784
739.247399 78.483 35.1122
744.604290 78.501 35.3266
750.000000 78.519 35.5245
755.434809 78.535 35.7102
760.909001 78.548 35.8890
766.422861 78.561 36.0664
771.976677 78.573 36.2472
777.570739 78.586 36.4344
783.205337 78.600 36.6293
788.880766 78.614 36.8325
794.597321 78.629 37.0458
800.355301 78.644 37.2727
806.155005 78.661 37.5161
811.996736 78.678 37.7744
817.880799 78.697 38.0425
823.807501 78.718 38.3150
829.777150 78.741 38.5881
835.790057 78.764 38.8600
841.846536 78.788 39.1296
847.946903 78.811 39.3983
854.091476 78.833 39.6681
860.280575 78.854 39.9404
866.514523 78.876 40.2166
872.793644 78.898 40.4980
879.118267 78.923 40.7853
885.488720 78.950 41.0778
891.905336 78.980 41.3733
898.368450 79.011 41.6696
904.878398 79.045 41.9653
911.435520 79.078 42.2579
918.040157 79.113 42.5442
924.692655 79.147 42.8212
931.393359 79.182 43.0879
938.142619 79.217 43.3462
944.940787 79.253 43.5997
951.788218 79.291 43.8529
958.685268 79.330 44.1102
965.632296 79.371 44.3741
972.629666 79.414 44.6441
979.677741 79.458 44.9174
986.776890 79.505 45.1904
993.927482 79.552 45.4581
1001.129891 79.600 45.7138
1008.384491 79.648 45.9520
1015.691660 79.697 46.1707
1023.051781 79.745 46.3723
1030.465236 79.793 46.5616
1037.932411 79.842 46.7430
1045.453698 79.892 46.9191
1053.029486 79.944 47.0903
1060.660172 79.998 47.2565
1068.346153 80.054 47.4172
1076.087829 80.110 47.5719
1083.885605 80.166 47.7182
1091.739887 80.220 47.8509
1099.651084 80.273 47.9643
1107.619609 80.323 48.0551
1115.645878 80.371 48.1255
1123.730308 80.417 48.1818
1131.873321 80.462 48.2314
1140.075341 80.508 48.2809
1148.336797 80.556 48.3345
1156.658119 80.606 48.3929
1165.039741 80.657 48.4526
1173.482099 80.709 48.5076
1181.985634 80.758 48.5501
1190.550789 80.805 48.5721
1199.178011 80.848 48.5676
1207.867749 80.888 48.5347
1216.620457 80.925 48.4750
1225.436590 80.960 48.3926
1234.316609 80.994 48.2919
1243.260976 81.027 48.1778
1252.270157 81.059 48.0567
1261.344623 81.088 47.9361
1270.484846 81.115 47.8228
1279.691303 81.139 47.7224
1288.964474 81.161 47.6396
1298.304842 81.181 47.5785
1307.712894 81.201 47.5413
1317.189120 81.219 47.5267
1326.734016 81.237 47.5288
1336.348077 81.253 47.5388
1346.031806 81.266 47.5477
1355.785708 81.276 47.5494
1365.610290 81.283 47.5426
1375.506065 81.286 47.5310
1385.473549 81.285 47.5220
1395.513261 81.283 47.5238
1405.625726 81.279 47.5450
1415.811469 81.275 47.5935
1426.071023 81.269 47.6761
1436.404921 81.263 47.7960
1446.813703 81.255 47.9507
1457.297912 81.245 48.1325
1467.858093 81.234 48.3311
1478.494798 81.222 48.5380
1489.208581 81.210 48.7469
1500.000000 81.198 48.9544
1510.869618 81.187 49.1605
1521.818002 81.177 49.3694
1532.845723 81.168 49.5891
1543.953355 81.159 49.8297
1555.141477 81.150 50.0991
1566.410674 81.142 50.4017
1577.761531 81.134 50.7393
1589.194642 81.129 51.1165
1600.710601 81.127 51.5415
1612.310010 81.128 52.0219
1623.993473 81.131 52.5592
1635.761599 81.137 53.1484
1647.615002 81.146 53.7813
1659.554299 81.158 54.4509
1671.580114 81.174 55.1526
1683.693072 81.194 55.8843
1695.893807 81.220 56.6475
1708.182952 81.252 57.4485
1720.561150 81.295 58.2986
1733.029045 81.351 59.2091
1745.587288 81.424 60.1850
1758.236533 81.519 61.2180
1770.977440 81.637 62.2859
1783.810673 81.780 63.3522
1796.736900 81.946 64.3707
1809.756796 82.132 65.2915
1822.871040 82.334 66.0707
1836.080315 82.548 66.6763
1849.385310 82.768 67.0919
1862.786718 82.991 67.3181
1876.285239 83.212 67.3718
1889.881575 83.428 67.2810
1903.576436 83.636 67.0783
1917.370535 83.833 66.7927
1931.264593 84.020 66.4453
1945.259332 84.194 66.0484
1959.355483 84.355 65.6075
1973.553781 84.505 65.1229
1987.854965 84.642 64.5940
2002.259781 84.768 64.0239
2016.768981 84.883 63.4219
2031.383320 84.990 62.8027
2046.103561 85.090 62.1833
2060.930471 85.185 61.5792
2075.864823 85.277 61.0020
2090.907395 85.367 60.4550
2106.058972 85.454 59.9326
2121.320344 85.537 59.4223
2136.692305 85.616 58.9095
2152.175658 85.690 58.3809
2167.771210 85.759 57.8254
2183.479774 85.822 57.2346
2199.302169 85.879 56.6046
2215.239219 85.932 55.9376
2231.291755 85.982 55.2420
2247.460615 86.027 54.5279
2263.746641 86.069 53.8044
2280.150683 86.107 53.0808
2296.673595 86.140 52.3684
2313.316238 86.168 51.6810
2330.079481 86.192 51.0345
2346.964198 86.213 50.4434
2363.971268 86.232 49.9169
2381.101578 86.248 49.4564
2398.356022 86.263 49.0548
2415.735498 86.276 48.6981
2433.240913 86.286 48.3692
2450.873180 86.294 48.0534
2468.633217 86.301 47.7410
2486.521951 86.306 47.4293
2504.540314 86.311 47.1228
2522.689246 86.320 46.8331
2540.969692 86.333 46.5753
2559.382606 86.352 46.3607
2577.928947 86.380 46.1921
2596.609683 86.417 46.0623
2615.425787 86.463 45.9533
2634.378241 86.517 45.8375
2653.468031 86.578 45.6814
2672.696154 86.644 45.4528
2692.063613 86.712 45.1287
2711.571415 86.781 44.6999
2731.220579 86.848 44.1716
2751.012130 86.914 43.5601
2770.947098 86.975 42.8870
2791.026522 87.032 42.1733
2811.251451 87.082 41.4359
2831.622938 87.125 40.6857
2852.142045 87.159 39.9266
2872.809842 87.183 39.1543
2893.627406 87.194 38.3592
2914.595823 87.192 37.5331
2935.716186 87.175 36.6749
2956.989596 87.145 35.7935
2978.417161 87.104 34.9085
3000.000000 87.052 34.0471
3021.739237 86.994 33.2387
3043.636005 86.931 32.5079
3065.691446 86.865 31.8699
3087.906710 86.799 31.3278
3110.282955 86.732 30.8717
3132.821347 86.664 30.4802
3155.523062 86.594 30.1248
3178.389283 86.522 29.7767
3201.421202 86.447 29.4145
3224.620020 86.372 29.0282
3247.986946 86.297 28.6178
3271.523198 86.223 28.1906
3295.230004 86.152 27.7565
3319.108599 86.082 27.3242
3343.160228 86.016 26.9012
3367.386145 85.951 26.4951
3391.787613 85.889 26.1160
3416.365904 85.829 25.7771
3441.122300 85.771 25.4935
3466.058091 85.715 25.2762
3491.174576 85.662 25.1272
3516.473066 85.611 25.0363
3541.954880 85.561 24.9827
3567.621345 85.511 24.9388
3593.473800 85.460 24.8762
3619.513592 85.408 24.7723
3645.742080 85.353 24.6156
3672.160630 85.295 24.4099
3698.770620 85.235 24.1751
3725.573436 85.173 23.9415
3752.570477 85.109 23.7405
3779.763150 85.046 23.5956
3807.152872 84.984 23.5170
3834.741071 84.923 23.5000
3862.529185 84.862 23.5260
3890.518664 84.801 23.5682
3918.710966 84.739 23.5987
3947.107561 84.674 23.5961
3975.709929 84.608 23.5507
4004.519563 84.541 23.4680
4033.537962 84.473 23.3698
4062.766641 84.403 23.2897
4092.207123 84.334 23.2606
4121.860942 84.265 23.3051
4151.729646 84.197 23.4293
4181.814790 84.131 23.6232
4212.117944 84.066 23.8622
4242.640687 84.001 24.1119
4273.384610 83.936 24.3365
4304.351317 83.871 24.5093
4335.542421 83.805 24.6191
4366.959549 83.739 24.6707
4398.604338 83.675 24.6799
4430.478438 83.612 24.6672
4462.583511 83.552 24.6509
4494.921231 83.494 24.6469
4527.493283 83.439 24.6693
4560.301365 83.386 24.7339
4593.347189 83.337 24.8602
4626.632476 83.291 25.0706
4660.158962 83.251 25.3835
4693.928395 83.217 25.8068
4727.942535 83.191 26.3318
4762.203156 83.171 26.9336
4796.712043 83.158 27.5748
4831.470996 83.151 28.2131
4866.481826 83.149 28.8107
4901.746360 83.154 29.3430
4937.266434 83.167 29.8056
4973.043902 83.189 30.2135
5009.080628 83.223 30.5952
5045.378492 83.268 30.9830
5081.939384 83.326 31.4020
5118.765212 83.398 31.8587
5155.857894 83.484 32.3351
5193.219366 83.582 32.7911
5230.851574 83.691 33.1736
5268.756481 83.810 33.4274
5306.936062 83.934 33.5067
5345.392309 84.063 33.3844
5384.127225 84.192 33.0587
5423.142830 84.321 32.5513
5462.441159 84.447 31.8992
5502.024259 84.568 31.1423
5541.894195 84.681 30.3141
5582.053045 84.784 29.4340
5622.502902 84.873 28.5027
5663.245876 84.944 27.5020
5704.284090 84.992 26.4042
5745.619684 85.016 25.1846
5787.254813 85.013 23.8320
5829.191647 84.980 22.3563
5871.432373 84.918 20.7916
5913.979192 84.827 19.1949
5956.834323 84.708 17.6364
6000.000000 84.564 16.1871
6043.478473 84.397 14.9056
6087.272010 84.209 13.8274
6131.382892 84.001 12.9604
6175.813420 83.776 12.2874
6220.565910 83.535 11.7762
6265.642695 83.279 11.3924
6311.046124 83.012 11.1094
6356.778566 82.739 10.9149
6402.842404 82.467 10.8052
6449.240040 82.204 10.7707
6495.973891 81.953 10.7831
6543.046396 81.716 10.8055
6590.460007 81.482 10.8292
6638.217197 81.244 10.8976
6686.320456 80.996 11.0878
6734.772290 80.741 11.4772
6783.575226 80.483 12.1298
6832.731809 80.231 13.0980
6882.244600 79.989 14.4216
6932.116181 79.765 16.1179
6982.349153 79.563 18.1732
7032.946133 79.390 20.5414
7083.909760 79.254 23.1459
7135.242690 79.164 25.8864
7186.947600 79.124 28.6534
7239.027185 79.138 31.3593
7291.484160 79.203 33.9762
7344.321260 79.319 36.5457
7397.541239 79.489 39.1387
7451.146872 79.718 41.7995
7505.140954 80.015 44.5111
7559.526299 80.384 47.1864
7614.305743 80.824 49.6825
7669.482141 81.331 51.8282
7725.058371 81.896 53.4540
7781.037328 82.506 54.4172
7837.421932 83.147 54.6202
7894.215122 83.800 54.0165
7951.419859 84.446 52.6071
8009.039125 85.066 50.4288
8067.075924 85.639 47.5471
8125.533282 86.143 44.0529
8184.414245 86.564 40.0642
8243.721885 86.889 35.7258
8303.459292 87.108 31.2057
8363.629581 87.223 26.6855
8424.235888 87.237 22.3463
8485.281374 87.163 18.3470
8546.769221 87.016 14.8016
8608.702634 86.815 11.7612
8671.084842 86.577 9.2118
8733.919097 86.319 7.0872
8797.208675 86.057 5.2886
8860.956876 85.801 3.7096
8925.167022 85.560 2.2614
8989.842461 85.340 0.8928
9054.986566 85.144 -0.4064
9120.602731 84.975 -1.6196
9186.694378 84.833 -2.7218
9253.264952 84.718 -3.6974
9320.317925 84.629 -4.5592
9387.856790 84.564 -5.3585
9455.885071 84.519 -6.1803
9524.406312 84.490 -7.1283
9593.424086 84.471 -8.3076
9662.941992 84.457 -9.8043
9732.963653 84.442 -11.6622
9803.492719 84.419 -13.8717
9874.532869 84.382 -16.3762
9946.087805 84.323 -19.0906
10018.161257 84.235 -21.9211
10090.756983 84.112 -24.7831
10163.878768 83.947 -27.6184
10237.530423 83.735 -30.4037
10311.715789 83.471 -33.1436
10386.438732 83.154 -35.8572
10461.703149 82.781 -38.5653
10537.512962 82.354 -41.2769
10613.872125 81.874 -43.9739
10690.784618 81.345 -46.6003
10768.254450 80.773 -49.0670
10846.285661 80.165 -51.2672
10924.882318 79.527 -53.0969
11004.048518 78.867 -54.4743
11083.788390 78.192 -55.3610
11164.106090 77.507 -55.7714
11245.005805 76.818 -55.7664
11326.491752 76.128 -55.4363
11408.568180 75.440 -54.8812
11491.239368 74.759 -54.1887
11574.509626 74.087 -53.4084
11658.383294 73.426 -52.5401
11742.864745 72.781 -51.5393
11827.958384 72.154 -50.3359
11913.668646 71.545 -48.8535
12000.000000 70.956 -47.0325
12086.956947 70.385 -44.8536
12174.544019 69.832 -42.3492
12262.765784 69.296 -39.5956
12351.626840 68.776 -36.6925
12441.131819 68.270 -33.7391
12531.285389 67.778 -30.8065
12622.092249 67.299 -27.9163
12713.557132 66.835 -25.0394
12805.684808 66.391 -22.1111
12898.480079 65.970 -19.0498
12991.947783 65.581 -15.7690
13086.092792 65.233 -12.1809
13180.920015 64.941 -8.1921
13276.434395 64.716 -3.6969
13372.640911 64.567 1.4305
13469.544580 64.496 7.3341
13567.150452 64.512 14.1339
13665.463617 64.648 21.8141
13764.489200 64.957 30.1122
13864.232362 65.481 38.5232
13964.698305 66.228 46.4302
14065.892266 67.173 53.2808
14167.819519 68.275 58.7088
14270.485380 69.484 62.5583
14373.895200 70.753 64.8370
14478.054370 72.040 65.6493
14582.968320 73.308 65.1432
14688.642520 74.522 63.4758
14795.082478 75.653 60.7935
14902.293745 76.673 57.2207
15010.281908 77.558 52.8675
15119.052599 78.291 47.8481
15228.611486 78.864 42.2978
15338.964283 79.279 36.3705
15450.116741 79.550 30.2271
15562.074656 79.702 24.0278
15674.843864 79.769 17.9276
15788.430244 79.786 12.0593
15902.839718 79.786 6.5111
16018.078250 79.795 1.3109
16134.151848 79.829 -3.5854
16251.066563 79.890 -8.3018
16368.828491 79.970 -13.0325
16487.443769 80.047 -18.0009
16606.918584 80.094 -23.4081
16727.259161 80.078 -29.3917
16848.471777 79.967 -35.9943
16970.562748 79.733 -43.1371
17093.538442 79.356 -50.6150
17217.405268 78.829 -58.1311
17342.169684 78.156 -65.3575
17467.838194 77.351 -71.9902
17594.417350 76.435 -77.7921
17721.913751 75.431 -82.6273
17850.334044 74.365 -86.4792
17979.684923 73.260 -89.4404
18109.973131 72.138 -91.6846
18241.205462 71.020 -93.4329
18373.388756 69.919 -94.9147
18506.529905 68.847 -96.3250
18640.635849 67.811 -97.7966
18775.713581 66.815 -99.4009
18911.770141 65.859 -101.1685
19048.812624 64.936 -103.1094
19186.848172 64.041 -105.2215
19325.883983 63.168 -107.4855
19465.927305 62.318 -109.8488
19606.985439 61.508 -112.2062
19749.065738 60.781 -114.3746
19892.175609 60.213 -116.0873
20036.322514 59.895 -117.0458
