* Measurement data measured by REW V5.31.3
* Source: Headset (CX31993 HIFI AUDIO), MICROPHONE (Master Volume), R, volume: 0.250
* Format: 256k Log Swept Sine, 1 sweep at -12.0 dBFS with no timing reference
* Dated: 12 31, 24 1:03:27 PM
* REW Settings:
*  C-weighting compensation: Off
*  Target level: 75.0 dB
* Note: ; 
* Measurement: Sony LB 2.5K MAX L
* Smoothing: 1/12 octave
* Frequency Step: 96 ppo
* Start Frequency: 0.36621094 Hz
*
* Freq(Hz) SPL(dB) Phase(degrees)
0.366211 33.287 150.2773
0.368865 33.303 150.2837
0.371538 33.327 150.2930
0.374230 33.357 150.3040
0.376942 33.391 150.3159
0.379673 33.427 150.3280
0.382424 33.464 150.3399
0.385196 33.502 150.3513
0.387987 33.541 150.3621
0.390798 33.581 150.3722
0.393630 33.621 150.3815
0.396483 33.661 150.3901
0.399356 33.701 150.3980
0.402250 33.742 150.4052
0.405165 33.783 150.4117
0.408101 33.825 150.4175
0.411058 33.866 150.4227
0.414037 33.909 150.4273
0.417037 33.951 150.4313
0.420059 33.994 150.4347
0.423103 34.036 150.4376
0.426169 34.080 150.4400
0.429257 34.123 150.4420
0.432368 34.167 150.4435
0.435501 34.211 150.4446
0.438656 34.256 150.4454
0.441835 34.301 150.4458
0.445037 34.346 150.4460
0.448262 34.392 150.4459
0.451510 34.437 150.4456
0.454782 34.484 150.4451
0.458077 34.530 150.4446
0.461397 34.577 150.4440
0.464740 34.624 150.4433
0.468108 34.672 150.4427
0.471500 34.720 150.4421
0.474917 34.768 150.4417
0.478358 34.816 150.4415
0.481825 34.865 150.4415
0.485316 34.915 150.4417
0.488833 34.964 150.4423
0.492375 35.014 150.4433
0.495943 35.065 150.4448
0.499537 35.115 150.4468
0.503157 35.166 150.4493
0.506803 35.218 150.4525
0.510475 35.270 150.4563
0.514175 35.322 150.4609
0.517900 35.374 150.4664
0.521653 35.427 150.4727
0.525434 35.481 150.4800
0.529241 35.535 150.4883
0.533076 35.589 150.4977
0.536939 35.643 150.5082
0.540830 35.698 150.5200
0.544749 35.753 150.5331
0.548696 35.809 150.5475
0.552673 35.865 150.5634
0.556677 35.922 150.5808
0.560711 35.979 150.5998
0.564774 36.036 150.6205
0.568867 36.094 150.6430
0.572989 36.152 150.6672
0.577141 36.211 150.6934
0.581324 36.270 150.7215
0.585536 36.329 150.7518
0.589779 36.389 150.7841
0.594053 36.449 150.8187
0.598358 36.510 150.8556
0.602694 36.571 150.8949
0.607061 36.633 150.9367
0.611460 36.695 150.9810
0.615891 36.758 151.0280
0.620354 36.821 151.0777
0.624849 36.884 151.1302
0.629377 36.948 151.1856
0.633938 37.013 151.2440
0.638532 37.077 151.3054
0.643159 37.143 151.3700
0.647819 37.208 151.4379
0.652514 37.275 151.5091
0.657242 37.342 151.5837
0.662005 37.409 151.6618
0.666802 37.476 151.7436
0.671634 37.545 151.8290
0.676501 37.613 151.9182
0.681403 37.683 152.0112
0.686341 37.752 152.1082
0.691314 37.823 152.2092
0.696324 37.893 152.3143
0.701370 37.964 152.4235
0.706452 38.036 152.5370
0.711571 38.108 152.6546
0.716728 38.181 152.7763
0.721921 38.254 152.9020
0.727153 38.327 153.0313
0.732422 38.401 153.1638
0.737729 38.474 153.2991
0.743075 38.548 153.4366
0.748460 38.623 153.5758
0.753883 38.697 153.7165
0.759346 38.772 153.8585
0.764849 38.848 154.0016
0.770391 38.923 154.1458
0.775974 39.000 154.2910
0.781597 39.076 154.4373
0.787261 39.154 154.5848
0.792966 39.231 154.7333
0.798712 39.310 154.8829
0.804500 39.388 155.0337
0.810329 39.467 155.1857
0.816201 39.547 155.3388
0.822116 39.627 155.4931
0.828073 39.708 155.6487
0.834074 39.789 155.8056
0.840118 39.871 155.9637
0.846206 39.953 156.1231
0.852338 40.035 156.2838
0.858514 40.119 156.4459
0.864735 40.202 156.6093
0.871001 40.287 156.7741
0.877313 40.372 156.9403
0.883670 40.457 157.1079
0.890074 40.543 157.2769
0.896524 40.630 157.4473
0.903020 40.717 157.6192
0.909564 40.804 157.7925
0.916155 40.893 157.9673
0.922794 40.982 158.1436
0.929481 41.071 158.3214
0.936216 41.161 158.5006
0.943000 41.252 158.6814
0.949834 41.343 158.8637
0.956717 41.435 159.0475
0.963649 41.528 159.2328
0.970632 41.621 159.4196
0.977666 41.715 159.6080
0.984750 41.810 159.7979
0.991886 41.905 159.9893
0.999074 42.001 160.1823
1.006314 42.098 160.3767
1.013606 42.195 160.5727
1.020951 42.293 160.7702
1.028349 42.392 160.9691
1.035801 42.491 161.1696
1.043307 42.592 161.3716
1.050867 42.693 161.5751
1.058482 42.794 161.7800
1.066152 42.897 161.9865
1.073878 43.000 162.1945
1.081660 43.105 162.4041
1.089498 43.210 162.6153
1.097393 43.316 162.8283
1.105345 43.422 163.0432
1.113355 43.530 163.2600
1.121423 43.638 163.4788
1.129549 43.748 163.6994
1.137734 43.858 163.9219
1.145979 43.969 164.1460
1.154283 44.081 164.3715
1.162647 44.194 164.5981
1.171072 44.307 164.8257
1.179558 44.422 165.0540
1.188106 44.537 165.2827
1.196715 44.653 165.5115
1.205387 44.770 165.7403
1.214122 44.888 165.9688
1.222920 45.007 166.1967
1.231782 45.127 166.4237
1.240708 45.247 166.6496
1.249699 45.368 166.8742
1.258754 45.491 167.0971
1.267876 45.613 167.3182
1.277063 45.737 167.5372
1.286318 45.861 167.7538
1.295639 45.987 167.9679
1.305027 46.112 168.1791
1.314484 46.239 168.3871
1.324009 46.366 168.5919
1.333604 46.495 168.7931
1.343268 46.623 168.9905
1.353002 46.753 169.1839
1.362806 46.883 169.3730
1.372681 47.014 169.5577
1.382628 47.145 169.7377
1.392647 47.277 169.9129
1.402739 47.410 170.0831
1.412904 47.543 170.2482
1.423142 47.677 170.4082
1.433455 47.811 170.5631
1.443843 47.946 170.7134
1.454305 48.082 170.8593
1.464844 48.218 171.0017
1.475459 48.355 171.1414
1.486150 48.492 171.2792
1.496920 48.631 171.4155
1.507767 48.770 171.5508
1.518693 48.910 171.6850
1.529698 49.051 171.8179
1.540783 49.193 171.9494
1.551948 49.335 172.0791
1.563194 49.478 172.2066
1.574521 49.622 172.3316
1.585931 49.767 172.4535
1.597423 49.912 172.5722
1.608999 50.058 172.6871
1.620658 50.205 172.7979
1.632402 50.352 172.9043
1.644232 50.500 173.0058
1.656146 50.648 173.1021
1.668147 50.797 173.1929
1.680235 50.947 173.2777
1.692411 51.097 173.3564
1.704675 51.247 173.4286
1.717028 51.398 173.4939
1.729470 51.549 173.5521
1.742003 51.701 173.6030
1.754626 51.853 173.6463
1.767341 52.005 173.6819
1.780147 52.157 173.7099
1.793047 52.309 173.7303
1.806040 52.462 173.7436
1.819128 52.615 173.7504
1.832310 52.768 173.7517
1.845587 52.921 173.7487
1.858961 53.075 173.7423
1.872432 53.229 173.7332
1.886001 53.383 173.7218
1.899667 53.538 173.7080
1.913433 53.692 173.6917
1.927299 53.848 173.6724
1.941265 54.003 173.6498
1.955332 54.158 173.6234
1.969501 54.314 173.5927
1.983773 54.470 173.5571
1.998148 54.626 173.5163
2.012627 54.783 173.4697
2.027212 54.939 173.4168
2.041902 55.096 173.3573
2.056698 55.252 173.2906
2.071602 55.409 173.2165
2.086614 55.566 173.1344
2.101734 55.722 173.0441
2.116964 55.879 172.9453
2.132304 56.035 172.8378
2.147756 56.192 172.7215
2.163320 56.348 172.5967
2.178996 56.504 172.4637
2.194786 56.660 172.3234
2.210690 56.816 172.1767
2.226710 56.972 172.0246
2.242845 57.127 171.8678
2.259098 57.283 171.7069
2.275468 57.438 171.5421
2.291957 57.592 171.3734
2.308566 57.747 171.2005
2.325295 57.901 171.0234
2.342145 58.055 170.8417
2.359117 58.209 170.6551
2.376212 58.362 170.4632
2.393431 58.515 170.2658
2.410775 58.668 170.0624
2.428244 58.821 169.8528
2.445840 58.973 169.6367
2.463564 59.125 169.4137
2.481416 59.276 169.1837
2.499397 59.427 168.9463
2.517509 59.578 168.7015
2.535752 59.728 168.4494
2.554127 59.878 168.1902
2.572635 60.027 167.9244
2.591277 60.176 167.6525
2.610055 60.324 167.3749
2.628968 60.471 167.0923
2.648019 60.618 166.8049
2.667208 60.764 166.5129
2.686535 60.910 166.2166
2.706003 61.055 165.9160
2.725612 61.199 165.6110
2.745363 61.342 165.3019
2.765257 61.485 164.9884
2.785295 61.627 164.6706
2.805478 61.769 164.3483
2.825808 61.910 164.0216
2.846285 62.050 163.6902
2.866910 62.190 163.3541
2.887685 62.329 163.0131
2.908611 62.467 162.6671
2.929688 62.605 162.3160
2.950917 62.742 161.9598
2.972301 62.878 161.5985
2.993839 63.013 161.2325
3.015534 63.147 160.8619
3.037386 63.280 160.4871
3.059396 63.412 160.1085
3.081565 63.543 159.7264
3.103896 63.673 159.3412
3.126388 63.802 158.9532
3.149043 63.931 158.5628
3.171862 64.059 158.1701
3.194847 64.185 157.7753
3.217998 64.312 157.3785
3.241317 64.437 156.9798
3.264805 64.561 156.5789
3.288463 64.685 156.1755
3.312293 64.807 155.7694
3.336295 64.929 155.3602
3.360471 65.049 154.9479
3.384822 65.169 154.5324
3.409350 65.287 154.1141
3.434056 65.404 153.6934
3.458940 65.520 153.2709
3.484005 65.636 152.8472
3.509252 65.750 152.4226
3.534681 65.863 151.9979
3.560295 65.976 151.5733
3.586094 66.087 151.1492
3.612081 66.198 150.7256
3.638255 66.308 150.3026
3.664620 66.418 149.8799
3.691175 66.526 149.4569
3.717923 66.633 149.0333
3.744864 66.739 148.6090
3.772001 66.844 148.1840
3.799335 66.948 147.7586
3.826866 67.052 147.3331
3.854597 67.154 146.9080
3.882529 67.255 146.4839
3.910664 67.356 146.0612
3.939002 67.456 145.6404
3.967546 67.556 145.2217
3.996296 67.655 144.8053
4.025255 67.753 144.3911
4.054423 67.850 143.9788
4.083804 67.947 143.5681
4.113396 68.043 143.1587
4.143204 68.139 142.7506
4.173227 68.233 142.3437
4.203468 68.327 141.9382
4.233928 68.420 141.5343
4.264609 68.513 141.1322
4.295512 68.606 140.7321
4.326639 68.698 140.3343
4.357992 68.789 139.9387
4.389572 68.881 139.5456
4.421380 68.972 139.1547
4.453419 69.063 138.7659
4.485691 69.153 138.3791
4.518196 69.243 137.9940
4.550936 69.333 137.6103
4.583914 69.422 137.2280
4.617131 69.512 136.8468
4.650589 69.601 136.4667
4.684289 69.689 136.0874
4.718233 69.778 135.7091
4.752424 69.867 135.3316
4.786862 69.956 134.9549
4.821549 70.044 134.5790
4.856488 70.133 134.2038
4.891680 70.221 133.8289
4.927127 70.309 133.4543
4.962831 70.397 133.0795
4.998794 70.485 132.7043
5.035017 70.573 132.3283
5.071503 70.661 131.9513
5.108253 70.749 131.5731
5.145270 70.837 131.1937
5.182555 70.924 130.8129
5.220110 71.012 130.4309
5.257937 71.099 130.0476
5.296038 71.186 129.6628
5.334415 71.273 129.2764
5.373071 71.360 128.8883
5.412006 71.446 128.4984
5.451224 71.532 128.1064
5.490725 71.618 127.7122
5.530514 71.704 127.3157
5.570590 71.789 126.9170
5.610957 71.874 126.5161
5.651616 71.958 126.1132
5.692570 72.042 125.7085
5.733821 72.126 125.3022
5.775370 72.209 124.8944
5.817221 72.292 124.4853
5.859375 72.374 124.0748
5.901834 72.455 123.6629
5.944602 72.536 123.2496
5.987679 72.617 122.8350
6.031068 72.697 122.4195
6.074771 72.776 122.0035
6.118792 72.855 121.5873
6.163131 72.933 121.1713
6.207792 73.011 120.7556
6.252776 73.088 120.3404
6.298086 73.164 119.9256
6.343725 73.241 119.5114
6.389694 73.316 119.0977
6.435996 73.392 118.6848
6.482634 73.466 118.2730
6.529610 73.541 117.8626
6.576926 73.615 117.4536
6.624585 73.689 117.0461
6.672590 73.763 116.6401
6.720942 73.837 116.2355
6.769645 73.911 115.8320
6.818700 73.984 115.4295
6.868111 74.057 115.0278
6.917881 74.131 114.6268
6.968010 74.204 114.2264
7.018504 74.278 113.8265
7.069362 74.352 113.4268
7.120590 74.426 113.0270
7.172189 74.500 112.6266
7.224161 74.574 112.2250
7.276511 74.648 111.8219
7.329239 74.723 111.4169
7.382350 74.797 111.0098
7.435845 74.872 110.6003
7.489729 74.947 110.1882
7.544002 75.022 109.7731
7.598669 75.096 109.3546
7.653732 75.171 108.9323
7.709194 75.245 108.5061
7.765058 75.320 108.0757
7.821327 75.393 107.6413
7.878004 75.467 107.2029
7.935091 75.540 106.7608
7.992592 75.612 106.3150
8.050510 75.684 105.8657
8.108847 75.754 105.4131
8.167607 75.824 104.9574
8.226793 75.894 104.4993
8.286408 75.962 104.0394
8.346454 76.029 103.5786
8.406936 76.095 103.1174
8.467856 76.160 102.6565
8.529218 76.223 102.1963
8.591024 76.286 101.7377
8.653278 76.348 101.2814
8.715983 76.408 100.8285
8.779143 76.468 100.3797
8.842760 76.527 99.9358
8.906839 76.585 99.4971
8.971381 76.642 99.0640
9.036392 76.699 98.6371
9.101873 76.756 98.2167
9.167829 76.812 97.8033
9.234263 76.868 97.3969
9.301178 76.924 96.9973
9.368578 76.980 96.6041
9.436467 77.037 96.2169
9.504847 77.094 95.8352
9.573723 77.152 95.4584
9.643099 77.210 95.0858
9.712976 77.269 94.7163
9.783361 77.329 94.3489
9.854255 77.390 93.9822
9.925663 77.452 93.6153
9.997588 77.514 93.2471
10.070035 77.577 92.8767
10.143007 77.641 92.5029
10.216507 77.706 92.1246
10.290540 77.770 91.7412
10.365109 77.835 91.3520
10.440219 77.900 90.9568
10.515873 77.965 90.5553
10.592076 78.029 90.1475
10.668830 78.093 89.7336
10.746141 78.156 89.3140
10.824012 78.217 88.8896
10.902447 78.278 88.4612
10.981451 78.337 88.0299
11.061027 78.395 87.5970
11.141180 78.452 87.1634
11.221913 78.507 86.7308
11.303232 78.560 86.3006
11.385140 78.613 85.8742
11.467641 78.664 85.4526
11.550741 78.714 85.0370
11.634442 78.762 84.6284
11.718750 78.811 84.2275
11.803669 78.858 83.8347
11.889203 78.906 83.4502
11.975357 78.953 83.0738
12.062136 79.001 82.7050
12.149543 79.049 82.3431
12.237583 79.098 81.9870
12.326262 79.147 81.6355
12.415583 79.198 81.2870
12.505552 79.249 80.9400
12.596172 79.301 80.5929
12.687449 79.354 80.2441
12.779387 79.408 79.8921
12.871992 79.463 79.5354
12.965268 79.518 79.1731
13.059220 79.573 78.8043
13.153852 79.628 78.4286
13.249170 79.683 78.0458
13.345179 79.737 77.6560
13.441884 79.790 77.2598
13.539289 79.842 76.8581
13.637401 79.893 76.4519
13.736223 79.943 76.0423
13.835761 79.992 75.6307
13.936021 80.039 75.2186
14.037007 80.085 74.8072
14.138725 80.130 74.3977
14.241180 80.173 73.9910
14.344377 80.216 73.5880
14.448323 80.258 73.1892
14.553021 80.299 72.7948
14.658478 80.340 72.4048
14.764700 80.380 72.0189
14.871691 80.420 71.6367
14.979457 80.461 71.2578
15.088005 80.501 70.8815
15.197339 80.540 70.5075
15.307465 80.580 70.1354
15.418389 80.619 69.7652
15.530117 80.658 69.3968
15.642655 80.697 69.0308
15.756008 80.735 68.6677
15.870182 80.773 68.3081
15.985184 80.811 67.9530
16.101019 80.849 67.6030
16.217694 80.886 67.2587
16.335214 80.924 66.9202
16.453586 80.963 66.5871
16.572815 81.002 66.2587
16.692909 81.043 65.9334
16.813872 81.085 65.6089
16.935713 81.129 65.2824
17.058436 81.174 64.9509
17.182048 81.221 64.6108
17.306556 81.269 64.2588
17.431967 81.318 63.8918
17.558286 81.367 63.5075
17.685521 81.415 63.1045
17.813677 81.462 62.6826
17.942762 81.507 62.2431
18.072783 81.548 61.7885
18.203746 81.586 61.3229
18.335658 81.620 60.8516
18.468526 81.649 60.3807
18.602356 81.673 59.9169
18.737156 81.692 59.4673
18.872934 81.708 59.0381
19.009695 81.721 58.6350
19.147447 81.731 58.2619
19.286197 81.741 57.9212
19.425953 81.751 57.6128
19.566721 81.762 57.3347
19.708510 81.776 57.0825
19.851326 81.794 56.8503
19.995177 81.815 56.6311
20.140070 81.840 56.4174
20.286013 81.869 56.2021
20.433014 81.901 55.9794
20.581080 81.935 55.7451
20.730219 81.971 55.4972
20.880439 82.006 55.2360
21.031747 82.042 54.9634
21.184152 82.076 54.6833
21.337661 82.109 54.4000
21.492282 82.142 54.1179
21.648024 82.173 53.8404
21.804895 82.205 53.5696
21.962902 82.238 53.3054
22.122054 82.273 53.0454
22.282360 82.311 52.7854
22.443827 82.351 52.5195
22.606464 82.393 52.2415
22.770280 82.438 51.9451
22.935283 82.484 51.6258
23.101481 82.530 51.2808
23.268884 82.575 50.9102
23.437500 82.618 50.5168
23.607338 82.657 50.1056
23.778406 82.693 49.6837
23.950714 82.725 49.2585
24.124271 82.753 48.8376
24.299086 82.778 48.4270
24.475167 82.802 48.0306
24.652524 82.825 47.6497
24.831166 82.848 47.2830
25.011103 82.872 46.9268
25.192344 82.898 46.5760
25.374898 82.925 46.2250
25.558775 82.953 45.8689
25.743984 82.982 45.5044
25.930536 83.010 45.1305
26.118439 83.037 44.7482
26.307704 83.063 44.3611
26.498341 83.085 43.9738
26.690359 83.106 43.5915
26.883768 83.125 43.2188
27.078579 83.142 42.8591
27.274801 83.159 42.5139
27.472446 83.176 42.1827
27.671522 83.194 41.8631
27.872042 83.213 41.5516
28.074014 83.234 41.2442
28.277450 83.255 40.9371
28.482360 83.277 40.6276
28.688755 83.300 40.3142
28.896645 83.322 39.9964
29.106042 83.344 39.6752
29.316957 83.364 39.3519
29.529400 83.384 39.0283
29.743382 83.403 38.7057
29.958915 83.421 38.3851
30.176009 83.439 38.0669
30.394677 83.456 37.7507
30.614929 83.472 37.4361
30.836778 83.489 37.1222
31.060234 83.505 36.8082
31.285309 83.521 36.4936
31.512015 83.536 36.1781
31.740364 83.551 35.8618
31.970368 83.565 35.5453
32.202039 83.578 35.2295
32.435388 83.591 34.9153
32.670428 83.603 34.6042
32.907171 83.615 34.2971
33.145630 83.626 33.9949
33.385817 83.638 33.6976
33.627745 83.650 33.4047
33.871425 83.663 33.1148
34.116871 83.677 32.8256
34.364096 83.692 32.5347
34.613113 83.708 32.2397
34.863934 83.724 31.9386
35.116572 83.741 31.6305
35.371041 83.757 31.3159
35.627354 83.772 30.9962
35.885525 83.786 30.6740
36.145566 83.799 30.3520
36.407492 83.811 30.0330
36.671316 83.822 29.7190
36.937051 83.832 29.4111
37.204712 83.843 29.1095
37.474313 83.853 28.8137
37.745867 83.863 28.5228
38.019389 83.873 28.2360
38.294893 83.883 27.9522
38.572394 83.893 27.6704
38.851905 83.904 27.3893
39.133442 83.915 27.1075
39.417019 83.925 26.8233
39.702651 83.936 26.5358
39.990353 83.945 26.2445
40.280140 83.954 25.9504
40.572026 83.962 25.6555
40.866028 83.968 25.3617
41.162160 83.974 25.0707
41.460438 83.979 24.7822
41.760877 83.985 24.4947
42.063494 83.991 24.2055
42.368303 83.996 23.9121
42.675322 84.000 23.6142
42.984565 84.004 23.3137
43.296048 84.006 23.0145
43.609789 84.006 22.7213
43.925804 84.006 22.4381
44.244108 84.006 22.1662
44.564719 84.006 21.9046
44.887654 84.008 21.6504
45.212928 84.011 21.4000
45.540560 84.016 21.1503
45.870565 84.022 20.8991
46.202962 84.029 20.6445
46.537768 84.037 20.3849
46.875000 84.045 20.1187
47.214676 84.053 19.8453
47.556813 84.061 19.5655
47.901429 84.067 19.2819
48.248542 84.072 18.9980
48.598171 84.076 18.7166
48.950334 84.079 18.4391
49.305048 84.081 18.1649
49.662333 84.083 17.8926
50.022206 84.084 17.6211
50.384688 84.085 17.3507
50.749796 84.084 17.0826
51.117550 84.082 16.8179
51.487969 84.080 16.5567
51.861072 84.078 16.2981
52.236879 84.075 16.0408
52.615409 84.072 15.7843
52.996681 84.068 15.5292
53.380717 84.064 15.2768
53.767536 84.061 15.0273
54.157158 84.058 14.7788
54.549603 84.056 14.5279
54.944892 84.055 14.2713
55.343045 84.053 14.0071
55.744084 84.052 13.7366
56.148028 84.049 13.4634
56.554900 84.046 13.1920
56.964720 84.041 12.9260
57.377510 84.037 12.6668
57.793291 84.033 12.4137
58.212085 84.030 12.1648
58.633914 84.026 11.9175
59.058799 84.023 11.6702
59.486764 84.020 11.4222
59.917829 84.017 11.1742
60.352019 84.012 10.9267
60.789354 84.008 10.6799
61.229859 84.003 10.4328
61.673556 83.997 10.1839
62.120468 83.992 9.9320
62.570618 83.986 9.6758
63.024031 83.980 9.4136
63.480729 83.974 9.1435
63.940736 83.967 8.8646
64.404077 83.959 8.5782
64.870776 83.950 8.2878
65.340856 83.940 7.9958
65.814343 83.929 7.7031
66.291261 83.917 7.4112
66.771635 83.902 7.1267
67.255489 83.885 6.8622
67.742850 83.865 6.6309
68.233743 83.846 6.4380
68.728193 83.830 6.2765
69.226226 83.817 6.1317
69.727867 83.807 5.9904
70.233144 83.797 5.8465
70.742083 83.786 5.7000
71.254709 83.775 5.5526
71.771050 83.763 5.4038
72.291132 83.751 5.2500
72.814984 83.737 5.0865
73.342631 83.723 4.9088
73.874102 83.708 4.7154
74.409424 83.692 4.5072
74.948626 83.673 4.2874
75.491734 83.654 4.0594
76.038779 83.635 3.8267
76.589787 83.615 3.5926
77.144788 83.595 3.3596
77.703811 83.577 3.1288
78.266885 83.559 2.8999
78.834039 83.542 2.6725
79.405303 83.526 2.4478
79.980706 83.509 2.2282
80.560280 83.491 2.0164
81.144053 83.473 1.8143
81.732056 83.455 1.6222
82.324320 83.436 1.4391
82.920876 83.417 1.2629
83.521755 83.399 1.0900
84.126988 83.380 0.9168
84.736607 83.361 0.7405
85.350643 83.341 0.5607
85.969129 83.320 0.3788
86.592097 83.298 0.1972
87.219579 83.275 0.0184
87.851608 83.251 -0.1553
88.488217 83.226 -0.3217
89.129439 83.200 -0.4800
89.775308 83.174 -0.6314
90.425856 83.148 -0.7796
91.081119 83.122 -0.9286
91.741131 83.096 -1.0808
92.405925 83.069 -1.2363
93.075536 83.042 -1.3943
93.750000 83.016 -1.5543
94.429351 82.991 -1.7178
95.113625 82.966 -1.8877
95.802858 82.943 -2.0655
96.497085 82.919 -2.2496
97.196342 82.895 -2.4349
97.900667 82.869 -2.6153
98.610096 82.843 -2.7857
99.324665 82.816 -2.9447
100.044413 82.789 -3.0936
100.769376 82.760 -3.2355
101.499592 82.731 -3.3736
102.235100 82.700 -3.5108
102.975938 82.668 -3.6500
103.722144 82.634 -3.7944
104.473757 82.599 -3.9470
105.230817 82.562 -4.1085
105.993363 82.522 -4.2744
106.761435 82.479 -4.4361
107.535072 82.434 -4.5853
108.314315 82.387 -4.7177
109.099206 82.340 -4.8332
109.889783 82.292 -4.9338
110.686090 82.243 -5.0210
111.488167 82.193 -5.0930
112.296056 82.141 -5.1451
113.109800 82.088 -5.1721
113.929440 82.036 -5.1695
114.755020 81.984 -5.1347
115.586582 81.935 -5.0664
116.424170 81.890 -4.9656
117.267827 81.850 -4.8359
118.117598 81.815 -4.6836
118.973527 81.784 -4.5166
119.835658 81.758 -4.3425
120.704037 81.735 -4.1701
121.578708 81.714 -4.0089
122.459718 81.695 -3.8659
123.347111 81.677 -3.7435
124.240935 81.659 -3.6403
125.141236 81.642 -3.5541
126.048061 81.625 -3.4834
126.961458 81.608 -3.4267
127.881473 81.592 -3.3835
128.808154 81.574 -3.3565
129.741551 81.554 -3.3501
130.681712 81.532 -3.3662
131.628686 81.507 -3.4021
132.582521 81.480 -3.4495
133.543269 81.452 -3.4978
134.510979 81.428 -3.5404
135.485701 81.408 -3.5785
136.467486 81.393 -3.6163
137.456386 81.382 -3.6548
138.452451 81.372 -3.6899
139.455735 81.359 -3.7147
140.466288 81.343 -3.7263
141.484165 81.323 -3.7267
142.509418 81.298 -3.7179
143.542100 81.269 -3.7007
144.582265 81.238 -3.6763
145.629968 81.206 -3.6456
146.685262 81.175 -3.6090
147.748204 81.144 -3.5684
148.818849 81.114 -3.5250
149.897251 81.084 -3.4790
150.983469 81.055 -3.4325
152.077557 81.026 -3.3880
153.179574 80.998 -3.3454
154.289576 80.970 -3.3021
155.407622 80.943 -3.2543
156.533770 80.917 -3.1977
157.668078 80.891 -3.1289
158.810606 80.865 -3.0479
159.961413 80.838 -2.9576
161.120559 80.810 -2.8614
162.288105 80.780 -2.7604
163.464112 80.748 -2.6547
164.648640 80.716 -2.5460
165.841752 80.685 -2.4381
167.043510 80.655 -2.3357
168.253976 80.627 -2.2419
169.473213 80.600 -2.1572
170.701286 80.573 -2.0784
171.938258 80.545 -1.9996
173.184194 80.517 -1.9135
174.439158 80.488 -1.8154
175.703216 80.458 -1.7049
176.976434 80.429 -1.5839
178.258878 80.399 -1.4544
179.550615 80.370 -1.3173
180.851713 80.341 -1.1751
182.162239 80.313 -1.0315
183.482262 80.285 -0.8901
184.811850 80.258 -0.7531
186.151073 80.231 -0.6218
187.500000 80.204 -0.4957
188.858702 80.177 -0.3692
190.227250 80.151 -0.2322
191.605715 80.126 -0.0758
192.994169 80.103 0.1021
194.392685 80.081 0.2962
195.801334 80.060 0.4984
197.220191 80.038 0.7013
198.649330 80.015 0.8992
200.088825 79.991 1.0880
201.538751 79.968 1.2650
202.999184 79.946 1.4306
204.470200 79.924 1.5879
205.951875 79.904 1.7417
207.444287 79.885 1.8981
208.947514 79.866 2.0638
210.461634 79.846 2.2445
211.986726 79.826 2.4428
213.522869 79.806 2.6574
215.070144 79.786 2.8832
216.628631 79.767 3.1122
218.198411 79.750 3.3364
219.779567 79.736 3.5501
221.372180 79.723 3.7508
222.976334 79.712 3.9389
224.592112 79.700 4.1172
226.219600 79.687 4.2907
227.858880 79.673 4.4674
229.510039 79.655 4.6559
231.173164 79.637 4.8620
232.848340 79.616 5.0862
234.535655 79.595 5.3249
236.235197 79.573 5.5723
237.947054 79.551 5.8241
239.671317 79.531 6.0768
241.408074 79.513 6.3274
243.157416 79.496 6.5733
244.919435 79.480 6.8134
246.694223 79.466 7.0469
248.481871 79.453 7.2736
250.282473 79.443 7.4946
252.096123 79.435 7.7129
253.922915 79.428 7.9329
255.762945 79.422 8.1586
257.616309 79.417 8.3920
259.483103 79.413 8.6341
261.363424 79.409 8.8869
263.257372 79.406 9.1510
265.165043 79.403 9.4232
267.086538 79.401 9.6966
269.021957 79.397 9.9640
270.971401 79.393 10.2227
272.934972 79.388 10.4752
274.912771 79.383 10.7259
276.904902 79.376 10.9785
278.911469 79.368 11.2348
280.932577 79.361 11.4945
282.968330 79.354 11.7537
285.018835 79.348 12.0076
287.084199 79.343 12.2555
289.164530 79.340 12.5022
291.259935 79.338 12.7536
293.370525 79.336 13.0122
295.496408 79.334 13.2745
297.637697 79.333 13.5358
299.794503 79.332 13.7949
301.966937 79.331 14.0553
304.155114 79.331 14.3198
306.359147 79.332 14.5870
308.579152 79.333 14.8538
310.815244 79.334 15.1188
313.067539 79.335 15.3834
315.336156 79.336 15.6492
317.621211 79.338 15.9158
319.922826 79.340 16.1814
322.241118 79.344 16.4449
324.576210 79.348 16.7071
326.928223 79.352 16.9707
329.297280 79.356 17.2389
331.683504 79.360 17.5142
334.087019 79.364 17.7969
336.507952 79.368 18.0813
338.946427 79.374 18.3559
341.402572 79.380 18.6110
343.876516 79.387 18.8453
346.368387 79.395 19.0650
348.878315 79.402 19.2793
351.406431 79.409 19.4967
353.952867 79.415 19.7235
356.517756 79.421 19.9635
359.101230 79.427 20.2185
361.703426 79.433 20.4879
364.324478 79.440 20.7680
366.964523 79.448 21.0526
369.623699 79.458 21.3346
372.302145 79.469 21.6095
375.000000 79.481 21.8772
377.717405 79.494 22.1390
380.454501 79.506 22.3953
383.211431 79.517 22.6452
385.988339 79.527 22.8902
388.785369 79.536 23.1347
391.602668 79.544 23.3827
394.440383 79.551 23.6358
397.298660 79.558 23.8921
400.177650 79.565 24.1477
403.077502 79.573 24.3982
405.998368 79.580 24.6422
408.940400 79.587 24.8847
411.903750 79.594 25.1362
414.888575 79.601 25.4090
417.895028 79.609 25.7097
420.923268 79.619 26.0346
423.973452 79.633 26.3690
427.045738 79.651 26.6937
430.140287 79.672 26.9920
433.257261 79.695 27.2551
436.396822 79.717 27.4835
439.559133 79.739 27.6862
442.744360 79.761 27.8767
445.952668 79.781 28.0675
449.184225 79.802 28.2655
452.439199 79.822 28.4723
455.717760 79.842 28.6860
459.020079 79.861 28.9031
462.346327 79.881 29.1205
465.696680 79.900 29.3370
469.071310 79.919 29.5541
472.470394 79.939 29.7740
475.894109 79.959 29.9977
479.342634 79.978 30.2236
482.816148 79.997 30.4511
486.314833 80.015 30.6818
489.838871 80.034 30.9154
493.388445 80.053 31.1497
496.963741 80.072 31.3827
500.564945 80.091 31.6140
504.192245 80.112 31.8445
507.845830 80.133 32.0762
511.525890 80.155 32.3115
515.232618 80.178 32.5503
518.966206 80.200 32.7895
522.726849 80.219 33.0258
526.514743 80.236 33.2583
530.330086 80.251 33.4900
534.173076 80.267 33.7242
538.043915 80.284 33.9620
541.942803 80.301 34.2012
545.869944 80.320 34.4372
549.825542 80.339 34.6670
553.809805 80.359 34.8916
557.822939 80.379 35.1144
561.865154 80.400 35.3374
565.936660 80.419 35.5597
570.037671 80.438 35.7787
574.168399 80.456 35.9908
578.329060 80.471 36.1916
582.519870 80.485 36.3782
586.741049 80.498 36.5501
590.992817 80.510 36.7096
595.275394 80.521 36.8611
599.589005 80.532 37.0094
603.933874 80.543 37.1578
608.310228 80.553 37.3062
612.718295 80.564 37.4502
617.158304 80.574 37.5828
621.630488 80.584 37.6976
626.135079 80.593 37.7931
630.672311 80.602 37.8735
635.242423 80.610 37.9470
639.845651 80.618 38.0223
644.482237 80.626 38.1069
649.152421 80.635 38.2063
653.856447 80.645 38.3234
658.594560 80.656 38.4570
663.367008 80.669 38.6029
668.174039 80.683 38.7545
673.015903 80.700 38.9066
677.892854 80.717 39.0568
682.805145 80.734 39.2068
687.753032 80.749 39.3591
692.736774 80.763 39.5154
697.756631 80.774 39.6777
702.812863 80.784 39.8471
707.905735 80.792 40.0222
713.035511 80.799 40.1996
718.202461 80.807 40.3758
723.406852 80.815 40.5492
728.648956 80.826 40.7196
733.929047 80.839 40.8884
739.247399 80.854 41.0572
744.604290 80.870 41.2265
750.000000 80.886 41.3990
755.434809 80.902 41.5796
760.909001 80.918 41.7720
766.422861 80.932 41.9739
771.976677 80.945 42.1780
777.570739 80.958 42.3770
783.205337 80.972 42.5658
788.880766 80.985 42.7424
794.597321 80.999 42.9079
800.355301 81.013 43.0661
806.155005 81.026 43.2215
811.996736 81.038 43.3786
817.880799 81.051 43.5420
823.807501 81.066 43.7164
829.777150 81.082 43.9042
835.790057 81.101 44.1054
841.846536 81.121 44.3181
847.946903 81.144 44.5398
854.091476 81.168 44.7669
860.280575 81.192 44.9963
866.514523 81.216 45.2246
872.793644 81.240 45.4490
879.118267 81.262 45.6680
885.488720 81.285 45.8816
891.905336 81.309 46.0909
898.368450 81.333 46.2986
904.878398 81.360 46.5089
911.435520 81.390 46.7268
918.040157 81.421 46.9558
924.692655 81.454 47.1956
931.393359 81.490 47.4404
938.142619 81.526 47.6821
944.940787 81.563 47.9127
951.788218 81.600 48.1269
958.685268 81.636 48.3235
965.632296 81.674 48.5060
972.629666 81.711 48.6805
979.677741 81.750 48.8519
986.776890 81.790 49.0226
993.927482 81.831 49.1940
1001.129891 81.873 49.3674
1008.384491 81.916 49.5428
1015.691660 81.960 49.7171
1023.051781 82.005 49.8829
1030.465236 82.048 50.0294
1037.932411 82.090 50.1484
1045.453698 82.131 50.2387
1053.029486 82.169 50.3057
1060.660172 82.207 50.3577
1068.346153 82.245 50.4036
1076.087829 82.285 50.4515
1083.885605 82.327 50.5061
1091.739887 82.371 50.5679
1099.651084 82.418 50.6348
1107.619609 82.467 50.7040
1115.645878 82.516 50.7710
1123.730308 82.565 50.8297
1131.873321 82.613 50.8730
1140.075341 82.660 50.8936
1148.336797 82.706 50.8861
1156.658119 82.752 50.8495
1165.039741 82.796 50.7872
1173.482099 82.840 50.7055
1181.985634 82.884 50.6122
1190.550789 82.926 50.5149
1199.178011 82.967 50.4191
1207.867749 83.007 50.3276
1216.620457 83.045 50.2421
1225.436590 83.081 50.1637
1234.316609 83.117 50.0910
1243.260976 83.152 50.0206
1252.270157 83.186 49.9481
1261.344623 83.217 49.8686
1270.484846 83.246 49.7775
1279.691303 83.271 49.6706
1288.964474 83.292 49.5466
1298.304842 83.310 49.4083
1307.712894 83.325 49.2625
1317.189120 83.339 49.1186
1326.734016 83.353 48.9850
1336.348077 83.367 48.8680
1346.031806 83.381 48.7698
1355.785708 83.393 48.6883
1365.610290 83.404 48.6172
1375.506065 83.411 48.5474
1385.473549 83.413 48.4706
1395.513261 83.411 48.3833
1405.625726 83.404 48.2886
1415.811469 83.392 48.1947
1426.071023 83.377 48.1126
1436.404921 83.360 48.0537
1446.813703 83.343 48.0278
1457.297912 83.326 48.0410
1467.858093 83.311 48.0940
1478.494798 83.296 48.1813
1489.208581 83.281 48.2934
1500.000000 83.264 48.4188
1510.869618 83.245 48.5476
1521.818002 83.222 48.6749
1532.845723 83.197 48.8019
1543.953355 83.169 48.9338
1555.141477 83.140 49.0769
1566.410674 83.111 49.2383
1577.761531 83.082 49.4253
1589.194642 83.052 49.6446
1600.710601 83.021 49.9024
1612.310010 82.989 50.2078
1623.993473 82.958 50.5740
1635.761599 82.927 51.0158
1647.615002 82.900 51.5455
1659.554299 82.879 52.1704
1671.580114 82.865 52.8915
1683.693072 82.861 53.7024
1695.893807 82.868 54.5911
1708.182952 82.887 55.5422
1720.561150 82.922 56.5403
1733.029045 82.973 57.5690
1745.587288 83.044 58.6110
1758.236533 83.136 59.6468
1770.977440 83.251 60.6537
1783.810673 83.390 61.6068
1796.736900 83.551 62.4812
1809.756796 83.729 63.2543
1822.871040 83.921 63.9069
1836.080315 84.120 64.4254
1849.385310 84.320 64.8045
1862.786718 84.518 65.0481
1876.285239 84.710 65.1671
1889.881575 84.896 65.1776
1903.576436 85.077 65.0990
1917.370535 85.254 64.9528
1931.264593 85.429 64.7582
1945.259332 85.604 64.5282
1959.355483 85.779 64.2660
1973.553781 85.954 63.9662
1987.854965 86.127 63.6181
2002.259781 86.297 63.2089
2016.768981 86.460 62.7264
2031.383320 86.615 62.1604
2046.103561 86.760 61.5057
2060.930471 86.895 60.7676
2075.864823 87.021 59.9646
2090.907395 87.137 59.1252
2106.058972 87.243 58.2788
2121.320344 87.342 57.4455
2136.692305 87.435 56.6337
2152.175658 87.522 55.8431
2167.771210 87.606 55.0673
2183.479774 87.685 54.2961
2199.302169 87.759 53.5169
2215.239219 87.826 52.7171
2231.291755 87.888 51.8863
2247.460615 87.942 51.0179
2263.746641 87.991 50.1099
2280.150683 88.034 49.1642
2296.673595 88.071 48.1870
2313.316238 88.104 47.1885
2330.079481 88.131 46.1829
2346.964198 88.153 45.1869
2363.971268 88.170 44.2179
2381.101578 88.183 43.2919
2398.356022 88.192 42.4192
2415.735498 88.200 41.6025
2433.240913 88.207 40.8392
2450.873180 88.214 40.1221
2468.633217 88.221 39.4401
2486.521951 88.227 38.7775
2504.540314 88.231 38.1161
2522.689246 88.231 37.4401
2540.969692 88.228 36.7398
2559.382606 88.220 36.0142
2577.928947 88.209 35.2734
2596.609683 88.195 34.5362
2615.425787 88.178 33.8238
2634.378241 88.158 33.1537
2653.468031 88.137 32.5350
2672.696154 88.114 31.9668
2692.063613 88.089 31.4378
2711.571415 88.062 30.9298
2731.220579 88.032 30.4243
2751.012130 87.999 29.9054
2770.947098 87.963 29.3612
2791.026522 87.926 28.7842
2811.251451 87.890 28.1730
2831.622938 87.854 27.5328
2852.142045 87.820 26.8723
2872.809842 87.788 26.1997
2893.627406 87.757 25.5233
2914.595823 87.724 24.8546
2935.716186 87.689 24.2083
2956.989596 87.652 23.6004
2978.417161 87.611 23.0438
3000.000000 87.568 22.5443
3021.739237 87.522 22.0989
3043.636005 87.475 21.6971
3065.691446 87.425 21.3227
3087.906710 87.371 20.9561
3110.282955 87.313 20.5783
3132.821347 87.251 20.1783
3155.523062 87.185 19.7570
3178.389283 87.117 19.3258
3201.421202 87.047 18.9043
3224.620020 86.976 18.5177
3247.986946 86.905 18.1894
3271.523198 86.835 17.9328
3295.230004 86.768 17.7472
3319.108599 86.702 17.6180
3343.160228 86.637 17.5203
3367.386145 86.574 17.4242
3391.787613 86.510 17.3027
3416.365904 86.446 17.1386
3441.122300 86.382 16.9284
3466.058091 86.318 16.6831
3491.174576 86.254 16.4259
3516.473066 86.190 16.1858
3541.954880 86.128 15.9880
3567.621345 86.067 15.8467
3593.473800 86.007 15.7609
3619.513592 85.947 15.7157
3645.742080 85.886 15.6867
3672.160630 85.823 15.6467
3698.770620 85.758 15.5734
3725.573436 85.688 15.4548
3752.570477 85.616 15.2916
3779.763150 85.542 15.0974
3807.152872 85.468 14.8982
3834.741071 85.393 14.7273
3862.529185 85.320 14.6146
3890.518664 85.247 14.5763
3918.710966 85.175 14.6096
3947.107561 85.103 14.6951
3975.709929 85.030 14.8034
4004.519563 84.956 14.9018
4033.537962 84.881 14.9599
4062.766641 84.803 14.9566
4092.207123 84.724 14.8860
4121.860942 84.645 14.7586
4151.729646 84.566 14.5956
4181.814790 84.489 14.4198
4212.117944 84.411 14.2503
4242.640687 84.333 14.1012
4273.384610 84.255 13.9845
4304.351317 84.176 13.9143
4335.542421 84.097 13.9097
4366.959549 84.018 13.9923
4398.604338 83.942 14.1788
4430.478438 83.868 14.4728
4462.583511 83.796 14.8612
4494.921231 83.727 15.3162
4527.493283 83.660 15.8013
4560.301365 83.595 16.2804
4593.347189 83.531 16.7276
4626.632476 83.469 17.1332
4660.158962 83.409 17.5067
4693.928395 83.354 17.8744
4727.942535 83.303 18.2727
4762.203156 83.259 18.7361
4796.712043 83.224 19.2871
4831.470996 83.198 19.9291
4866.481826 83.182 20.6453
4901.746360 83.175 21.4024
4937.266434 83.178 22.1596
4973.043902 83.189 22.8771
5009.080628 83.208 23.5254
5045.378492 83.236 24.0921
5081.939384 83.276 24.5850
5118.765212 83.327 25.0260
5155.857894 83.393 25.4419
5193.219366 83.473 25.8543
5230.851574 83.567 26.2722
5268.756481 83.675 26.6843
5306.936062 83.795 27.0576
5345.392309 83.923 27.3406
5384.127225 84.057 27.4748
5423.142830 84.193 27.4080
5462.441159 84.328 27.1053
5502.024259 84.459 26.5543
5541.894195 84.582 25.7629
5582.053045 84.696 24.7524
5622.502902 84.798 23.5517
5663.245876 84.885 22.1931
5704.284090 84.955 20.7104
5745.619684 85.004 19.1405
5787.254813 85.031 17.5231
5829.191647 85.032 15.9012
5871.432373 85.008 14.3203
5913.979192 84.958 12.8247
5956.834323 84.882 11.4489
6000.000000 84.781 10.2091
6043.478473 84.656 9.1005
6087.272010 84.506 8.1031
6131.382892 84.334 7.1906
6175.813420 84.139 6.3413
6220.565910 83.924 5.5498
6265.642695 83.692 4.8347
6311.046124 83.449 4.2364
6356.778566 83.203 3.8048
6402.842404 82.960 3.5768
6449.240040 82.728 3.5546
6495.973891 82.508 3.7018
6543.046396 82.294 3.9721
6590.460007 82.077 4.3439
6638.217197 81.850 4.8215
6686.320456 81.613 5.4124
6734.772290 81.368 6.1181
6783.575226 81.121 6.9413
6832.731809 80.878 7.8984
6882.244600 80.646 9.0264
6932.116181 80.432 10.3798
6982.349153 80.243 12.0187
7032.946133 80.089 13.9866
7083.909760 79.979 16.2823
7135.242690 79.921 18.8397
7186.947600 79.919 21.5344
7239.027185 79.974 24.2250
7291.484160 80.081 26.8041
7344.321260 80.239 29.2176
7397.541239 80.450 31.4449
7451.146872 80.720 33.4736
7505.140954 81.056 35.2860
7559.526299 81.457 36.8522
7614.305743 81.921 38.1244
7669.482141 82.438 39.0317
7725.058371 82.993 39.4797
7781.037328 83.568 39.3627
7837.421932 84.141 38.5835
7894.215122 84.688 37.0740
7951.419859 85.187 34.8100
8009.039125 85.614 31.8230
8067.075924 85.954 28.2055
8125.533282 86.192 24.1045
8184.414245 86.321 19.7033
8243.721885 86.339 15.1964
8303.459292 86.253 10.7686
8363.629581 86.074 6.5802
8424.235888 85.817 2.7611
8485.281374 85.502 -0.5912
8546.769221 85.150 -3.4095
8608.702634 84.782 -5.6553
8671.084842 84.415 -7.3201
8733.919097 84.066 -8.4325
8797.208675 83.746 -9.0665
8860.956876 83.462 -9.3381
8925.167022 83.215 -9.3891
8989.842461 83.006 -9.3645
9054.986566 82.831 -9.3922
9120.602731 82.688 -9.5638
9186.694378 82.572 -9.9205
9253.264952 82.482 -10.4526
9320.317925 82.415 -11.1157
9387.856790 82.367 -11.8538
9455.885071 82.337 -12.6227
9524.406312 82.321 -13.4087
9593.424086 82.315 -14.2399
9662.941992 82.315 -15.1817
9732.963653 82.313 -16.3203
9803.492719 82.303 -17.7432
9874.532869 82.276 -19.5222
9946.087805 82.226 -21.6961
10018.161257 82.144 -24.2592
10090.756983 82.027 -27.1648
10163.878768 81.867 -30.3400
10237.530423 81.662 -33.7018
10311.715789 81.406 -37.1665
10386.438732 81.097 -40.6518
10461.703149 80.735 -44.0764
10537.512962 80.320 -47.3572
10613.872125 79.854 -50.4077
10690.784618 79.340 -53.1397
10768.254450 78.783 -55.4728
10846.285661 78.189 -57.3527
10924.882318 77.564 -58.7671
11004.048518 76.914 -59.7473
11083.788390 76.243 -60.3583
11164.106090 75.556 -60.6835
11245.005805 74.860 -60.8054
11326.491752 74.157 -60.7810
11408.568180 73.452 -60.6246
11491.239368 72.748 -60.3068
11574.509626 72.049 -59.7660
11658.383294 71.358 -58.9242
11742.864745 70.678 -57.7069
11827.958384 70.013 -56.0696
11913.668646 69.364 -54.0188
12000.000000 68.732 -51.6147
12086.956947 68.117 -48.9559
12174.544019 67.518 -46.1555
12262.765784 66.935 -43.3141
12351.626840 66.367 -40.4928
12441.131819 65.816 -37.7010
12531.285389 65.282 -34.9049
12622.092249 64.768 -32.0479
12713.557132 64.276 -29.0672
12805.684808 63.806 -25.8990
12898.480079 63.361 -22.4742
12991.947783 62.945 -18.7097
13086.092792 62.565 -14.5005
13180.920015 62.232 -9.7186
13276.434395 61.962 -4.2231
13372.640911 61.778 2.1089
13469.544580 61.707 9.3249
13567.150452 61.782 17.3323
13665.463617 62.033 25.8623
13764.489200 62.485 34.4866
13864.232362 63.148 42.6967
13964.698305 64.009 50.0220
14065.892266 65.039 56.1294
14167.819519 66.197 60.8483
14270.485380 67.434 64.1365
14373.895200 68.703 66.0311
14478.054370 69.959 66.6061
14582.968320 71.165 65.9420
14688.642520 72.284 64.1129
14795.082478 73.288 61.1979
14902.293745 74.151 57.2999
15010.281908 74.855 52.5612
15119.052599 75.394 47.1683
15228.611486 75.771 41.3536
15338.964283 76.004 35.3824
15450.116741 76.120 29.5222
15562.074656 76.157 24.0001
15674.843864 76.151 18.9680
15788.430244 76.135 14.4798
15902.839718 76.136 10.4758
16018.078250 76.168 6.7826
16134.151848 76.231 3.1461
16251.066563 76.315 -0.7112
16368.828491 76.398 -5.0340
16487.443769 76.451 -9.9945
16606.918584 76.441 -15.6587
16727.259161 76.339 -21.9602
16848.471777 76.118 -28.7024
16970.562748 75.758 -35.5912
17093.538442 75.250 -42.2866
17217.405268 74.599 -48.4593
17342.169684 73.817 -53.8489
17467.838194 72.925 -58.3028
17594.417350 71.949 -61.7875
17721.913751 70.914 -64.3729
17850.334044 69.849 -66.2051
17979.684923 68.777 -67.4708
18109.973131 67.720 -68.3520
18241.205462 66.695 -68.9834
18373.388756 65.717 -69.4341
18506.529905 64.793 -69.7139
18640.635849 63.927 -69.7937
18775.713581 63.119 -69.6376
18911.770141 62.366 -69.2460
19048.812624 61.657 -68.6875
19186.848172 60.983 -68.0943
19325.883983 60.331 -67.6263
19465.927305 59.700 -67.4239
19606.985439 59.099 -67.5590
19749.065738 58.560 -67.9861
19892.175609 58.140 -68.5215
20036.322514 57.907 -68.8953
