* Measurement data measured by REW V5.31.3
* Source: Headset (CX31993 HIFI AUDIO), MICROPHONE (Master Volume), R, volume: 0.400
* Format: 256k Log Swept Sine, 1 sweep at -11.9 dBFS with no timing reference
* Dated: 07 7, 25 1:24:58 PM
* REW Settings:
*  C-weighting compensation: Off
*  Target level: 75.0 dB
* Note: ; 
* Measurement: Sony Linkbuds Fit EQ R
* Smoothing: 1/12 octave
* Frequency Step: 96 ppo
* Start Frequency: 0.36621094 Hz
*
* Freq(Hz) SPL(dB) Phase(degrees)
0.366211 49.147 -16.3749
0.368865 49.142 -16.4003
0.371538 49.133 -16.4381
0.374230 49.122 -16.4855
0.376942 49.110 -16.5399
0.379673 49.096 -16.5993
0.382424 49.083 -16.6626
0.385196 49.069 -16.7290
0.387987 49.054 -16.7980
0.390798 49.040 -16.8695
0.393630 49.025 -16.9433
0.396483 49.010 -17.0193
0.399356 48.995 -17.0977
0.402250 48.980 -17.1783
0.405165 48.965 -17.2612
0.408101 48.950 -17.3464
0.411058 48.934 -17.4340
0.414037 48.919 -17.5240
0.417037 48.903 -17.6164
0.420059 48.888 -17.7113
0.423103 48.872 -17.8086
0.426169 48.856 -17.9085
0.429257 48.840 -18.0108
0.432368 48.823 -18.1158
0.435501 48.807 -18.2234
0.438656 48.791 -18.3336
0.441835 48.774 -18.4465
0.445037 48.758 -18.5621
0.448262 48.741 -18.6804
0.451510 48.724 -18.8015
0.454782 48.707 -18.9255
0.458077 48.690 -19.0522
0.461397 48.672 -19.1819
0.464740 48.655 -19.3144
0.468108 48.638 -19.4500
0.471500 48.620 -19.5885
0.474917 48.602 -19.7300
0.478358 48.584 -19.8746
0.481825 48.566 -20.0222
0.485316 48.548 -20.1730
0.488833 48.530 -20.3270
0.492375 48.511 -20.4842
0.495943 48.493 -20.6446
0.499537 48.474 -20.8082
0.503157 48.455 -20.9752
0.506803 48.436 -21.1455
0.510475 48.417 -21.3193
0.514175 48.398 -21.4964
0.517900 48.379 -21.6770
0.521653 48.359 -21.8611
0.525434 48.339 -22.0487
0.529241 48.320 -22.2399
0.533076 48.300 -22.4347
0.536939 48.279 -22.6331
0.540830 48.259 -22.8352
0.544749 48.239 -23.0411
0.548696 48.218 -23.2507
0.552673 48.198 -23.4641
0.556677 48.177 -23.6813
0.560711 48.156 -23.9024
0.564774 48.135 -24.1274
0.568867 48.113 -24.3564
0.572989 48.092 -24.5893
0.577141 48.070 -24.8263
0.581324 48.049 -25.0673
0.585536 48.027 -25.3125
0.589779 48.005 -25.5617
0.594053 47.982 -25.8152
0.598358 47.960 -26.0728
0.602694 47.937 -26.3347
0.607061 47.915 -26.6009
0.611460 47.892 -26.8714
0.615891 47.869 -27.1462
0.620354 47.846 -27.4255
0.624849 47.822 -27.7092
0.629377 47.799 -27.9974
0.633938 47.775 -28.2900
0.638532 47.751 -28.5873
0.643159 47.727 -28.8891
0.647819 47.703 -29.1955
0.652514 47.678 -29.5066
0.657242 47.654 -29.8224
0.662005 47.629 -30.1429
0.666802 47.604 -30.4682
0.671634 47.579 -30.7983
0.676501 47.553 -31.1332
0.681403 47.528 -31.4731
0.686341 47.502 -31.8179
0.691314 47.476 -32.1676
0.696324 47.450 -32.5224
0.701370 47.424 -32.8824
0.706452 47.397 -33.2475
0.711571 47.371 -33.6181
0.716728 47.343 -33.9943
0.721921 47.315 -34.3766
0.727153 47.287 -34.7654
0.732422 47.258 -35.1615
0.737729 47.227 -35.5658
0.743075 47.195 -35.9793
0.748460 47.163 -36.4026
0.753883 47.128 -36.8365
0.759346 47.093 -37.2815
0.764849 47.056 -37.7381
0.770391 47.018 -38.2065
0.775974 46.979 -38.6872
0.781597 46.938 -39.1802
0.787261 46.897 -39.6861
0.792966 46.854 -40.2048
0.798712 46.810 -40.7368
0.804500 46.765 -41.2823
0.810329 46.720 -41.8416
0.816201 46.673 -42.4148
0.822116 46.626 -43.0023
0.828073 46.578 -43.6043
0.834074 46.529 -44.2210
0.840118 46.479 -44.8528
0.846206 46.429 -45.4998
0.852338 46.378 -46.1623
0.858514 46.327 -46.8406
0.864735 46.275 -47.5349
0.871001 46.223 -48.2454
0.877313 46.171 -48.9724
0.883670 46.119 -49.7161
0.890074 46.066 -50.4767
0.896524 46.014 -51.2544
0.903020 45.961 -52.0495
0.909564 45.909 -52.8621
0.916155 45.857 -53.6924
0.922794 45.806 -54.5406
0.929481 45.755 -55.4068
0.936216 45.705 -56.2912
0.943000 45.656 -57.1939
0.949834 45.607 -58.1150
0.956717 45.560 -59.0546
0.963649 45.513 -60.0128
0.970632 45.468 -60.9895
0.977666 45.425 -61.9850
0.984750 45.383 -62.9990
0.991886 45.343 -64.0318
0.999074 45.305 -65.0830
1.006314 45.269 -66.1529
1.013606 45.235 -67.2411
1.020951 45.204 -68.3477
1.028349 45.175 -69.4724
1.035801 45.150 -70.6151
1.043307 45.127 -71.7757
1.050867 45.108 -72.9539
1.058482 45.092 -74.1497
1.066152 45.080 -75.3627
1.073878 45.072 -76.5932
1.081660 45.067 -77.8410
1.089498 45.067 -79.1064
1.097393 45.071 -80.3898
1.105345 45.079 -81.6917
1.113355 45.091 -83.0127
1.121423 45.108 -84.3528
1.129549 45.128 -85.7121
1.137734 45.152 -87.0901
1.145979 45.180 -88.4861
1.154283 45.211 -89.8994
1.162647 45.247 -91.3289
1.171072 45.286 -92.7733
1.179558 45.328 -94.2316
1.188106 45.375 -95.7023
1.196715 45.424 -97.1840
1.205387 45.478 -98.6752
1.214122 45.535 -100.1742
1.222920 45.595 -101.6795
1.231782 45.659 -103.1893
1.240708 45.726 -104.7021
1.249699 45.796 -106.2161
1.258754 45.870 -107.7295
1.267876 45.946 -109.2408
1.277063 46.026 -110.7482
1.286318 46.109 -112.2500
1.295639 46.194 -113.7447
1.305027 46.282 -115.2308
1.314484 46.373 -116.7067
1.324009 46.467 -118.1712
1.333604 46.562 -119.6228
1.343268 46.661 -121.0605
1.353002 46.761 -122.4830
1.362806 46.863 -123.8893
1.372681 46.968 -125.2786
1.382628 47.074 -126.6499
1.392647 47.182 -128.0026
1.402739 47.291 -129.3360
1.412904 47.402 -130.6498
1.423142 47.514 -131.9433
1.433455 47.628 -133.2164
1.443843 47.743 -134.4689
1.454305 47.860 -135.7005
1.464844 47.980 -136.9114
1.475459 48.102 -138.1015
1.486150 48.229 -139.2708
1.496920 48.359 -140.4194
1.507767 48.493 -141.5475
1.518693 48.632 -142.6550
1.529698 48.775 -143.7422
1.540783 48.922 -144.8094
1.551948 49.074 -145.8567
1.563194 49.229 -146.8845
1.574521 49.388 -147.8932
1.585931 49.551 -148.8832
1.597423 49.716 -149.8551
1.608999 49.885 -150.8092
1.620658 50.056 -151.7460
1.632402 50.230 -152.6662
1.644232 50.406 -153.5704
1.656146 50.583 -154.4589
1.668147 50.762 -155.3326
1.680235 50.942 -156.1918
1.692411 51.123 -157.0374
1.704675 51.305 -157.8698
1.717028 51.486 -158.6896
1.729470 51.667 -159.4975
1.742003 51.847 -160.2941
1.754626 52.026 -161.0799
1.767341 52.203 -161.8555
1.780147 52.379 -162.6216
1.793047 52.552 -163.3785
1.806040 52.724 -164.1268
1.819128 52.893 -164.8669
1.832310 53.060 -165.5991
1.845587 53.225 -166.3234
1.858961 53.389 -167.0400
1.872432 53.552 -167.7489
1.886001 53.714 -168.4501
1.899667 53.875 -169.1434
1.913433 54.036 -169.8290
1.927299 54.197 -170.5068
1.941265 54.356 -171.1768
1.955332 54.516 -171.8391
1.969501 54.675 -172.4936
1.983773 54.833 -173.1406
1.998148 54.991 -173.7801
2.012627 55.149 -174.4122
2.027212 55.306 -175.0371
2.041902 55.462 -175.6548
2.056698 55.618 -176.2656
2.071602 55.773 -176.8697
2.086614 55.928 -177.4671
2.101734 56.083 -178.0582
2.116964 56.237 -178.6432
2.132304 56.390 -179.2223
2.147756 56.543 -179.7957
2.163320 56.695 179.6360
2.178996 56.847 179.0728
2.194786 56.997 178.5140
2.210690 57.147 177.9594
2.226710 57.296 177.4087
2.242845 57.444 176.8615
2.259098 57.591 176.3177
2.275468 57.737 175.7775
2.291957 57.882 175.2406
2.308566 58.025 174.7073
2.325295 58.168 174.1774
2.342145 58.310 173.6512
2.359117 58.451 173.1286
2.376212 58.591 172.6096
2.393431 58.730 172.0944
2.410775 58.869 171.5828
2.428244 59.006 171.0750
2.445840 59.144 170.5707
2.463564 59.281 170.0702
2.481416 59.417 169.5732
2.499397 59.553 169.0797
2.517509 59.688 168.5894
2.535752 59.823 168.1022
2.554127 59.958 167.6177
2.572635 60.092 167.1357
2.591277 60.225 166.6557
2.610055 60.357 166.1776
2.628968 60.488 165.7011
2.648019 60.619 165.2263
2.667208 60.748 164.7531
2.686535 60.876 164.2816
2.706003 61.004 163.8120
2.725612 61.131 163.3442
2.745363 61.257 162.8785
2.765257 61.382 162.4149
2.785295 61.507 161.9534
2.805478 61.631 161.4943
2.825808 61.754 161.0375
2.846285 61.877 160.5831
2.866910 62.000 160.1310
2.887685 62.122 159.6811
2.908611 62.244 159.2333
2.929688 62.365 158.7872
2.950917 62.486 158.3427
2.972301 62.606 157.8994
2.993839 62.725 157.4570
3.015534 62.843 157.0156
3.037386 62.961 156.5752
3.059396 63.077 156.1358
3.081565 63.194 155.6976
3.103896 63.309 155.2606
3.126388 63.424 154.8250
3.149043 63.538 154.3910
3.171862 63.652 153.9587
3.194847 63.765 153.5282
3.217998 63.878 153.0995
3.241317 63.990 152.6729
3.264805 64.102 152.2481
3.288463 64.214 151.8251
3.312293 64.325 151.4037
3.336295 64.436 150.9837
3.360471 64.546 150.5649
3.384822 64.656 150.1472
3.409350 64.765 149.7304
3.434056 64.873 149.3145
3.458940 64.981 148.8995
3.484005 65.088 148.4852
3.509252 65.195 148.0718
3.534681 65.301 147.6591
3.560295 65.408 147.2473
3.586094 65.513 146.8361
3.612081 65.619 146.4256
3.638255 65.724 146.0158
3.664620 65.829 145.6066
3.691175 65.934 145.1979
3.717923 66.038 144.7896
3.744864 66.141 144.3815
3.772001 66.245 143.9738
3.799335 66.348 143.5661
3.826866 66.450 143.1584
3.854597 66.552 142.7507
3.882529 66.654 142.3428
3.910664 66.755 141.9346
3.939002 66.856 141.5261
3.967546 66.957 141.1172
3.996296 67.058 140.7077
4.025255 67.158 140.2977
4.054423 67.258 139.8872
4.083804 67.358 139.4760
4.113396 67.457 139.0641
4.143204 67.556 138.6515
4.173227 67.655 138.2379
4.203468 67.753 137.8234
4.233928 67.851 137.4076
4.264609 67.949 136.9905
4.295512 68.046 136.5718
4.326639 68.143 136.1516
4.357992 68.240 135.7294
4.389572 68.336 135.3053
4.421380 68.432 134.8792
4.453419 68.527 134.4510
4.485691 68.622 134.0208
4.518196 68.717 133.5885
4.550936 68.811 133.1541
4.583914 68.905 132.7178
4.617131 68.998 132.2794
4.650589 69.091 131.8389
4.684289 69.183 131.3963
4.718233 69.275 130.9514
4.752424 69.366 130.5041
4.786862 69.457 130.0542
4.821549 69.547 129.6017
4.856488 69.637 129.1465
4.891680 69.726 128.6888
4.927127 69.814 128.2288
4.962831 69.902 127.7667
4.998794 69.989 127.3026
5.035017 70.075 126.8368
5.071503 70.161 126.3691
5.108253 70.246 125.8997
5.145270 70.330 125.4283
5.182555 70.414 124.9548
5.220110 70.497 124.4791
5.257937 70.579 124.0015
5.296038 70.660 123.5223
5.334415 70.740 123.0417
5.373071 70.820 122.5602
5.412006 70.899 122.0782
5.451224 70.977 121.5957
5.490725 71.055 121.1129
5.530514 71.131 120.6295
5.570590 71.207 120.1455
5.610957 71.282 119.6610
5.651616 71.356 119.1761
5.692570 71.430 118.6913
5.733821 71.502 118.2069
5.775370 71.575 117.7233
5.817221 71.646 117.2409
5.859375 71.717 116.7597
5.901834 71.787 116.2796
5.944602 71.856 115.8007
5.987679 71.925 115.3228
6.031068 71.994 114.8461
6.074771 72.061 114.3708
6.118792 72.129 113.8970
6.163131 72.196 113.4251
6.207792 72.262 112.9551
6.252776 72.329 112.4870
6.298086 72.395 112.0208
6.343725 72.460 111.5564
6.389694 72.526 111.0936
6.435996 72.591 110.6323
6.482634 72.656 110.1724
6.529610 72.721 109.7138
6.576926 72.786 109.2566
6.624585 72.851 108.8006
6.672590 72.916 108.3457
6.720942 72.981 107.8918
6.769645 73.046 107.4384
6.818700 73.111 106.9853
6.868111 73.176 106.5321
6.917881 73.241 106.0787
6.968010 73.307 105.6248
7.018504 73.372 105.1701
7.069362 73.438 104.7147
7.120590 73.504 104.2582
7.172189 73.570 103.8004
7.224161 73.636 103.3410
7.276511 73.702 102.8797
7.329239 73.768 102.4163
7.382350 73.834 101.9507
7.435845 73.900 101.4828
7.489729 73.966 101.0127
7.544002 74.032 100.5402
7.598669 74.098 100.0654
7.653732 74.164 99.5883
7.709194 74.229 99.1088
7.765058 74.294 98.6270
7.821327 74.359 98.1429
7.878004 74.423 97.6570
7.935091 74.487 97.1694
7.992592 74.551 96.6805
8.050510 74.615 96.1904
8.108847 74.677 95.6994
8.167607 74.740 95.2076
8.226793 74.802 94.7155
8.286408 74.863 94.2232
8.346454 74.925 93.7314
8.406936 74.985 93.2402
8.467856 75.046 92.7499
8.529218 75.106 92.2608
8.591024 75.165 91.7729
8.653278 75.225 91.2865
8.715983 75.284 90.8018
8.779143 75.342 90.3189
8.842760 75.401 89.8380
8.906839 75.460 89.3590
8.971381 75.518 88.8818
9.036392 75.576 88.4065
9.101873 75.634 87.9327
9.167829 75.693 87.4605
9.234263 75.751 86.9897
9.301178 75.809 86.5200
9.368578 75.867 86.0514
9.436467 75.925 85.5834
9.504847 75.983 85.1160
9.573723 76.041 84.6488
9.643099 76.098 84.1819
9.712976 76.156 83.7151
9.783361 76.213 83.2484
9.854255 76.270 82.7817
9.925663 76.326 82.3152
9.997588 76.383 81.8489
10.070035 76.438 81.3831
10.143007 76.493 80.9181
10.216507 76.547 80.4543
10.290540 76.601 79.9922
10.365109 76.654 79.5321
10.440219 76.706 79.0745
10.515873 76.757 78.6200
10.592076 76.808 78.1691
10.668830 76.857 77.7224
10.746141 76.907 77.2803
10.824012 76.955 76.8430
10.902447 77.003 76.4110
10.981451 77.051 75.9844
11.061027 77.098 75.5632
11.141180 77.145 75.1475
11.221913 77.192 74.7368
11.303232 77.239 74.3309
11.385140 77.285 73.9291
11.467641 77.332 73.5310
11.550741 77.379 73.1357
11.634442 77.426 72.7424
11.718750 77.472 72.3501
11.803669 77.519 71.9580
11.889203 77.566 71.5653
11.975357 77.613 71.1712
12.062136 77.659 70.7751
12.149543 77.705 70.3762
12.237583 77.750 69.9745
12.326262 77.794 69.5699
12.415583 77.838 69.1626
12.505552 77.880 68.7528
12.596172 77.920 68.3412
12.687449 77.959 67.9287
12.779387 77.997 67.5164
12.871992 78.033 67.1052
12.965268 78.067 66.6964
13.059220 78.100 66.2912
13.153852 78.131 65.8907
13.249170 78.160 65.4960
13.345179 78.189 65.1077
13.441884 78.216 64.7263
13.539289 78.243 64.3517
13.637401 78.269 63.9839
13.736223 78.296 63.6220
13.835761 78.322 63.2649
13.936021 78.349 62.9109
14.037007 78.376 62.5582
14.138725 78.403 62.2047
14.241180 78.432 61.8479
14.344377 78.460 61.4857
14.448323 78.489 61.1157
14.553021 78.519 60.7361
14.658478 78.548 60.3452
14.764700 78.576 59.9413
14.871691 78.604 59.5237
14.979457 78.630 59.0921
15.088005 78.654 58.6469
15.197339 78.676 58.1891
15.307465 78.696 57.7203
15.418389 78.712 57.2429
15.530117 78.726 56.7594
15.642655 78.736 56.2729
15.756008 78.742 55.7867
15.870182 78.745 55.3043
15.985184 78.745 54.8291
16.101019 78.742 54.3646
16.217694 78.736 53.9143
16.335214 78.727 53.4812
16.453586 78.717 53.0681
16.572815 78.705 52.6774
16.692909 78.693 52.3111
16.813872 78.680 51.9708
16.935713 78.668 51.6574
17.058436 78.658 51.3712
17.182048 78.650 51.1119
17.306556 78.645 50.8782
17.431967 78.643 50.6680
17.558286 78.647 50.4783
17.685521 78.656 50.3050
17.813677 78.671 50.1429
17.942762 78.692 49.9859
18.072783 78.720 49.8271
18.203746 78.755 49.6589
18.335658 78.797 49.4734
18.468526 78.845 49.2631
18.602356 78.899 49.0210
18.737156 78.957 48.7411
18.872934 79.018 48.4194
19.009695 79.080 48.0533
19.147447 79.142 47.6430
19.286197 79.203 47.1906
19.425953 79.261 46.7008
19.566721 79.314 46.1802
19.708510 79.362 45.6375
19.851326 79.404 45.0823
19.995177 79.439 44.5251
20.140070 79.469 43.9762
20.286013 79.493 43.4454
20.433014 79.512 42.9408
20.581080 79.528 42.4684
20.730219 79.543 42.0316
20.880439 79.556 41.6310
21.031747 79.571 41.2639
21.184152 79.589 40.9252
21.337661 79.609 40.6078
21.492282 79.632 40.3033
21.648024 79.658 40.0031
21.804895 79.686 39.6998
21.962902 79.716 39.3879
22.122054 79.746 39.0641
22.282360 79.775 38.7285
22.443827 79.801 38.3839
22.606464 79.823 38.0352
22.770280 79.842 37.6895
22.935283 79.857 37.3540
23.101481 79.868 37.0356
23.268884 79.877 36.7396
23.437500 79.885 36.4687
23.607338 79.893 36.2227
23.778406 79.902 35.9980
23.950714 79.913 35.7881
24.124271 79.928 35.5845
24.299086 79.946 35.3776
24.475167 79.966 35.1583
24.652524 79.988 34.9194
24.831166 80.010 34.6560
25.011103 80.032 34.3666
25.192344 80.051 34.0531
25.374898 80.067 33.7199
25.558775 80.079 33.3736
25.743984 80.088 33.0213
25.930536 80.092 32.6700
26.118439 80.094 32.3253
26.307704 80.094 31.9904
26.498341 80.094 31.6664
26.690359 80.093 31.3518
26.883768 80.093 31.0435
27.078579 80.095 30.7373
27.274801 80.097 30.4287
27.472446 80.101 30.1144
27.671522 80.106 29.7920
27.872042 80.110 29.4608
28.074014 80.115 29.1216
28.277450 80.118 28.7767
28.482360 80.120 28.4290
28.688755 80.121 28.0817
28.896645 80.122 27.7384
29.106042 80.121 27.4022
29.316957 80.119 27.0762
29.529400 80.117 26.7629
29.743382 80.114 26.4643
29.958915 80.112 26.1815
30.176009 80.111 25.9148
30.394677 80.111 25.6628
30.614929 80.113 25.4232
30.836778 80.117 25.1924
31.060234 80.123 24.9663
31.285309 80.130 24.7410
31.512015 80.138 24.5135
31.740364 80.147 24.2825
31.970368 80.155 24.0480
32.202039 80.163 23.8115
32.435388 80.170 23.5750
32.670428 80.175 23.3404
32.907171 80.180 23.1083
33.145630 80.185 22.8779
33.385817 80.189 22.6479
33.627745 80.192 22.4163
33.871425 80.194 22.1819
34.116871 80.195 21.9453
34.364096 80.195 21.7087
34.613113 80.192 21.4755
34.863934 80.189 21.2488
35.116572 80.185 21.0306
35.371041 80.181 20.8201
35.627354 80.179 20.6135
35.885525 80.178 20.4050
36.145566 80.179 20.1885
36.407492 80.181 19.9591
36.671316 80.183 19.7153
36.937051 80.183 19.4598
37.204712 80.182 19.1980
37.474313 80.179 18.9374
37.745867 80.174 18.6848
38.019389 80.169 18.4445
38.294893 80.164 18.2173
38.572394 80.161 18.0011
38.851905 80.159 17.7913
39.133442 80.159 17.5835
39.417019 80.159 17.3746
39.702651 80.160 17.1642
39.990353 80.161 16.9539
40.280140 80.161 16.7467
40.572026 80.161 16.5457
40.866028 80.160 16.3519
41.162160 80.159 16.1650
41.460438 80.159 15.9822
41.760877 80.159 15.8003
42.063494 80.159 15.6169
42.368303 80.158 15.4313
42.675322 80.155 15.2448
42.984565 80.151 15.0606
43.296048 80.146 14.8816
43.609789 80.140 14.7092
43.925804 80.134 14.5424
44.244108 80.129 14.3779
44.564719 80.124 14.2114
44.887654 80.120 14.0392
45.212928 80.115 13.8600
45.540560 80.109 13.6754
45.870565 80.103 13.4891
46.202962 80.095 13.3055
46.537768 80.088 13.1276
46.875000 80.080 12.9565
47.214676 80.073 12.7913
47.556813 80.068 12.6304
47.901429 80.063 12.4724
48.248542 80.060 12.3163
48.598171 80.057 12.1623
48.950334 80.055 12.0099
49.305048 80.054 11.8585
49.662333 80.053 11.7068
50.022206 80.054 11.5533
50.384688 80.054 11.3973
50.749796 80.054 11.2386
51.117550 80.053 11.0780
51.487969 80.052 10.9159
51.861072 80.050 10.7534
52.236879 80.048 10.5914
52.615409 80.045 10.4305
52.996681 80.041 10.2704
53.380717 80.037 10.1095
53.767536 80.034 9.9447
54.157158 80.031 9.7731
54.549603 80.027 9.5933
54.944892 80.022 9.4073
55.343045 80.016 9.2198
55.744084 80.009 9.0364
56.148028 80.001 8.8606
56.554900 79.994 8.6926
56.964720 79.988 8.5299
57.377510 79.983 8.3698
57.793291 79.979 8.2118
58.212085 79.974 8.0591
58.633914 79.969 7.9163
59.058799 79.965 7.7860
59.486764 79.962 7.6667
59.917829 79.961 7.5527
60.352019 79.961 7.4370
60.789354 79.961 7.3159
61.229859 79.960 7.1909
61.673556 79.957 7.0669
62.120468 79.953 6.9482
62.570618 79.948 6.8344
63.024031 79.944 6.7198
63.480729 79.939 6.5985
63.940736 79.933 6.4683
64.404077 79.925 6.3330
64.870776 79.914 6.1996
65.340856 79.903 6.0734
65.814343 79.892 5.9558
66.291261 79.882 5.8438
66.771635 79.874 5.7329
67.255489 79.867 5.6191
67.742850 79.862 5.4996
68.233743 79.857 5.3737
68.728193 79.854 5.2419
69.226226 79.850 5.1068
69.727867 79.846 4.9703
70.233144 79.841 4.8347
70.742083 79.836 4.7021
71.254709 79.831 4.5749
71.771050 79.825 4.4552
72.291132 79.819 4.3423
72.814984 79.813 4.2325
73.342631 79.807 4.1222
73.874102 79.800 4.0104
74.409424 79.792 3.9003
74.948626 79.783 3.7952
75.491734 79.774 3.6954
76.038779 79.766 3.5980
76.589787 79.757 3.4993
77.144788 79.749 3.3976
77.703811 79.740 3.2940
78.266885 79.731 3.1906
78.834039 79.722 3.0888
79.405303 79.713 2.9891
79.980706 79.704 2.8904
80.560280 79.697 2.7898
81.144053 79.690 2.6838
81.732056 79.683 2.5701
82.324320 79.676 2.4485
82.920876 79.669 2.3221
83.521755 79.661 2.1953
84.126988 79.652 2.0714
84.736607 79.643 1.9530
85.350643 79.634 1.8408
85.969129 79.625 1.7339
86.592097 79.616 1.6304
87.219579 79.606 1.5297
87.851608 79.595 1.4341
88.488217 79.583 1.3466
89.129439 79.570 1.2682
89.775308 79.558 1.1964
90.425856 79.546 1.1279
91.081119 79.535 1.0596
91.741131 79.525 0.9885
92.405925 79.517 0.9122
93.075536 79.509 0.8289
93.750000 79.502 0.7377
94.429351 79.497 0.6389
95.113625 79.492 0.5322
95.802858 79.487 0.4177
96.497085 79.481 0.2981
97.196342 79.473 0.1796
97.900667 79.464 0.0690
98.610096 79.455 -0.0302
99.324665 79.445 -0.1189
100.044413 79.435 -0.2010
100.769376 79.425 -0.2798
101.499592 79.415 -0.3576
102.235100 79.404 -0.4358
102.975938 79.393 -0.5140
103.722144 79.382 -0.5906
104.473757 79.370 -0.6638
105.230817 79.358 -0.7334
105.993363 79.347 -0.8004
106.761435 79.335 -0.8661
107.535072 79.325 -0.9320
108.314315 79.315 -0.9999
109.099206 79.306 -1.0707
109.889783 79.297 -1.1434
110.686090 79.287 -1.2156
111.488167 79.277 -1.2855
112.296056 79.267 -1.3539
113.109800 79.256 -1.4226
113.929440 79.243 -1.4930
114.755020 79.229 -1.5654
115.586582 79.212 -1.6400
116.424170 79.194 -1.7167
117.267827 79.173 -1.7934
118.117598 79.152 -1.8660
118.973527 79.131 -1.9303
119.835658 79.113 -1.9882
120.704037 79.097 -2.0469
121.578708 79.085 -2.1119
122.459718 79.073 -2.1810
123.347111 79.061 -2.2480
124.240935 79.047 -2.3073
125.141236 79.032 -2.3557
126.048061 79.014 -2.3933
126.961458 78.995 -2.4220
127.881473 78.974 -2.4451
128.808154 78.952 -2.4655
129.741551 78.929 -2.4850
130.681712 78.906 -2.5033
131.628686 78.882 -2.5197
132.582521 78.859 -2.5327
133.543269 78.834 -2.5386
134.510979 78.810 -2.5309
135.485701 78.785 -2.5015
136.467486 78.762 -2.4439
137.456386 78.741 -2.3565
138.452451 78.724 -2.2445
139.455735 78.713 -2.1173
140.466288 78.707 -1.9833
141.484165 78.707 -1.8495
142.509418 78.711 -1.7227
143.542100 78.718 -1.6089
144.582265 78.727 -1.5117
145.629968 78.737 -1.4316
146.685262 78.747 -1.3678
147.748204 78.755 -1.3186
148.818849 78.763 -1.2850
149.897251 78.770 -1.2713
150.983469 78.776 -1.2804
152.077557 78.781 -1.3098
153.179574 78.785 -1.3547
154.289576 78.789 -1.4108
155.407622 78.791 -1.4740
156.533770 78.793 -1.5381
157.668078 78.792 -1.5969
158.810606 78.788 -1.6461
159.961413 78.782 -1.6848
161.120559 78.775 -1.7151
162.288105 78.766 -1.7410
163.464112 78.758 -1.7664
164.648640 78.750 -1.7937
165.841752 78.744 -1.8237
167.043510 78.739 -1.8569
168.253976 78.736 -1.8951
169.473213 78.733 -1.9399
170.701286 78.730 -1.9918
171.938258 78.725 -2.0483
173.184194 78.720 -2.1045
174.439158 78.712 -2.1542
175.703216 78.704 -2.1935
176.976434 78.696 -2.2219
178.258878 78.687 -2.2407
179.550615 78.678 -2.2527
180.851713 78.669 -2.2617
182.162239 78.660 -2.2728
183.482262 78.652 -2.2906
184.811850 78.644 -2.3176
186.151073 78.636 -2.3527
187.500000 78.627 -2.3925
188.858702 78.619 -2.4335
190.227250 78.610 -2.4730
191.605715 78.602 -2.5083
192.994169 78.594 -2.5353
194.392685 78.586 -2.5509
195.801334 78.578 -2.5543
197.220191 78.570 -2.5484
198.649330 78.562 -2.5382
200.088825 78.554 -2.5294
201.538751 78.545 -2.5261
202.999184 78.535 -2.5298
204.470200 78.525 -2.5398
205.951875 78.516 -2.5542
207.444287 78.506 -2.5705
208.947514 78.495 -2.5861
210.461634 78.485 -2.5981
211.986726 78.473 -2.6040
213.522869 78.460 -2.6029
215.070144 78.446 -2.5963
216.628631 78.433 -2.5865
218.198411 78.419 -2.5750
219.779567 78.407 -2.5609
221.372180 78.396 -2.5430
222.976334 78.385 -2.5211
224.592112 78.375 -2.4967
226.219600 78.363 -2.4722
227.858880 78.350 -2.4481
229.510039 78.336 -2.4244
231.173164 78.322 -2.4012
232.848340 78.308 -2.3791
234.535655 78.295 -2.3583
236.235197 78.285 -2.3381
237.947054 78.276 -2.3168
239.671317 78.269 -2.2903
241.408074 78.262 -2.2527
243.157416 78.256 -2.1976
244.919435 78.248 -2.1215
246.694223 78.238 -2.0270
248.481871 78.228 -1.9254
250.282473 78.216 -1.8326
252.096123 78.203 -1.7631
253.922915 78.190 -1.7211
255.762945 78.177 -1.6993
257.616309 78.164 -1.6854
259.483103 78.153 -1.6664
261.363424 78.143 -1.6323
263.257372 78.135 -1.5780
265.165043 78.127 -1.5048
267.086538 78.120 -1.4198
269.021957 78.112 -1.3330
270.971401 78.105 -1.2518
272.934972 78.097 -1.1781
274.912771 78.090 -1.1088
276.904902 78.083 -1.0408
278.911469 78.077 -0.9729
280.932577 78.071 -0.9046
282.968330 78.065 -0.8354
285.018835 78.060 -0.7644
287.084199 78.055 -0.6909
289.164530 78.050 -0.6131
291.259935 78.045 -0.5275
293.370525 78.040 -0.4312
295.496408 78.034 -0.3259
297.637697 78.029 -0.2180
299.794503 78.023 -0.1143
301.966937 78.017 -0.0189
304.155114 78.010 0.0668
306.359147 78.001 0.1459
308.579152 77.993 0.2248
310.815244 77.986 0.3105
313.067539 77.981 0.4062
315.336156 77.979 0.5105
317.621211 77.978 0.6184
319.922826 77.978 0.7256
322.241118 77.976 0.8287
324.576210 77.975 0.9252
326.928223 77.974 1.0131
329.297280 77.972 1.0939
331.683504 77.970 1.1741
334.087019 77.967 1.2613
336.507952 77.964 1.3563
338.946427 77.960 1.4523
341.402572 77.955 1.5423
343.876516 77.950 1.6251
346.368387 77.944 1.7030
348.878315 77.938 1.7792
351.406431 77.933 1.8555
353.952867 77.930 1.9324
356.517756 77.929 2.0092
359.101230 77.929 2.0869
361.703426 77.930 2.1705
364.324478 77.931 2.2660
366.964523 77.933 2.3770
369.623699 77.933 2.5021
372.302145 77.931 2.6403
375.000000 77.927 2.7937
377.717405 77.922 2.9684
380.454501 77.917 3.1693
383.211431 77.912 3.3989
385.988339 77.910 3.6584
388.785369 77.910 3.9478
391.602668 77.916 4.2635
394.440383 77.929 4.5974
397.298660 77.951 4.9365
400.177650 77.982 5.2629
403.077502 78.023 5.5549
405.998368 78.071 5.7902
408.940400 78.124 5.9529
411.903750 78.179 6.0377
414.888575 78.232 6.0499
417.895028 78.279 6.0029
420.923268 78.318 5.9149
423.973452 78.350 5.8042
427.045738 78.373 5.6853
430.140287 78.390 5.5697
433.257261 78.402 5.4662
436.396822 78.410 5.3795
439.559133 78.415 5.3104
442.744360 78.420 5.2574
445.952668 78.424 5.2188
449.184225 78.428 5.1921
452.439199 78.432 5.1744
455.717760 78.436 5.1625
459.020079 78.440 5.1555
462.346327 78.444 5.1556
465.696680 78.449 5.1670
469.071310 78.453 5.1933
472.470394 78.458 5.2333
475.894109 78.463 5.2813
479.342634 78.467 5.3301
482.816148 78.472 5.3739
486.314833 78.477 5.4108
489.838871 78.482 5.4410
493.388445 78.489 5.4671
496.963741 78.497 5.4929
500.564945 78.506 5.5229
504.192245 78.516 5.5594
507.845830 78.526 5.6022
511.525890 78.536 5.6489
515.232618 78.545 5.6965
518.966206 78.554 5.7422
522.726849 78.561 5.7853
526.514743 78.568 5.8269
530.330086 78.575 5.8682
534.173076 78.581 5.9096
538.043915 78.589 5.9513
541.942803 78.598 5.9936
545.869944 78.607 6.0365
549.825542 78.616 6.0789
553.809805 78.625 6.1198
557.822939 78.633 6.1586
561.865154 78.639 6.1959
565.936660 78.644 6.2328
570.037671 78.649 6.2703
574.168399 78.653 6.3088
578.329060 78.658 6.3488
582.519870 78.664 6.3907
586.741049 78.671 6.4359
590.992817 78.680 6.4854
595.275394 78.688 6.5389
599.589005 78.697 6.5947
603.933874 78.704 6.6495
608.310228 78.712 6.7013
612.718295 78.719 6.7473
617.158304 78.726 6.7844
621.630488 78.732 6.8096
626.135079 78.738 6.8226
630.672311 78.745 6.8275
635.242423 78.751 6.8311
639.845651 78.757 6.8400
644.482237 78.764 6.8584
649.152421 78.771 6.8888
653.856447 78.777 6.9323
658.594560 78.784 6.9899
663.367008 78.791 7.0607
668.174039 78.798 7.1423
673.015903 78.806 7.2310
677.892854 78.813 7.3220
682.805145 78.820 7.4106
687.753032 78.827 7.4937
692.736774 78.834 7.5723
697.756631 78.839 7.6499
702.812863 78.844 7.7278
707.905735 78.849 7.8063
713.035511 78.854 7.8859
718.202461 78.861 7.9690
723.406852 78.869 8.0580
728.648956 78.879 8.1543
733.929047 78.890 8.2571
739.247399 78.902 8.3646
744.604290 78.913 8.4741
750.000000 78.923 8.5825
755.434809 78.933 8.6875
760.909001 78.942 8.7883
766.422861 78.951 8.8849
771.976677 78.960 8.9769
777.570739 78.969 9.0640
783.205337 78.978 9.1456
788.880766 78.986 9.2224
794.597321 78.994 9.2977
800.355301 79.002 9.3781
806.155005 79.011 9.4720
811.996736 79.021 9.5856
817.880799 79.032 9.7200
823.807501 79.045 9.8718
829.777150 79.060 10.0345
835.790057 79.077 10.2014
841.846536 79.095 10.3679
847.946903 79.114 10.5303
854.091476 79.133 10.6858
860.280575 79.150 10.8331
866.514523 79.167 10.9742
872.793644 79.184 11.1135
879.118267 79.201 11.2553
885.488720 79.221 11.4021
891.905336 79.242 11.5543
898.368450 79.266 11.7115
904.878398 79.292 11.8744
911.435520 79.319 12.0441
918.040157 79.348 12.2192
924.692655 79.377 12.3949
931.393359 79.407 12.5638
938.142619 79.436 12.7189
944.940787 79.467 12.8572
951.788218 79.498 12.9807
958.685268 79.531 13.0957
965.632296 79.566 13.2101
972.629666 79.603 13.3309
979.677741 79.642 13.4613
986.776890 79.683 13.6000
993.927482 79.724 13.7415
1001.129891 79.765 13.8779
1008.384491 79.806 14.0024
1015.691660 79.846 14.1110
1023.051781 79.886 14.2023
1030.465236 79.927 14.2769
1037.932411 79.968 14.3353
1045.453698 80.011 14.3809
1053.029486 80.055 14.4199
1060.660172 80.101 14.4589
1068.346153 80.149 14.5011
1076.087829 80.199 14.5447
1083.885605 80.250 14.5853
1091.739887 80.300 14.6157
1099.651084 80.349 14.6270
1107.619609 80.396 14.6108
1115.645878 80.443 14.5643
1123.730308 80.488 14.4911
1131.873321 80.533 14.4005
1140.075341 80.577 14.3020
1148.336797 80.622 14.2030
1156.658119 80.666 14.1058
1165.039741 80.711 14.0087
1173.482099 80.755 13.9075
1181.985634 80.797 13.7984
1190.550789 80.837 13.6785
1199.178011 80.874 13.5430
1207.867749 80.907 13.3868
1216.620457 80.936 13.2072
1225.436590 80.962 13.0040
1234.316609 80.986 12.7806
1243.260976 81.008 12.5414
1252.270157 81.029 12.2924
1261.344623 81.047 12.0389
1270.484846 81.062 11.7863
1279.691303 81.076 11.5402
1288.964474 81.087 11.3070
1298.304842 81.097 11.0942
1307.712894 81.106 10.9080
1317.189120 81.114 10.7513
1326.734016 81.120 10.6215
1336.348077 81.125 10.5106
1346.031806 81.127 10.4087
1355.785708 81.126 10.3065
1365.610290 81.121 10.1993
1375.506065 81.110 10.0880
1385.473549 81.096 9.9792
1395.513261 81.078 9.8831
1405.625726 81.057 9.8100
1415.811469 81.034 9.7705
1426.071023 81.011 9.7729
1436.404921 80.989 9.8225
1446.813703 80.966 9.9197
1457.297912 80.943 10.0620
1467.858093 80.920 10.2443
1478.494798 80.897 10.4602
1489.208581 80.874 10.7034
1500.000000 80.853 10.9708
1510.869618 80.835 11.2643
1521.818002 80.822 11.5896
1532.845723 80.815 11.9524
1543.953355 80.816 12.3549
1555.141477 80.826 12.7938
1566.410674 80.844 13.2614
1577.761531 80.871 13.7467
1589.194642 80.904 14.2371
1600.710601 80.943 14.7175
1612.310010 80.987 15.1736
1623.993473 81.034 15.5941
1635.761599 81.084 15.9726
1647.615002 81.137 16.3092
1659.554299 81.191 16.6119
1671.580114 81.248 16.8962
1683.693072 81.306 17.1802
1695.893807 81.365 17.4775
1708.182952 81.426 17.7942
1720.561150 81.489 18.1292
1733.029045 81.554 18.4758
1745.587288 81.621 18.8242
1758.236533 81.691 19.1632
1770.977440 81.763 19.4838
1783.810673 81.840 19.7800
1796.736900 81.920 20.0473
1809.756796 82.007 20.2816
1822.871040 82.099 20.4807
1836.080315 82.197 20.6438
1849.385310 82.300 20.7715
1862.786718 82.408 20.8680
1876.285239 82.520 20.9415
1889.881575 82.635 21.0026
1903.576436 82.752 21.0610
1917.370535 82.873 21.1226
1931.264593 82.997 21.1880
1945.259332 83.124 21.2522
1959.355483 83.255 21.3042
1973.553781 83.388 21.3277
1987.854965 83.524 21.3022
2002.259781 83.662 21.2076
2016.768981 83.801 21.0298
2031.383320 83.938 20.7646
2046.103561 84.074 20.4185
2060.930471 84.209 20.0054
2075.864823 84.341 19.5437
2090.907395 84.470 19.0509
2106.058972 84.595 18.5394
2121.320344 84.713 18.0145
2136.692305 84.824 17.4730
2152.175658 84.928 16.9051
2167.771210 85.025 16.3009
2183.479774 85.114 15.6532
2199.302169 85.196 14.9573
2215.239219 85.270 14.2129
2231.291755 85.338 13.4276
2247.460615 85.400 12.6152
2263.746641 85.457 11.7899
2280.150683 85.510 10.9604
2296.673595 85.558 10.1337
2313.316238 85.603 9.3197
2330.079481 85.644 8.5311
2346.964198 85.681 7.7804
2363.971268 85.714 7.0767
2381.101578 85.743 6.4258
2398.356022 85.770 5.8273
2415.735498 85.795 5.2742
2433.240913 85.819 4.7534
2450.873180 85.840 4.2488
2468.633217 85.860 3.7446
2486.521951 85.877 3.2291
2504.540314 85.892 2.6965
2522.689246 85.905 2.1492
2540.969692 85.918 1.5988
2559.382606 85.933 1.0611
2577.928947 85.951 0.5499
2596.609683 85.973 0.0710
2615.425787 85.998 -0.3789
2634.378241 86.025 -0.8132
2653.468031 86.053 -1.2517
2672.696154 86.080 -1.7172
2692.063613 86.105 -2.2299
2711.571415 86.125 -2.8032
2731.220579 86.139 -3.4395
2751.012130 86.147 -4.1273
2770.947098 86.148 -4.8416
2791.026522 86.144 -5.5497
2811.251451 86.136 -6.2220
2831.622938 86.125 -6.8407
2852.142045 86.112 -7.4011
2872.809842 86.097 -7.9121
2893.627406 86.080 -8.3936
2914.595823 86.060 -8.8690
2935.716186 86.036 -9.3571
2956.989596 86.009 -9.8665
2978.417161 85.977 -10.3959
3000.000000 85.942 -10.9366
3021.739237 85.904 -11.4725
3043.636005 85.866 -11.9819
3065.691446 85.827 -12.4441
3087.906710 85.790 -12.8479
3110.282955 85.755 -13.1956
3132.821347 85.720 -13.5004
3155.523062 85.686 -13.7825
3178.389283 85.650 -14.0640
3201.421202 85.612 -14.3634
3224.620020 85.572 -14.6915
3247.986946 85.530 -15.0486
3271.523198 85.487 -15.4233
3295.230004 85.444 -15.7950
3319.108599 85.402 -16.1399
3343.160228 85.361 -16.4377
3367.386145 85.322 -16.6785
3391.787613 85.284 -16.8666
3416.365904 85.248 -17.0201
3441.122300 85.212 -17.1669
3466.058091 85.176 -17.3367
3491.174576 85.138 -17.5531
3516.473066 85.098 -17.8286
3541.954880 85.055 -18.1650
3567.621345 85.012 -18.5549
3593.473800 84.966 -18.9845
3619.513592 84.920 -19.4379
3645.742080 84.872 -19.9000
3672.160630 84.823 -20.3569
3698.770620 84.772 -20.7952
3725.573436 84.719 -21.2007
3752.570477 84.665 -21.5571
3779.763150 84.610 -21.8462
3807.152872 84.556 -22.0540
3834.741071 84.502 -22.1765
3862.529185 84.448 -22.2240
3890.518664 84.394 -22.2207
3918.710966 84.339 -22.1998
3947.107561 84.282 -22.1946
3975.709929 84.223 -22.2278
4004.519563 84.162 -22.3058
4033.537962 84.098 -22.4184
4062.766641 84.034 -22.5411
4092.207123 83.970 -22.6417
4121.860942 83.906 -22.6888
4151.729646 83.844 -22.6612
4181.814790 83.784 -22.5537
4212.117944 83.727 -22.3784
4242.640687 83.671 -22.1606
4273.384610 83.617 -21.9323
4304.351317 83.562 -21.7250
4335.542421 83.505 -21.5631
4366.959549 83.448 -21.4586
4398.604338 83.390 -21.4099
4430.478438 83.333 -21.4041
4462.583511 83.278 -21.4229
4494.921231 83.226 -21.4476
4527.493283 83.178 -21.4611
4560.301365 83.133 -21.4468
4593.347189 83.091 -21.3868
4626.632476 83.053 -21.2612
4660.158962 83.018 -21.0493
4693.928395 82.989 -20.7350
4727.942535 82.965 -20.3140
4762.203156 82.949 -19.7970
4796.712043 82.940 -19.2101
4831.470996 82.939 -18.5911
4866.481826 82.945 -17.9831
4901.746360 82.958 -17.4249
4937.266434 82.979 -16.9425
4973.043902 83.008 -16.5427
5009.080628 83.045 -16.2124
5045.378492 83.092 -15.9226
5081.939384 83.150 -15.6401
5118.765212 83.218 -15.3403
5155.857894 83.298 -15.0178
5193.219366 83.389 -14.6918
5230.851574 83.490 -14.4029
5268.756481 83.597 -14.2031
5306.936062 83.708 -14.1446
5345.392309 83.819 -14.2692
5384.127225 83.927 -14.5991
5423.142830 84.029 -15.1307
5462.441159 84.123 -15.8359
5502.024259 84.208 -16.6680
5541.894195 84.282 -17.5748
5582.053045 84.343 -18.5113
5622.502902 84.389 -19.4487
5663.245876 84.416 -20.3798
5704.284090 84.422 -21.3173
5745.619684 84.404 -22.2856
5787.254813 84.361 -23.3088
5829.191647 84.293 -24.3993
5871.432373 84.199 -25.5500
5913.979192 84.080 -26.7313
5956.834323 83.939 -27.8931
6000.000000 83.777 -28.9745
6043.478473 83.597 -29.9150
6087.272010 83.401 -30.6666
6131.382892 83.193 -31.2040
6175.813420 82.973 -31.5303
6220.565910 82.743 -31.6742
6265.642695 82.505 -31.6806
6311.046124 82.258 -31.5983
6356.778566 82.005 -31.4675
6402.842404 81.746 -31.3098
6449.240040 81.483 -31.1226
6495.973891 81.217 -30.8848
6543.046396 80.952 -30.5654
6590.460007 80.687 -30.1322
6638.217197 80.424 -29.5529
6686.320456 80.167 -28.7925
6734.772290 79.918 -27.8091
6783.575226 79.683 -26.5565
6832.731809 79.468 -25.0007
6882.244600 79.280 -23.1369
6932.116181 79.122 -20.9943
6982.349153 78.996 -18.6273
7032.946133 78.897 -16.0883
7083.909760 78.824 -13.4072
7135.242690 78.778 -10.5985
7186.947600 78.765 -7.6793
7239.027185 78.798 -4.6764
7291.484160 78.890 -1.6238
7344.321260 79.054 1.4332
7397.541239 79.297 4.4307
7451.146872 79.621 7.2910
7505.140954 80.017 9.9473
7559.526299 80.478 12.3528
7614.305743 80.993 14.4526
7669.482141 81.557 16.1533
7725.058371 82.159 17.3265
7781.037328 82.786 17.8379
7837.421932 83.421 17.5815
7894.215122 84.044 16.5055
7951.419859 84.633 14.6243
8009.039125 85.165 12.0161
8067.075924 85.621 8.8108
8125.533282 85.981 5.1748
8184.414245 86.232 1.2952
8243.721885 86.368 -2.6409
8303.459292 86.388 -6.4669
8363.629581 86.295 -10.0507
8424.235888 86.102 -13.2990
8485.281374 85.825 -16.1553
8546.769221 85.485 -18.5934
8608.702634 85.102 -20.6039
8671.084842 84.699 -22.1804
8733.919097 84.297 -23.3147
8797.208675 83.914 -23.9995
8860.956876 83.564 -24.2375
8925.167022 83.259 -24.0521
8989.842461 83.003 -23.5004
9054.986566 82.799 -22.6805
9120.602731 82.645 -21.7225
9186.694378 82.536 -20.7686
9253.264952 82.467 -19.9512
9320.317925 82.433 -19.3743
9387.856790 82.429 -19.0981
9455.885071 82.450 -19.1354
9524.406312 82.492 -19.4601
9593.424086 82.549 -20.0249
9662.941992 82.615 -20.7781
9732.963653 82.682 -21.6827
9803.492719 82.742 -22.7327
9874.532869 82.785 -23.9551
9946.087805 82.800 -25.3975
10018.161257 82.777 -27.1086
10090.756983 82.705 -29.1227
10163.878768 82.576 -31.4452
10237.530423 82.384 -34.0406
10311.715789 82.127 -36.8314
10386.438732 81.804 -39.7114
10461.703149 81.418 -42.5681
10537.512962 80.972 -45.2979
10613.872125 80.471 -47.8125
10690.784618 79.923 -50.0388
10768.254450 79.335 -51.9146
10846.285661 78.716 -53.3840
10924.882318 78.073 -54.3934
11004.048518 77.414 -54.8920
11083.788390 76.748 -54.8448
11164.106090 76.079 -54.2526
11245.005805 75.414 -53.1613
11326.491752 74.757 -51.6578
11408.568180 74.110 -49.8540
11491.239368 73.476 -47.8648
11574.509626 72.855 -45.7829
11658.383294 72.249 -43.6550
11742.864745 71.657 -41.4727
11827.958384 71.082 -39.1810
11913.668646 70.525 -36.6981
12000.000000 69.987 -33.9375
12086.956947 69.468 -30.8347
12174.544019 68.970 -27.3737
12262.765784 68.491 -23.5963
12351.626840 68.029 -19.5889
12441.131819 67.584 -15.4576
12531.285389 67.153 -11.3002
12622.092249 66.735 -7.1776
12713.557132 66.331 -3.0952
12805.684808 65.944 0.9967
12898.480079 65.579 5.1846
12991.947783 65.246 9.5710
13086.092792 64.957 14.2611
13180.920015 64.726 19.3563
13276.434395 64.567 24.9530
13372.640911 64.487 31.1430
13469.544580 64.487 38.0173
13567.150452 64.575 45.6562
13665.463617 64.785 54.0684
13764.489200 65.168 63.0665
13864.232362 65.760 72.1976
13964.698305 66.560 80.8331
14065.892266 67.538 88.3641
14167.819519 68.645 94.3644
14270.485380 69.829 98.6404
14373.895200 71.043 101.1943
14478.054370 72.245 102.1606
14582.968320 73.398 101.7464
14688.642520 74.473 100.1894
14795.082478 75.442 97.7327
14902.293745 76.287 94.6090
15010.281908 76.993 91.0255
15119.052599 77.553 87.1574
15228.611486 77.974 83.1477
15338.964283 78.268 79.1017
15450.116741 78.461 75.0781
15562.074656 78.580 71.0881
15674.843864 78.655 67.1144
15788.430244 78.709 63.1337
15902.839718 78.762 59.1266
16018.078250 78.818 55.0760
16134.151848 78.871 50.9669
16251.066563 78.906 46.7821
16368.828491 78.898 42.4949
16487.443769 78.818 38.0732
16606.918584 78.640 33.4994
16727.259161 78.342 28.7910
16848.471777 77.910 24.0047
16970.562748 77.338 19.2329
17093.538442 76.630 14.6061
17217.405268 75.800 10.2916
17342.169684 74.865 6.4767
17467.838194 73.848 3.3453
17594.417350 72.773 1.0568
17721.913751 71.662 -0.2791
17850.334044 70.539 -0.6317
17979.684923 69.422 -0.0691
18109.973131 68.327 1.2466
18241.205462 67.265 3.0839
18373.388756 66.244 5.1794
18506.529905 65.267 7.2882
18640.635849 64.332 9.2368
18775.713581 63.434 10.9532
18911.770141 62.563 12.4616
19048.812624 61.709 13.8560
19186.848172 60.863 15.2662
19325.883983 60.017 16.8157
19465.927305 59.175 18.5724
19606.985439 58.355 20.5106
19749.065738 57.607 22.4746
19892.175609 57.014 24.1573
20036.322514 56.680 25.1544
