* Measurement data measured by REW V5.31.3
* Source: EXCL: Headset (5- CX31993 HIFI AUDIO), no input selected, 0, volume: no control
* Format: 256k Log Swept Sine, 1 sweep at -12.0 dBFS with no timing reference
* Dated: Jan 2, 2026 6:59:52 PM
* REW Settings:
*  C-weighting compensation: Off
*  Target level: 75.0 dB
* Note: ; 
* Measurement: Sony Linkbuds Fit EQ R
* Smoothing: 1/12 octave
* Frequency Step: 96 ppo
* Start Frequency: 0.36621094 Hz
*
* Freq(Hz) SPL(dB) Phase(degrees)
0.366211 37.149 -48.9524
0.368865 37.176 -49.1305
0.371538 37.215 -49.3945
0.374230 37.264 -49.7208
0.376942 37.318 -50.0895
0.379673 37.377 -50.4858
0.382424 37.438 -50.8999
0.385196 37.500 -51.3256
0.387987 37.564 -51.7596
0.390798 37.628 -52.1996
0.393630 37.693 -52.6446
0.396483 37.759 -53.0938
0.399356 37.825 -53.5468
0.402250 37.891 -54.0034
0.405165 37.958 -54.4633
0.408101 38.026 -54.9264
0.411058 38.094 -55.3926
0.414037 38.162 -55.8616
0.417037 38.231 -56.3335
0.420059 38.301 -56.8079
0.423103 38.371 -57.2848
0.426169 38.442 -57.7641
0.429257 38.513 -58.2457
0.432368 38.584 -58.7294
0.435501 38.656 -59.2151
0.438656 38.729 -59.7027
0.441835 38.802 -60.1921
0.445037 38.875 -60.6833
0.448262 38.950 -61.1760
0.451510 39.024 -61.6703
0.454782 39.100 -62.1661
0.458077 39.175 -62.6632
0.461397 39.252 -63.1616
0.464740 39.329 -63.6613
0.468108 39.406 -64.1622
0.471500 39.484 -64.6642
0.474917 39.563 -65.1673
0.478358 39.642 -65.6715
0.481825 39.722 -66.1767
0.485316 39.802 -66.6830
0.488833 39.883 -67.1902
0.492375 39.964 -67.6985
0.495943 40.046 -68.2078
0.499537 40.129 -68.7181
0.503157 40.212 -69.2295
0.506803 40.296 -69.7419
0.510475 40.381 -70.2555
0.514175 40.466 -70.7701
0.517900 40.551 -71.2860
0.521653 40.638 -71.8032
0.525434 40.725 -72.3216
0.529241 40.812 -72.8414
0.533076 40.901 -73.3627
0.536939 40.989 -73.8855
0.540830 41.079 -74.4100
0.544749 41.169 -74.9361
0.548696 41.260 -75.4641
0.552673 41.351 -75.9940
0.556677 41.444 -76.5260
0.560711 41.536 -77.0601
0.564774 41.630 -77.5965
0.568867 41.724 -78.1352
0.572989 41.819 -78.6766
0.577141 41.914 -79.2206
0.581324 42.011 -79.7674
0.585536 42.107 -80.3172
0.589779 42.205 -80.8701
0.594053 42.303 -81.4263
0.598358 42.402 -81.9859
0.602694 42.502 -82.5490
0.607061 42.603 -83.1160
0.611460 42.704 -83.6868
0.615891 42.806 -84.2617
0.620354 42.909 -84.8409
0.624849 43.012 -85.4244
0.629377 43.116 -86.0126
0.633938 43.221 -86.6055
0.638532 43.327 -87.2034
0.643159 43.433 -87.8064
0.647819 43.541 -88.4147
0.652514 43.649 -89.0284
0.657242 43.757 -89.6478
0.662005 43.867 -90.2729
0.666802 43.977 -90.9041
0.671634 44.089 -91.5414
0.676501 44.201 -92.1850
0.681403 44.313 -92.8351
0.686341 44.427 -93.4918
0.691314 44.542 -94.1552
0.696324 44.657 -94.8255
0.701370 44.773 -95.5026
0.706452 44.890 -96.1866
0.711571 45.008 -96.8772
0.716728 45.127 -97.5739
0.721921 45.246 -98.2760
0.727153 45.367 -98.9821
0.732422 45.489 -99.6904
0.737729 45.612 -100.3988
0.743075 45.736 -101.1049
0.748460 45.861 -101.8070
0.753883 45.987 -102.5034
0.759346 46.115 -103.1931
0.764849 46.244 -103.8755
0.770391 46.375 -104.5502
0.775974 46.506 -105.2169
0.781597 46.639 -105.8755
0.787261 46.773 -106.5261
0.792966 46.909 -107.1685
0.798712 47.046 -107.8030
0.804500 47.184 -108.4296
0.810329 47.323 -109.0485
0.816201 47.464 -109.6600
0.822116 47.605 -110.2642
0.828073 47.748 -110.8614
0.834074 47.892 -111.4518
0.840118 48.037 -112.0358
0.846206 48.184 -112.6138
0.852338 48.331 -113.1859
0.858514 48.479 -113.7525
0.864735 48.629 -114.3141
0.871001 48.779 -114.8710
0.877313 48.931 -115.4235
0.883670 49.083 -115.9721
0.890074 49.237 -116.5171
0.896524 49.391 -117.0589
0.903020 49.546 -117.5980
0.909564 49.702 -118.1347
0.916155 49.858 -118.6695
0.922794 50.015 -119.2028
0.929481 50.173 -119.7350
0.936216 50.332 -120.2666
0.943000 50.491 -120.7979
0.949834 50.651 -121.3294
0.956717 50.811 -121.8616
0.963649 50.972 -122.3948
0.970632 51.133 -122.9294
0.977666 51.294 -123.4660
0.984750 51.456 -124.0049
0.991886 51.618 -124.5466
0.999074 51.779 -125.0915
1.006314 51.941 -125.6401
1.013606 52.103 -126.1927
1.020951 52.265 -126.7499
1.028349 52.427 -127.3119
1.035801 52.588 -127.8793
1.043307 52.750 -128.4525
1.050867 52.910 -129.0318
1.058482 53.071 -129.6175
1.066152 53.230 -130.2099
1.073878 53.390 -130.8090
1.081660 53.548 -131.4148
1.089498 53.706 -132.0267
1.097393 53.863 -132.6440
1.105345 54.020 -133.2655
1.113355 54.176 -133.8899
1.121423 54.332 -134.5158
1.129549 54.488 -135.1423
1.137734 54.643 -135.7684
1.145979 54.798 -136.3936
1.154283 54.953 -137.0173
1.162647 55.108 -137.6391
1.171072 55.262 -138.2588
1.179558 55.416 -138.8761
1.188106 55.570 -139.4909
1.196715 55.723 -140.1031
1.205387 55.876 -140.7124
1.214122 56.029 -141.3190
1.222920 56.182 -141.9228
1.231782 56.334 -142.5238
1.240708 56.486 -143.1221
1.249699 56.638 -143.7178
1.258754 56.790 -144.3109
1.267876 56.942 -144.9016
1.277063 57.093 -145.4901
1.286318 57.244 -146.0765
1.295639 57.394 -146.6610
1.305027 57.545 -147.2440
1.314484 57.695 -147.8255
1.324009 57.846 -148.4060
1.333604 57.995 -148.9857
1.343268 58.145 -149.5648
1.353002 58.295 -150.1438
1.362806 58.444 -150.7229
1.372681 58.594 -151.3026
1.382628 58.743 -151.8832
1.392647 58.892 -152.4650
1.402739 59.041 -153.0485
1.412904 59.190 -153.6340
1.423142 59.339 -154.2221
1.433455 59.487 -154.8129
1.443843 59.636 -155.4069
1.454305 59.784 -156.0041
1.464844 59.932 -156.6047
1.475459 60.080 -157.2084
1.486150 60.227 -157.8151
1.496920 60.373 -158.4243
1.507767 60.519 -159.0356
1.518693 60.664 -159.6485
1.529698 60.808 -160.2628
1.540783 60.951 -160.8780
1.551948 61.094 -161.4938
1.563194 61.236 -162.1100
1.574521 61.377 -162.7263
1.585931 61.517 -163.3426
1.597423 61.657 -163.9587
1.608999 61.796 -164.5745
1.620658 61.934 -165.1900
1.632402 62.072 -165.8051
1.644232 62.209 -166.4199
1.656146 62.345 -167.0343
1.668147 62.480 -167.6484
1.680235 62.616 -168.2623
1.692411 62.750 -168.8762
1.704675 62.884 -169.4902
1.717028 63.017 -170.1045
1.729470 63.150 -170.7193
1.742003 63.283 -171.3350
1.754626 63.415 -171.9518
1.767341 63.546 -172.5702
1.780147 63.678 -173.1906
1.793047 63.808 -173.8137
1.806040 63.939 -174.4400
1.819128 64.069 -175.0706
1.832310 64.198 -175.7062
1.845587 64.326 -176.3477
1.858961 64.454 -176.9957
1.872432 64.580 -177.6503
1.886001 64.706 -178.3113
1.899667 64.830 -178.9780
1.913433 64.954 -179.6497
1.927299 65.076 179.6744
1.941265 65.197 178.9951
1.955332 65.317 178.3135
1.969501 65.437 177.6304
1.983773 65.555 176.9465
1.998148 65.672 176.2628
2.012627 65.788 175.5798
2.027212 65.903 174.8983
2.041902 66.017 174.2190
2.056698 66.130 173.5424
2.071602 66.243 172.8690
2.086614 66.354 172.1993
2.101734 66.465 171.5335
2.116964 66.575 170.8719
2.132304 66.684 170.2146
2.147756 66.793 169.5611
2.163320 66.900 168.9110
2.178996 67.007 168.2631
2.194786 67.113 167.6160
2.210690 67.218 166.9677
2.226710 67.321 166.3167
2.242845 67.423 165.6618
2.259098 67.524 165.0025
2.275468 67.624 164.3390
2.291957 67.722 163.6718
2.308566 67.818 163.0016
2.325295 67.914 162.3298
2.342145 68.008 161.6572
2.359117 68.101 160.9851
2.376212 68.192 160.3147
2.393431 68.282 159.6473
2.410775 68.372 158.9839
2.428244 68.460 158.3257
2.445840 68.547 157.6738
2.463564 68.633 157.0292
2.481416 68.718 156.3926
2.499397 68.802 155.7646
2.517509 68.885 155.1454
2.535752 68.967 154.5346
2.554127 69.048 153.9310
2.572635 69.128 153.3329
2.591277 69.207 152.7386
2.610055 69.284 152.1463
2.628968 69.360 151.5550
2.648019 69.434 150.9644
2.667208 69.506 150.3747
2.686535 69.577 149.7865
2.706003 69.647 149.2007
2.725612 69.715 148.6186
2.745363 69.782 148.0412
2.765257 69.848 147.4700
2.785295 69.913 146.9063
2.805478 69.978 146.3515
2.825808 70.041 145.8070
2.846285 70.104 145.2740
2.866910 70.167 144.7535
2.887685 70.229 144.2463
2.908611 70.290 143.7523
2.929688 70.351 143.2712
2.950917 70.410 142.8021
2.972301 70.469 142.3437
2.993839 70.527 141.8950
3.015534 70.583 141.4552
3.037386 70.639 141.0241
3.059396 70.693 140.6016
3.081565 70.747 140.1878
3.103896 70.800 139.7832
3.126388 70.853 139.3882
3.149043 70.906 139.0036
3.171862 70.959 138.6300
3.194847 71.012 138.2681
3.217998 71.066 137.9188
3.241317 71.120 137.5828
3.264805 71.176 137.2609
3.288463 71.232 136.9537
3.312293 71.289 136.6616
3.336295 71.346 136.3846
3.360471 71.404 136.1225
3.384822 71.462 135.8744
3.409350 71.520 135.6395
3.434056 71.579 135.4167
3.458940 71.639 135.2048
3.484005 71.700 135.0026
3.509252 71.762 134.8088
3.534681 71.826 134.6224
3.560295 71.891 134.4424
3.586094 71.958 134.2683
3.612081 72.026 134.0996
3.638255 72.097 133.9366
3.664620 72.170 133.7800
3.691175 72.246 133.6306
3.717923 72.323 133.4890
3.744864 72.403 133.3550
3.772001 72.485 133.2278
3.799335 72.569 133.1058
3.826866 72.655 132.9872
3.854597 72.742 132.8695
3.882529 72.832 132.7507
3.910664 72.923 132.6283
3.939002 73.015 132.5006
3.967546 73.110 132.3660
3.996296 73.206 132.2239
4.025255 73.304 132.0741
4.054423 73.404 131.9173
4.083804 73.507 131.7543
4.113396 73.610 131.5857
4.143204 73.716 131.4113
4.173227 73.824 131.2306
4.203468 73.933 131.0425
4.233928 74.042 130.8460
4.264609 74.153 130.6396
4.295512 74.264 130.4221
4.326639 74.376 130.1923
4.357992 74.487 129.9494
4.389572 74.599 129.6931
4.421380 74.711 129.4236
4.453419 74.823 129.1412
4.485691 74.935 128.8468
4.518196 75.047 128.5413
4.550936 75.159 128.2255
4.583914 75.270 127.9003
4.617131 75.382 127.5661
4.650589 75.492 127.2234
4.684289 75.601 126.8726
4.718233 75.710 126.5135
4.752424 75.817 126.1460
4.786862 75.922 125.7699
4.821549 76.027 125.3852
4.856488 76.130 124.9923
4.891680 76.231 124.5923
4.927127 76.332 124.1867
4.962831 76.431 123.7770
4.998794 76.528 123.3651
5.035017 76.625 122.9521
5.071503 76.719 122.5393
5.108253 76.813 122.1270
5.145270 76.905 121.7155
5.182555 76.995 121.3043
5.220110 77.084 120.8934
5.257937 77.171 120.4833
5.296038 77.257 120.0749
5.334415 77.341 119.6693
5.373071 77.425 119.2678
5.412006 77.508 118.8717
5.451224 77.590 118.4821
5.490725 77.672 118.0994
5.530514 77.753 117.7238
5.570590 77.833 117.3550
5.610957 77.913 116.9926
5.651616 77.992 116.6363
5.692570 78.071 116.2858
5.733821 78.151 115.9409
5.775370 78.230 115.6017
5.817221 78.310 115.2684
5.859375 78.391 114.9409
5.901834 78.472 114.6192
5.944602 78.554 114.3030
5.987679 78.636 113.9914
6.031068 78.720 113.6831
6.074771 78.804 113.3766
6.118792 78.889 113.0705
6.163131 78.975 112.7636
6.207792 79.062 112.4551
6.252776 79.151 112.1444
6.298086 79.241 111.8314
6.343725 79.331 111.5153
6.389694 79.423 111.1951
6.435996 79.515 110.8695
6.482634 79.608 110.5370
6.529610 79.702 110.1964
6.576926 79.796 109.8465
6.624585 79.891 109.4869
6.672590 79.985 109.1175
6.720942 80.080 108.7383
6.769645 80.175 108.3493
6.818700 80.270 107.9504
6.868111 80.364 107.5413
6.917881 80.457 107.1219
6.968010 80.549 106.6919
7.018504 80.640 106.2515
7.069362 80.730 105.8011
7.120590 80.819 105.3418
7.172189 80.906 104.8746
7.224161 80.992 104.4008
7.276511 81.076 103.9212
7.329239 81.158 103.4366
7.382350 81.238 102.9474
7.435845 81.316 102.4544
7.489729 81.392 101.9587
7.544002 81.466 101.4619
7.598669 81.539 100.9654
7.653732 81.609 100.4707
7.709194 81.678 99.9787
7.765058 81.745 99.4900
7.821327 81.810 99.0052
7.878004 81.873 98.5250
7.935091 81.935 98.0502
7.992592 81.996 97.5819
8.050510 82.056 97.1208
8.108847 82.114 96.6672
8.167607 82.172 96.2212
8.226793 82.229 95.7826
8.286408 82.286 95.3511
8.346454 82.343 94.9265
8.406936 82.399 94.5087
8.467856 82.455 94.0972
8.529218 82.511 93.6917
8.591024 82.568 93.2914
8.653278 82.625 92.8952
8.715983 82.682 92.5023
8.779143 82.739 92.1118
8.842760 82.797 91.7230
8.906839 82.854 91.3352
8.971381 82.913 90.9478
9.036392 82.971 90.5600
9.101873 83.029 90.1710
9.167829 83.088 89.7804
9.234263 83.146 89.3877
9.301178 83.205 88.9929
9.368578 83.263 88.5959
9.436467 83.320 88.1969
9.504847 83.377 87.7959
9.573723 83.434 87.3931
9.643099 83.490 86.9889
9.712976 83.545 86.5837
9.783361 83.599 86.1782
9.854255 83.653 85.7729
9.925663 83.706 85.3685
9.997588 83.759 84.9653
10.070035 83.810 84.5638
10.143007 83.862 84.1644
10.216507 83.912 83.7674
10.290540 83.963 83.3732
10.365109 84.013 82.9817
10.440219 84.063 82.5929
10.515873 84.112 82.2065
10.592076 84.162 81.8223
10.668830 84.212 81.4398
10.746141 84.262 81.0585
10.824012 84.312 80.6780
10.902447 84.363 80.2975
10.981451 84.413 79.9162
11.061027 84.464 79.5337
11.141180 84.515 79.1493
11.221913 84.566 78.7626
11.303232 84.617 78.3732
11.385140 84.667 77.9808
11.467641 84.717 77.5852
11.550741 84.767 77.1865
11.634442 84.817 76.7848
11.718750 84.866 76.3805
11.803669 84.914 75.9739
11.889203 84.962 75.5655
11.975357 85.008 75.1558
12.062136 85.054 74.7455
12.149543 85.100 74.3352
12.237583 85.144 73.9252
12.326262 85.188 73.5162
12.415583 85.231 73.1084
12.505552 85.274 72.7021
12.596172 85.316 72.2974
12.687449 85.358 71.8944
12.779387 85.400 71.4928
12.871992 85.441 71.0925
12.965268 85.482 70.6931
13.059220 85.523 70.2945
13.153852 85.563 69.8962
13.249170 85.603 69.4981
13.345179 85.643 69.1000
13.441884 85.682 68.7019
13.539289 85.721 68.3040
13.637401 85.759 67.9065
13.736223 85.796 67.5100
13.835761 85.832 67.1152
13.936021 85.868 66.7229
14.037007 85.903 66.3339
14.138725 85.938 65.9491
14.241180 85.972 65.5694
14.344377 86.005 65.1954
14.448323 86.038 64.8277
14.553021 86.071 64.4663
14.658478 86.105 64.1113
14.764700 86.139 63.7620
14.871691 86.173 63.4176
14.979457 86.209 63.0768
15.088005 86.245 62.7379
15.197339 86.283 62.3992
15.307465 86.321 62.0587
15.418389 86.361 61.7143
15.530117 86.402 61.3642
15.642655 86.443 61.0068
15.756008 86.484 60.6410
15.870182 86.525 60.2658
15.985184 86.566 59.8814
16.101019 86.606 59.4881
16.217694 86.645 59.0871
16.335214 86.682 58.6799
16.453586 86.718 58.2688
16.572815 86.752 57.8560
16.692909 86.784 57.4441
16.813872 86.815 57.0355
16.935713 86.844 56.6324
17.058436 86.872 56.2363
17.182048 86.899 55.8485
17.306556 86.925 55.4692
17.431967 86.952 55.0980
17.558286 86.980 54.7336
17.685521 87.008 54.3743
17.813677 87.036 54.0178
17.942762 87.066 53.6615
18.072783 87.096 53.3031
18.203746 87.127 52.9405
18.335658 87.158 52.5725
18.468526 87.189 52.1985
18.602356 87.219 51.8194
18.737156 87.247 51.4365
18.872934 87.274 51.0526
19.009695 87.299 50.6710
19.147447 87.323 50.2952
19.286197 87.345 49.9287
19.425953 87.366 49.5746
19.566721 87.386 49.2346
19.708510 87.407 48.9094
19.851326 87.430 48.5977
19.995177 87.454 48.2969
20.140070 87.480 48.0024
20.286013 87.509 47.7090
20.433014 87.541 47.4107
20.581080 87.575 47.1022
20.730219 87.610 46.7788
20.880439 87.646 46.4380
21.031747 87.681 46.0792
21.184152 87.714 45.7045
21.337661 87.745 45.3180
21.492282 87.772 44.9258
21.648024 87.796 44.5347
21.804895 87.816 44.1519
21.962902 87.834 43.7832
22.122054 87.850 43.4330
22.282360 87.866 43.1024
22.443827 87.883 42.7900
22.606464 87.902 42.4914
22.770280 87.923 42.2000
22.935283 87.946 41.9084
23.101481 87.972 41.6096
23.268884 87.998 41.2979
23.437500 88.025 40.9712
23.607338 88.050 40.6301
23.778406 88.073 40.2792
23.950714 88.092 39.9252
24.124271 88.109 39.5764
24.299086 88.123 39.2408
24.475167 88.135 38.9240
24.652524 88.148 38.6283
24.831166 88.163 38.3516
25.011103 88.181 38.0873
25.192344 88.204 37.8256
25.374898 88.231 37.5546
25.558775 88.261 37.2633
25.743984 88.294 36.9430
25.930536 88.327 36.5895
26.118439 88.358 36.2038
26.307704 88.386 35.7914
26.498341 88.410 35.3618
26.690359 88.428 34.9262
26.883768 88.442 34.4954
27.078579 88.453 34.0780
27.274801 88.462 33.6789
27.472446 88.471 33.2990
27.671522 88.480 32.9354
27.872042 88.491 32.5829
28.074014 88.504 32.2355
28.277450 88.517 31.8884
28.482360 88.531 31.5386
28.688755 88.545 31.1861
28.896645 88.558 30.8330
29.106042 88.570 30.4832
29.316957 88.581 30.1406
29.529400 88.590 29.8088
29.743382 88.599 29.4903
29.958915 88.608 29.1863
30.176009 88.618 28.8972
30.394677 88.627 28.6226
30.614929 88.638 28.3618
30.836778 88.650 28.1132
31.060234 88.664 27.8745
31.285309 88.680 27.6416
31.512015 88.698 27.4089
31.740364 88.718 27.1697
31.970368 88.740 26.9175
32.202039 88.762 26.6472
32.435388 88.783 26.3573
32.670428 88.801 26.0497
32.907171 88.816 25.7300
33.145630 88.827 25.4059
33.385817 88.835 25.0856
33.627745 88.839 24.7750
33.871425 88.842 24.4766
34.116871 88.845 24.1887
34.364096 88.848 23.9069
34.613113 88.853 23.6243
34.863934 88.858 23.3346
35.116572 88.864 23.0327
35.371041 88.870 22.7157
35.627354 88.875 22.3832
35.885525 88.879 22.0369
36.145566 88.880 21.6807
36.407492 88.879 21.3209
36.671316 88.875 20.9655
36.937051 88.870 20.6241
37.204712 88.863 20.3058
37.474313 88.857 20.0168
37.745867 88.853 19.7574
38.019389 88.856 19.5209
38.294893 88.865 19.2937
38.572394 88.881 19.0582
38.851905 88.904 18.7972
39.133442 88.929 18.4991
39.417019 88.955 18.1605
39.702651 88.978 17.7875
39.990353 88.995 17.3935
40.280140 89.006 16.9961
40.572026 89.011 16.6133
40.866028 89.010 16.2593
41.162160 89.007 15.9426
41.460438 89.003 15.6642
41.760877 89.000 15.4170
42.063494 89.001 15.1882
42.368303 89.003 14.9622
42.675322 89.008 14.7255
42.984565 89.012 14.4720
43.296048 89.013 14.2049
43.609789 89.011 13.9350
43.925804 89.005 13.6758
44.244108 88.999 13.4362
44.564719 88.994 13.2153
44.887654 88.993 13.0020
45.212928 88.998 12.7786
45.540560 89.006 12.5294
45.870565 89.015 12.2462
46.202962 89.024 11.9310
46.537768 89.029 11.5946
46.875000 89.032 11.2514
47.214676 89.031 10.9160
47.556813 89.027 10.6000
47.901429 89.023 10.3110
48.248542 89.018 10.0524
48.598171 89.015 9.8241
48.950334 89.012 9.6254
49.305048 89.010 9.4579
49.662333 89.010 9.3288
50.022206 89.012 9.2466
50.384688 89.021 9.2112
50.749796 89.041 9.2012
51.117550 89.076 9.1682
51.487969 89.122 9.0483
51.861072 89.173 8.7876
52.236879 89.216 8.3693
52.615409 89.239 7.8251
52.996681 89.236 7.2240
53.380717 89.208 6.6437
53.767536 89.162 6.1407
54.157158 89.108 5.7336
54.549603 89.055 5.4062
54.944892 89.008 5.1267
55.343045 88.967 4.8668
55.744084 88.933 4.6112
56.148028 88.906 4.3528
56.554900 88.886 4.0844
56.964720 88.873 3.7954
57.377510 88.865 3.4766
57.793291 88.861 3.1266
58.212085 88.857 2.7553
58.633914 88.853 2.3795
59.058799 88.848 2.0149
59.486764 88.843 1.6699
59.917829 88.840 1.3444
60.352019 88.838 1.0325
60.789354 88.838 0.7279
61.229859 88.837 0.4269
61.673556 88.835 0.1298
62.120468 88.831 -0.1605
62.570618 88.826 -0.4410
63.024031 88.818 -0.7118
63.480729 88.810 -0.9778
63.940736 88.802 -1.2484
64.404077 88.792 -1.5324
64.870776 88.779 -1.8305
65.340856 88.762 -2.1316
65.814343 88.739 -2.4174
66.291261 88.714 -2.6746
66.771635 88.689 -2.9049
67.255489 88.666 -3.1250
67.742850 88.644 -3.3538
68.233743 88.621 -3.5991
68.728193 88.592 -3.8528
69.226226 88.557 -4.0964
69.727867 88.517 -4.3118
70.233144 88.474 -4.4894
70.742083 88.430 -4.6317
71.254709 88.388 -4.7513
71.771050 88.348 -4.8644
72.291132 88.310 -4.9822
72.814984 88.272 -5.1062
73.342631 88.234 -5.2280
73.874102 88.195 -5.3331
74.409424 88.157 -5.4055
74.948626 88.124 -5.4324
75.491734 88.098 -5.4106
76.038779 88.084 -5.3534
76.589787 88.083 -5.2889
77.144788 88.095 -5.2507
77.703811 88.115 -5.2623
78.266885 88.139 -5.3300
78.834039 88.162 -5.4448
79.405303 88.183 -5.5928
79.980706 88.200 -5.7622
80.560280 88.214 -5.9491
81.144053 88.225 -6.1558
81.732056 88.232 -6.3862
82.324320 88.234 -6.6394
82.920876 88.230 -6.9031
83.521755 88.220 -7.1570
84.126988 88.208 -7.3849
84.736607 88.197 -7.5868
85.350643 88.188 -7.7776
85.969129 88.183 -7.9742
86.592097 88.178 -8.1830
87.219579 88.172 -8.4016
87.851608 88.165 -8.6263
88.488217 88.156 -8.8568
89.129439 88.145 -9.0948
89.775308 88.131 -9.3422
90.425856 88.114 -9.5981
91.081119 88.095 -9.8598
91.741131 88.075 -10.1265
92.405925 88.055 -10.4006
93.075536 88.034 -10.6837
93.750000 88.012 -10.9698
94.429351 87.989 -11.2469
95.113625 87.965 -11.5016
95.802858 87.941 -11.7236
96.497085 87.918 -11.9097
97.196342 87.895 -12.0641
97.900667 87.872 -12.1948
98.610096 87.848 -12.3098
99.324665 87.823 -12.4189
100.044413 87.797 -12.5350
100.769376 87.768 -12.6697
101.499592 87.737 -12.8257
102.235100 87.702 -12.9958
102.975938 87.667 -13.1699
103.722144 87.634 -13.3468
104.473757 87.604 -13.5350
105.230817 87.578 -13.7411
105.993363 87.555 -13.9591
106.761435 87.533 -14.1760
107.535072 87.513 -14.3858
108.314315 87.496 -14.5917
109.099206 87.480 -14.7990
109.889783 87.465 -15.0081
110.686090 87.449 -15.2146
111.488167 87.432 -15.4103
112.296056 87.414 -15.5869
113.109800 87.395 -15.7391
113.929440 87.374 -15.8642
114.755020 87.349 -15.9587
115.586582 87.320 -16.0183
116.424170 87.287 -16.0443
117.267827 87.253 -16.0537
118.117598 87.218 -16.0795
118.973527 87.183 -16.1591
119.835658 87.146 -16.3148
120.704037 87.105 -16.5361
121.578708 87.060 -16.7853
122.459718 87.014 -17.0176
123.347111 86.972 -17.2003
124.240935 86.938 -17.3224
125.141236 86.912 -17.3937
126.048061 86.891 -17.4327
126.961458 86.871 -17.4573
127.881473 86.848 -17.4810
128.808154 86.820 -17.5195
129.741551 86.787 -17.5953
130.681712 86.752 -17.7295
131.628686 86.716 -17.9301
132.582521 86.681 -18.1893
133.543269 86.648 -18.4868
134.510979 86.619 -18.7925
135.485701 86.595 -19.0740
136.467486 86.575 -19.3073
137.456386 86.559 -19.4830
138.452451 86.542 -19.6018
139.455735 86.524 -19.6681
140.466288 86.504 -19.6923
141.484165 86.480 -19.6952
142.509418 86.453 -19.7064
143.542100 86.421 -19.7455
144.582265 86.382 -19.8073
145.629968 86.337 -19.8691
146.685262 86.289 -19.9065
147.748204 86.243 -19.9055
148.818849 86.203 -19.8747
149.897251 86.170 -19.8428
150.983469 86.142 -19.8339
152.077557 86.114 -19.8481
153.179574 86.083 -19.8666
154.289576 86.050 -19.8690
155.407622 86.017 -19.8492
156.533770 85.989 -19.8225
157.668078 85.965 -19.8125
158.810606 85.946 -19.8313
159.961413 85.928 -19.8740
161.120559 85.909 -19.9272
162.288105 85.889 -19.9808
163.464112 85.864 -20.0325
164.648640 85.834 -20.0836
165.841752 85.797 -20.1326
167.043510 85.755 -20.1755
168.253976 85.711 -20.2124
169.473213 85.669 -20.2452
170.701286 85.632 -20.2747
171.938258 85.603 -20.2977
173.184194 85.583 -20.3087
174.439158 85.570 -20.3093
175.703216 85.561 -20.3118
176.976434 85.551 -20.3275
178.258878 85.534 -20.3593
179.550615 85.508 -20.3996
180.851713 85.474 -20.4356
182.162239 85.437 -20.4568
183.482262 85.403 -20.4614
184.811850 85.374 -20.4528
186.151073 85.350 -20.4316
187.500000 85.329 -20.3928
188.858702 85.307 -20.3319
190.227250 85.283 -20.2522
191.605715 85.256 -20.1658
192.994169 85.228 -20.0894
194.392685 85.200 -20.0365
195.801334 85.172 -20.0101
197.220191 85.145 -20.0036
198.649330 85.119 -20.0062
200.088825 85.094 -20.0072
201.538751 85.069 -19.9998
202.999184 85.044 -19.9836
204.470200 85.019 -19.9618
205.951875 84.994 -19.9368
207.444287 84.968 -19.9081
208.947514 84.943 -19.8724
210.461634 84.917 -19.8260
211.986726 84.891 -19.7697
213.522869 84.864 -19.7080
215.070144 84.836 -19.6471
216.628631 84.809 -19.5919
218.198411 84.782 -19.5436
219.779567 84.757 -19.4989
221.372180 84.735 -19.4542
222.976334 84.715 -19.4083
224.592112 84.697 -19.3609
226.219600 84.678 -19.3090
227.858880 84.659 -19.2485
229.510039 84.640 -19.1780
231.173164 84.622 -19.1033
232.848340 84.605 -19.0398
234.535655 84.587 -19.0012
236.235197 84.564 -18.9867
237.947054 84.539 -18.9852
239.671317 84.512 -18.9854
241.408074 84.486 -18.9774
243.157416 84.462 -18.9501
244.919435 84.440 -18.8956
246.694223 84.417 -18.8129
248.481871 84.394 -18.7048
250.282473 84.370 -18.5805
252.096123 84.346 -18.4585
253.922915 84.325 -18.3612
255.762945 84.305 -18.3060
257.616309 84.287 -18.2931
259.483103 84.271 -18.3010
261.363424 84.256 -18.2993
263.257372 84.240 -18.2719
265.165043 84.222 -18.2233
267.086538 84.201 -18.1578
269.021957 84.181 -18.0725
270.971401 84.163 -17.9662
272.934972 84.151 -17.8423
274.912771 84.143 -17.7049
276.904902 84.138 -17.5575
278.911469 84.133 -17.4070
280.932577 84.125 -17.2643
282.968330 84.114 -17.1416
285.018835 84.100 -17.0437
287.084199 84.084 -16.9657
289.164530 84.067 -16.8981
291.259935 84.049 -16.8345
293.370525 84.033 -16.7747
295.496408 84.018 -16.7212
297.637697 84.004 -16.6770
299.794503 83.993 -16.6426
301.966937 83.981 -16.6115
304.155114 83.969 -16.5693
306.359147 83.956 -16.5029
308.579152 83.941 -16.4103
310.815244 83.926 -16.2996
313.067539 83.911 -16.1797
315.336156 83.895 -16.0552
317.621211 83.878 -15.9270
319.922826 83.863 -15.7959
322.241118 83.851 -15.6641
324.576210 83.841 -15.5367
326.928223 83.834 -15.4196
329.297280 83.828 -15.3145
331.683504 83.823 -15.2178
334.087019 83.817 -15.1256
336.507952 83.810 -15.0361
338.946427 83.800 -14.9492
341.402572 83.787 -14.8678
343.876516 83.773 -14.7966
346.368387 83.758 -14.7372
348.878315 83.742 -14.6865
351.406431 83.726 -14.6395
353.952867 83.711 -14.5858
356.517756 83.695 -14.5112
359.101230 83.681 -14.4093
361.703426 83.668 -14.2877
364.324478 83.657 -14.1603
366.964523 83.650 -14.0356
369.623699 83.645 -13.9138
372.302145 83.642 -13.7938
375.000000 83.640 -13.6759
377.717405 83.636 -13.5602
380.454501 83.630 -13.4448
383.211431 83.622 -13.3257
385.988339 83.611 -13.1922
388.785369 83.599 -13.0249
391.602668 83.588 -12.8065
394.440383 83.580 -12.5345
397.298660 83.576 -12.2203
400.177650 83.577 -11.8805
403.077502 83.584 -11.5366
405.998368 83.601 -11.2130
408.940400 83.629 -10.9305
411.903750 83.668 -10.7015
414.888575 83.713 -10.5309
417.895028 83.761 -10.4213
420.923268 83.806 -10.3716
423.973452 83.845 -10.3741
427.045738 83.877 -10.4142
430.140287 83.902 -10.4779
433.257261 83.919 -10.5532
436.396822 83.930 -10.6281
439.559133 83.936 -10.6977
442.744360 83.939 -10.7653
445.952668 83.941 -10.8334
449.184225 83.942 -10.9000
452.439199 83.946 -10.9625
455.717760 83.952 -11.0190
459.020079 83.960 -11.0694
462.346327 83.969 -11.1149
465.696680 83.977 -11.1587
469.071310 83.982 -11.2009
472.470394 83.983 -11.2347
475.894109 83.982 -11.2459
479.342634 83.978 -11.2354
482.816148 83.973 -11.2171
486.314833 83.968 -11.1919
489.838871 83.964 -11.1559
493.388445 83.963 -11.1174
496.963741 83.965 -11.0940
500.564945 83.969 -11.0972
504.192245 83.972 -11.1244
507.845830 83.973 -11.1613
511.525890 83.971 -11.1926
515.232618 83.968 -11.2112
518.966206 83.967 -11.2202
522.726849 83.966 -11.2261
526.514743 83.967 -11.2323
530.330086 83.967 -11.2401
534.173076 83.968 -11.2515
538.043915 83.968 -11.2681
541.942803 83.968 -11.2872
545.869944 83.966 -11.3032
549.825542 83.964 -11.3116
553.809805 83.961 -11.3121
557.822939 83.959 -11.3094
561.865154 83.959 -11.3102
565.936660 83.959 -11.3177
570.037671 83.960 -11.3300
574.168399 83.960 -11.3434
578.329060 83.958 -11.3583
582.519870 83.956 -11.3765
586.741049 83.953 -11.3977
590.992817 83.951 -11.4180
595.275394 83.948 -11.4315
599.589005 83.946 -11.4357
603.933874 83.944 -11.4353
608.310228 83.942 -11.4395
612.718295 83.942 -11.4530
617.158304 83.945 -11.4716
621.630488 83.949 -11.4824
626.135079 83.952 -11.4705
630.672311 83.953 -11.4241
635.242423 83.949 -11.3453
639.845651 83.939 -11.2532
644.482237 83.927 -11.1693
649.152421 83.915 -11.1068
653.856447 83.905 -11.0688
658.594560 83.896 -11.0451
663.367008 83.890 -11.0210
668.174039 83.884 -10.9886
673.015903 83.878 -10.9464
677.892854 83.872 -10.8965
682.805145 83.863 -10.8433
687.753032 83.853 -10.7883
692.736774 83.841 -10.7312
697.756631 83.828 -10.6708
702.812863 83.814 -10.6064
707.905735 83.799 -10.5386
713.035511 83.786 -10.4692
718.202461 83.773 -10.3972
723.406852 83.760 -10.3186
728.648956 83.749 -10.2285
733.929047 83.739 -10.1233
739.247399 83.730 -10.0015
744.604290 83.722 -9.8653
750.000000 83.715 -9.7218
755.434809 83.709 -9.5791
760.909001 83.702 -9.4435
766.422861 83.696 -9.3183
771.976677 83.689 -9.2031
777.570739 83.683 -9.0947
783.205337 83.677 -8.9891
788.880766 83.672 -8.8838
794.597321 83.669 -8.7780
800.355301 83.666 -8.6720
806.155005 83.664 -8.5654
811.996736 83.662 -8.4554
817.880799 83.659 -8.3383
823.807501 83.657 -8.2092
829.777150 83.657 -8.0636
835.790057 83.657 -7.8969
841.846536 83.658 -7.7077
847.946903 83.662 -7.4993
854.091476 83.668 -7.2767
860.280575 83.677 -7.0447
866.514523 83.688 -6.8085
872.793644 83.700 -6.5740
879.118267 83.712 -6.3464
885.488720 83.724 -6.1293
891.905336 83.734 -5.9241
898.368450 83.745 -5.7305
904.878398 83.756 -5.5457
911.435520 83.767 -5.3646
918.040157 83.781 -5.1801
924.692655 83.797 -4.9849
931.393359 83.818 -4.7747
938.142619 83.841 -4.5507
944.940787 83.868 -4.3179
951.788218 83.896 -4.0821
958.685268 83.926 -3.8495
965.632296 83.958 -3.6275
972.629666 83.992 -3.4238
979.677741 84.026 -3.2432
986.776890 84.060 -3.0872
993.927482 84.095 -2.9542
1001.129891 84.131 -2.8416
1008.384491 84.168 -2.7460
1015.691660 84.206 -2.6643
1023.051781 84.245 -2.5936
1030.465236 84.286 -2.5308
1037.932411 84.328 -2.4722
1045.453698 84.371 -2.4147
1053.029486 84.415 -2.3561
1060.660172 84.461 -2.2951
1068.346153 84.508 -2.2321
1076.087829 84.558 -2.1696
1083.885605 84.609 -2.1108
1091.739887 84.661 -2.0591
1099.651084 84.712 -2.0172
1107.619609 84.761 -1.9900
1115.645878 84.809 -1.9844
1123.730308 84.854 -2.0052
1131.873321 84.896 -2.0518
1140.075341 84.937 -2.1187
1148.336797 84.978 -2.1996
1156.658119 85.018 -2.2892
1165.039741 85.059 -2.3833
1173.482099 85.101 -2.4776
1181.985634 85.144 -2.5696
1190.550789 85.187 -2.6590
1199.178011 85.229 -2.7486
1207.867749 85.270 -2.8452
1216.620457 85.307 -2.9569
1225.436590 85.342 -3.0892
1234.316609 85.374 -3.2429
1243.260976 85.402 -3.4152
1252.270157 85.427 -3.6008
1261.344623 85.450 -3.7932
1270.484846 85.471 -3.9829
1279.691303 85.493 -4.1615
1288.964474 85.515 -4.3239
1298.304842 85.536 -4.4699
1307.712894 85.558 -4.6049
1317.189120 85.578 -4.7368
1326.734016 85.595 -4.8742
1336.348077 85.610 -5.0243
1346.031806 85.621 -5.1926
1355.785708 85.629 -5.3822
1365.610290 85.634 -5.5931
1375.506065 85.638 -5.8223
1385.473549 85.639 -6.0641
1395.513261 85.638 -6.3109
1405.625726 85.636 -6.5554
1415.811469 85.631 -6.7909
1426.071023 85.624 -7.0120
1436.404921 85.614 -7.2130
1446.813703 85.602 -7.3878
1457.297912 85.589 -7.5297
1467.858093 85.574 -7.6329
1478.494798 85.559 -7.6940
1489.208581 85.544 -7.7122
1500.000000 85.528 -7.6917
1510.869618 85.511 -7.6407
1521.818002 85.493 -7.5705
1532.845723 85.473 -7.4904
1543.953355 85.450 -7.4059
1555.141477 85.426 -7.3176
1566.410674 85.399 -7.2211
1577.761531 85.371 -7.1085
1589.194642 85.343 -6.9689
1600.710601 85.316 -6.7903
1612.310010 85.292 -6.5626
1623.993473 85.270 -6.2794
1635.761599 85.251 -5.9398
1647.615002 85.235 -5.5481
1659.554299 85.222 -5.1126
1671.580114 85.212 -4.6448
1683.693072 85.204 -4.1562
1695.893807 85.199 -3.6560
1708.182952 85.196 -3.1481
1720.561150 85.196 -2.6304
1733.029045 85.200 -2.0945
1745.587288 85.209 -1.5280
1758.236533 85.224 -0.9172
1770.977440 85.247 -0.2499
1783.810673 85.278 0.4826
1796.736900 85.318 1.2842
1809.756796 85.370 2.1523
1822.871040 85.433 3.0771
1836.080315 85.511 4.0432
1849.385310 85.605 5.0309
1862.786718 85.718 6.0182
1876.285239 85.852 6.9808
1889.881575 86.009 7.8926
1903.576436 86.190 8.7285
1917.370535 86.395 9.4636
1931.264593 86.622 10.0742
1945.259332 86.867 10.5380
1959.355483 87.125 10.8369
1973.553781 87.387 10.9596
1987.854965 87.648 10.9006
2002.259781 87.902 10.6589
2016.768981 88.144 10.2400
2031.383320 88.370 9.6561
2046.103561 88.578 8.9263
2060.930471 88.767 8.0739
2075.864823 88.939 7.1243
2090.907395 89.093 6.1036
2106.058972 89.232 5.0360
2121.320344 89.357 3.9425
2136.692305 89.468 2.8397
2152.175658 89.568 1.7411
2167.771210 89.657 0.6584
2183.479774 89.737 -0.3964
2199.302169 89.810 -1.4117
2215.239219 89.875 -2.3779
2231.291755 89.935 -3.2881
2247.460615 89.992 -4.1411
2263.746641 90.045 -4.9408
2280.150683 90.096 -5.6979
2296.673595 90.142 -6.4288
2313.316238 90.185 -7.1534
2330.079481 90.223 -7.8899
2346.964198 90.256 -8.6500
2363.971268 90.284 -9.4374
2381.101578 90.307 -10.2472
2398.356022 90.326 -11.0668
2415.735498 90.341 -11.8779
2433.240913 90.355 -12.6609
2450.873180 90.367 -13.4011
2468.633217 90.377 -14.0911
2486.521951 90.387 -14.7323
2504.540314 90.395 -15.3344
2522.689246 90.402 -15.9144
2540.969692 90.405 -16.4929
2559.382606 90.405 -17.0880
2577.928947 90.401 -17.7123
2596.609683 90.393 -18.3708
2615.425787 90.382 -19.0614
2634.378241 90.368 -19.7757
2653.468031 90.353 -20.5021
2672.696154 90.336 -21.2289
2692.063613 90.318 -21.9465
2711.571415 90.299 -22.6471
2731.220579 90.279 -23.3235
2751.012130 90.260 -23.9686
2770.947098 90.240 -24.5737
2791.026522 90.222 -25.1293
2811.251451 90.206 -25.6277
2831.622938 90.192 -26.0676
2852.142045 90.182 -26.4559
2872.809842 90.174 -26.8085
2893.627406 90.168 -27.1492
2914.595823 90.162 -27.5056
2935.716186 90.154 -27.9030
2956.989596 90.144 -28.3585
2978.417161 90.129 -28.8780
3000.000000 90.110 -29.4542
3021.739237 90.085 -30.0681
3043.636005 90.055 -30.6910
3065.691446 90.021 -31.2919
3087.906710 89.983 -31.8428
3110.282955 89.943 -32.3253
3132.821347 89.900 -32.7328
3155.523062 89.856 -33.0717
3178.389283 89.811 -33.3601
3201.421202 89.764 -33.6234
3224.620020 89.716 -33.8873
3247.986946 89.667 -34.1713
3271.523198 89.617 -34.4851
3295.230004 89.568 -34.8270
3319.108599 89.520 -35.1843
3343.160228 89.473 -35.5364
3367.386145 89.430 -35.8604
3391.787613 89.389 -36.1383
3416.365904 89.351 -36.3619
3441.122300 89.316 -36.5347
3466.058091 89.282 -36.6721
3491.174576 89.249 -36.7987
3516.473066 89.214 -36.9432
3541.954880 89.176 -37.1305
3567.621345 89.136 -37.3765
3593.473800 89.090 -37.6838
3619.513592 89.041 -38.0411
3645.742080 88.989 -38.4247
3672.160630 88.934 -38.8036
3698.770620 88.876 -39.1460
3725.573436 88.818 -39.4270
3752.570477 88.759 -39.6336
3779.763150 88.699 -39.7672
3807.152872 88.637 -39.8438
3834.741071 88.574 -39.8894
3862.529185 88.509 -39.9348
3890.518664 88.441 -40.0079
3918.710966 88.369 -40.1284
3947.107561 88.295 -40.3041
3975.709929 88.219 -40.5312
4004.519563 88.142 -40.7970
4033.537962 88.064 -41.0852
4062.766641 87.985 -41.3802
4092.207123 87.906 -41.6693
4121.860942 87.827 -41.9410
4151.729646 87.747 -42.1837
4181.814790 87.666 -42.3834
4212.117944 87.584 -42.5231
4242.640687 87.502 -42.5828
4273.384610 87.421 -42.5440
4304.351317 87.342 -42.3962
4335.542421 87.264 -42.1417
4366.959549 87.188 -41.7974
4398.604338 87.112 -41.3923
4430.478438 87.037 -40.9613
4462.583511 86.962 -40.5381
4494.921231 86.888 -40.1471
4527.493283 86.813 -39.7977
4560.301365 86.738 -39.4815
4593.347189 86.665 -39.1740
4626.632476 86.595 -38.8395
4660.158962 86.528 -38.4397
4693.928395 86.467 -37.9427
4727.942535 86.412 -37.3311
4762.203156 86.364 -36.6064
4796.712043 86.324 -35.7897
4831.470996 86.291 -34.9164
4866.481826 86.265 -34.0294
4901.746360 86.247 -33.1700
4937.266434 86.237 -32.3685
4973.043902 86.235 -31.6370
5009.080628 86.243 -30.9680
5045.378492 86.262 -30.3384
5081.939384 86.294 -29.7164
5118.765212 86.340 -29.0719
5155.857894 86.400 -28.3850
5193.219366 86.476 -27.6544
5230.851574 86.566 -26.9014
5268.756481 86.668 -26.1671
5306.936062 86.781 -25.5059
5345.392309 86.901 -24.9741
5384.127225 87.028 -24.6208
5423.142830 87.156 -24.4784
5462.441159 87.284 -24.5560
5502.024259 87.409 -24.8391
5541.894195 87.529 -25.2936
5582.053045 87.641 -25.8745
5622.502902 87.742 -26.5345
5663.245876 87.831 -27.2334
5704.284090 87.905 -27.9454
5745.619684 87.960 -28.6636
5787.254813 87.994 -29.3979
5829.191647 88.005 -30.1694
5871.432373 87.991 -31.0013
5913.979192 87.951 -31.9121
5956.834323 87.884 -32.9076
6000.000000 87.791 -33.9755
6043.478473 87.672 -35.0862
6087.272010 87.532 -36.1993
6131.382892 87.370 -37.2736
6175.813420 87.191 -38.2728
6220.565910 86.995 -39.1676
6265.642695 86.785 -39.9335
6311.046124 86.562 -40.5474
6356.778566 86.329 -40.9841
6402.842404 86.087 -41.2137
6449.240040 85.840 -41.2019
6495.973891 85.588 -40.9160
6543.046396 85.336 -40.3345
6590.460007 85.085 -39.4559
6638.217197 84.837 -38.2996
6686.320456 84.594 -36.9010
6734.772290 84.359 -35.3034
6783.575226 84.134 -33.5504
6832.731809 83.926 -31.6798
6882.244600 83.739 -29.7209
6932.116181 83.581 -27.6968
6982.349153 83.453 -25.6196
7032.946133 83.355 -23.4722
7083.909760 83.285 -21.1921
7135.242690 83.243 -18.6909
7186.947600 83.235 -15.8999
7239.027185 83.271 -12.8042
7291.484160 83.364 -9.4545
7344.321260 83.525 -5.9639
7397.541239 83.764 -2.4998
7451.146872 84.085 0.7346
7505.140954 84.483 3.5399
7559.526299 84.947 5.7786
7614.305743 85.461 7.4084
7669.482141 86.011 8.4572
7725.058371 86.587 8.9673
7781.037328 87.176 8.9624
7837.421932 87.763 8.4445
7894.215122 88.330 7.4017
7951.419859 88.854 5.8234
8009.039125 89.313 3.7145
8067.075924 89.690 1.1090
8125.533282 89.967 -1.9236
8184.414245 90.134 -5.2797
8243.721885 90.188 -8.8237
8303.459292 90.131 -12.3936
8363.629581 89.974 -15.8125
8424.235888 89.732 -18.9072
8485.281374 89.424 -21.5259
8546.769221 89.072 -23.5519
8608.702634 88.698 -24.9167
8671.084842 88.322 -25.6119
8733.919097 87.961 -25.6935
8797.208675 87.631 -25.2739
8860.956876 87.338 -24.5029
8925.167022 87.090 -23.5452
8989.842461 86.887 -22.5571
9054.986566 86.728 -21.6636
9120.602731 86.611 -20.9440
9186.694378 86.533 -20.4336
9253.264952 86.489 -20.1397
9320.317925 86.477 -20.0590
9387.856790 86.492 -20.1881
9455.885071 86.529 -20.5269
9524.406312 86.584 -21.0759
9593.424086 86.651 -21.8334
9662.941992 86.725 -22.7892
9732.963653 86.797 -23.9227
9803.492719 86.862 -25.2032
9874.532869 86.911 -26.5975
9946.087805 86.936 -28.0830
10018.161257 86.926 -29.6570
10090.756983 86.872 -31.3347
10163.878768 86.765 -33.1372
10237.530423 86.598 -35.0805
10311.715789 86.366 -37.1666
10386.438732 86.065 -39.3749
10461.703149 85.695 -41.6512
10537.512962 85.260 -43.9056
10613.872125 84.765 -46.0220
10690.784618 84.217 -47.8740
10768.254450 83.625 -49.3406
10846.285661 82.997 -50.3199
10924.882318 82.342 -50.7477
11004.048518 81.668 -50.6107
11083.788390 80.983 -49.9475
11164.106090 80.293 -48.8368
11245.005805 79.602 -47.3825
11326.491752 78.915 -45.6960
11408.568180 78.235 -43.8732
11491.239368 77.564 -41.9697
11574.509626 76.903 -39.9900
11658.383294 76.256 -37.8932
11742.864745 75.622 -35.6077
11827.958384 75.003 -33.0483
11913.668646 74.400 -30.1361
12000.000000 73.813 -26.8234
12086.956947 73.244 -23.1125
12174.544019 72.690 -19.0562
12262.765784 72.151 -14.7413
12351.626840 71.627 -10.2700
12441.131819 71.116 -5.7395
12531.285389 70.617 -1.2151
12622.092249 70.130 3.2941
12713.557132 69.656 7.8422
12805.684808 69.197 12.5339
12898.480079 68.754 17.5078
12991.947783 68.332 22.9208
13086.092792 67.936 28.9309
13180.920015 67.576 35.6688
13276.434395 67.265 43.2102
13372.640911 67.023 51.5624
13469.544580 66.874 60.6593
13567.150452 66.849 70.3551
13665.463617 66.981 80.4256
13764.489200 67.301 90.5847
13864.232362 67.832 100.5088
13964.698305 68.578 109.8544
14065.892266 69.523 118.2871
14167.819519 70.634 125.5254
14270.485380 71.868 131.3776
14373.895200 73.179 135.7497
14478.054370 74.525 138.6323
14582.968320 75.867 140.0796
14688.642520 77.170 140.1908
14795.082478 78.401 139.0991
14902.293745 79.531 136.9637
15010.281908 80.531 133.9610
15119.052599 81.379 130.2748
15228.611486 82.059 126.0908
15338.964283 82.563 121.5938
15450.116741 82.897 116.9568
15562.074656 83.080 112.3146
15674.843864 83.137 107.7405
15788.430244 83.100 103.2471
15902.839718 82.998 98.8088
16018.078250 82.853 94.3846
16134.151848 82.681 89.9290
16251.066563 82.484 85.3994
16368.828491 82.253 80.7685
16487.443769 81.974 76.0393
16606.918584 81.629 71.2578
16727.259161 81.201 66.5173
16848.471777 80.676 61.9564
16970.562748 80.051 57.7503
17093.538442 79.324 54.0976
17217.405268 78.503 51.2000
17342.169684 77.602 49.2297
17467.838194 76.637 48.2932
17594.417350 75.627 48.4104
17721.913751 74.593 49.5146
17850.334044 73.553 51.4624
17979.684923 72.527 54.0487
18109.973131 71.531 57.0390
18241.205462 70.576 60.2234
18373.388756 69.672 63.4660
18506.529905 68.821 66.7178
18640.635849 68.027 69.9991
18775.713581 67.286 73.3708
18911.770141 66.595 76.8980
19048.812624 65.950 80.6063
19186.848172 65.343 84.4477
19325.883983 64.770 88.2997
19465.927305 64.227 91.9926
19606.985439 63.725 95.3376
19749.065738 63.288 98.1359
19892.175609 62.957 100.1788
20036.322514 62.777 101.2669

