* Measurement data measured by REW V5.31.3
* Source: Headset (CX31993 HIFI AUDIO), MICROPHONE (Master Volume), R, volume: 0.250
* Format: 256k Log Swept Sine, 1 sweep at -12.0 dBFS with no timing reference
* Dated: 12 31, 24 12:59:11 PM
* REW Settings:
*  C-weighting compensation: Off
*  Target level: 75.0 dB
* Note: ; 
* Measurement: Sony LB CB +3 L
* Smoothing: 1/12 octave
* Frequency Step: 96 ppo
* Start Frequency: 0.36621094 Hz
*
* Freq(Hz) SPL(dB) Phase(degrees)
0.366211 30.378 -90.7970
0.368865 30.404 -90.8969
0.371538 30.442 -91.0450
0.374230 30.488 -91.2279
0.376942 30.541 -91.4342
0.379673 30.597 -91.6559
0.382424 30.655 -91.8872
0.385196 30.715 -92.1251
0.387987 30.776 -92.3673
0.390798 30.838 -92.6130
0.393630 30.900 -92.8614
0.396483 30.963 -93.1123
0.399356 31.026 -93.3654
0.402250 31.090 -93.6207
0.405165 31.154 -93.8780
0.408101 31.219 -94.1374
0.411058 31.284 -94.3987
0.414037 31.350 -94.6619
0.417037 31.416 -94.9271
0.420059 31.483 -95.1941
0.423103 31.550 -95.4629
0.426169 31.618 -95.7336
0.429257 31.686 -96.0059
0.432368 31.754 -96.2800
0.435501 31.823 -96.5558
0.438656 31.893 -96.8332
0.441835 31.963 -97.1122
0.445037 32.034 -97.3928
0.448262 32.105 -97.6749
0.451510 32.176 -97.9586
0.454782 32.249 -98.2437
0.458077 32.321 -98.5302
0.461397 32.395 -98.8181
0.464740 32.468 -99.1074
0.468108 32.543 -99.3980
0.471500 32.617 -99.6899
0.474917 32.693 -99.9831
0.478358 32.769 -100.2776
0.481825 32.845 -100.5732
0.485316 32.922 -100.8701
0.488833 33.000 -101.1681
0.492375 33.078 -101.4672
0.495943 33.157 -101.7675
0.499537 33.236 -102.0688
0.503157 33.316 -102.3712
0.506803 33.396 -102.6746
0.510475 33.477 -102.9791
0.514175 33.559 -103.2846
0.517900 33.641 -103.5911
0.521653 33.724 -103.8985
0.525434 33.807 -104.2069
0.529241 33.891 -104.5163
0.533076 33.976 -104.8266
0.536939 34.061 -105.1378
0.540830 34.147 -105.4500
0.544749 34.233 -105.7631
0.548696 34.320 -106.0771
0.552673 34.408 -106.3920
0.556677 34.496 -106.7078
0.560711 34.585 -107.0246
0.564774 34.675 -107.3422
0.568867 34.765 -107.6608
0.572989 34.856 -107.9803
0.577141 34.948 -108.3008
0.581324 35.040 -108.6221
0.585536 35.133 -108.9445
0.589779 35.227 -109.2678
0.594053 35.321 -109.5921
0.598358 35.416 -109.9174
0.602694 35.512 -110.2437
0.607061 35.608 -110.5711
0.611460 35.705 -110.8995
0.615891 35.803 -111.2290
0.620354 35.901 -111.5596
0.624849 36.000 -111.8913
0.629377 36.100 -112.2242
0.633938 36.201 -112.5583
0.638532 36.302 -112.8935
0.643159 36.404 -113.2301
0.647819 36.507 -113.5679
0.652514 36.611 -113.9070
0.657242 36.715 -114.2475
0.662005 36.820 -114.5894
0.666802 36.926 -114.9327
0.671634 37.033 -115.2775
0.676501 37.140 -115.6237
0.681403 37.248 -115.9716
0.686341 37.357 -116.3210
0.691314 37.467 -116.6720
0.696324 37.577 -117.0247
0.701370 37.688 -117.3790
0.706452 37.800 -117.7349
0.711571 37.912 -118.0924
0.716728 38.024 -118.4513
0.721921 38.137 -118.8112
0.727153 38.248 -119.1718
0.732422 38.359 -119.5323
0.737729 38.468 -119.8920
0.743075 38.577 -120.2503
0.748460 38.685 -120.6063
0.753883 38.792 -120.9598
0.759346 38.900 -121.3105
0.764849 39.007 -121.6582
0.770391 39.115 -122.0029
0.775974 39.223 -122.3446
0.781597 39.331 -122.6834
0.787261 39.440 -123.0193
0.792966 39.549 -123.3525
0.798712 39.659 -123.6829
0.804500 39.769 -124.0108
0.810329 39.879 -124.3363
0.816201 39.989 -124.6593
0.822116 40.100 -124.9802
0.828073 40.212 -125.2989
0.834074 40.323 -125.6156
0.840118 40.435 -125.9304
0.846206 40.548 -126.2435
0.852338 40.660 -126.5549
0.858514 40.774 -126.8649
0.864735 40.887 -127.1734
0.871001 41.001 -127.4807
0.877313 41.115 -127.7869
0.883670 41.230 -128.0921
0.890074 41.345 -128.3964
0.896524 41.460 -128.7000
0.903020 41.576 -129.0031
0.909564 41.692 -129.3057
0.916155 41.809 -129.6080
0.922794 41.925 -129.9101
0.929481 42.043 -130.2122
0.936216 42.160 -130.5144
0.943000 42.278 -130.8168
0.949834 42.397 -131.1196
0.956717 42.516 -131.4229
0.963649 42.635 -131.7269
0.970632 42.754 -132.0317
0.977666 42.874 -132.3374
0.984750 42.995 -132.6442
0.991886 43.115 -132.9522
0.999074 43.237 -133.2615
1.006314 43.358 -133.5723
1.013606 43.480 -133.8848
1.020951 43.602 -134.1990
1.028349 43.725 -134.5151
1.035801 43.848 -134.8332
1.043307 43.972 -135.1534
1.050867 44.096 -135.4758
1.058482 44.220 -135.8006
1.066152 44.345 -136.1276
1.073878 44.471 -136.4569
1.081660 44.596 -136.7881
1.089498 44.722 -137.1210
1.097393 44.849 -137.4550
1.105345 44.975 -137.7894
1.113355 45.102 -138.1234
1.121423 45.229 -138.4565
1.129549 45.357 -138.7882
1.137734 45.484 -139.1183
1.145979 45.612 -139.4469
1.154283 45.740 -139.7737
1.162647 45.868 -140.0990
1.171072 45.997 -140.4228
1.179558 46.125 -140.7452
1.188106 46.254 -141.0664
1.196715 46.383 -141.3864
1.205387 46.512 -141.7055
1.214122 46.641 -142.0238
1.222920 46.770 -142.3413
1.231782 46.900 -142.6583
1.240708 47.030 -142.9749
1.249699 47.160 -143.2913
1.258754 47.290 -143.6075
1.267876 47.420 -143.9238
1.277063 47.551 -144.2402
1.286318 47.682 -144.5569
1.295639 47.813 -144.8741
1.305027 47.945 -145.1918
1.314484 48.076 -145.5103
1.324009 48.208 -145.8296
1.333604 48.340 -146.1499
1.343268 48.473 -146.4714
1.353002 48.605 -146.7941
1.362806 48.738 -147.1183
1.372681 48.871 -147.4440
1.382628 49.005 -147.7714
1.392647 49.139 -148.1005
1.402739 49.273 -148.4315
1.412904 49.408 -148.7643
1.423142 49.542 -149.0991
1.433455 49.678 -149.4356
1.443843 49.813 -149.7736
1.454305 49.949 -150.1127
1.464844 50.085 -150.4522
1.475459 50.221 -150.7913
1.486150 50.357 -151.1294
1.496920 50.494 -151.4659
1.507767 50.630 -151.8005
1.518693 50.767 -152.1333
1.529698 50.903 -152.4643
1.540783 51.040 -152.7937
1.551948 51.176 -153.1218
1.563194 51.313 -153.4489
1.574521 51.450 -153.7754
1.585931 51.586 -154.1015
1.597423 51.723 -154.4277
1.608999 51.860 -154.7543
1.620658 51.996 -155.0816
1.632402 52.133 -155.4100
1.644232 52.270 -155.7399
1.656146 52.407 -156.0714
1.668147 52.544 -156.4051
1.680235 52.681 -156.7411
1.692411 52.818 -157.0799
1.704675 52.956 -157.4218
1.717028 53.093 -157.7671
1.729470 53.231 -158.1161
1.742003 53.368 -158.4690
1.754626 53.506 -158.8262
1.767341 53.644 -159.1879
1.780147 53.782 -159.5541
1.793047 53.920 -159.9250
1.806040 54.059 -160.3005
1.819128 54.197 -160.6801
1.832310 54.335 -161.0634
1.845587 54.474 -161.4497
1.858961 54.612 -161.8382
1.872432 54.750 -162.2282
1.886001 54.888 -162.6196
1.899667 55.026 -163.0118
1.913433 55.164 -163.4050
1.927299 55.302 -163.7989
1.941265 55.439 -164.1938
1.955332 55.577 -164.5896
1.969501 55.714 -164.9864
1.983773 55.851 -165.3844
1.998148 55.988 -165.7838
2.012627 56.124 -166.1847
2.027212 56.261 -166.5872
2.041902 56.397 -166.9916
2.056698 56.534 -167.3981
2.071602 56.670 -167.8068
2.086614 56.806 -168.2179
2.101734 56.942 -168.6317
2.116964 57.078 -169.0483
2.132304 57.214 -169.4680
2.147756 57.350 -169.8909
2.163320 57.486 -170.3171
2.178996 57.621 -170.7466
2.194786 57.757 -171.1792
2.210690 57.892 -171.6148
2.226710 58.027 -172.0531
2.242845 58.161 -172.4937
2.259098 58.295 -172.9363
2.275468 58.429 -173.3808
2.291957 58.563 -173.8269
2.308566 58.696 -174.2745
2.325295 58.829 -174.7235
2.342145 58.961 -175.1739
2.359117 59.093 -175.6257
2.376212 59.225 -176.0787
2.393431 59.356 -176.5330
2.410775 59.487 -176.9887
2.428244 59.617 -177.4459
2.445840 59.748 -177.9044
2.463564 59.878 -178.3646
2.481416 60.007 -178.8265
2.499397 60.137 -179.2902
2.517509 60.266 -179.7560
2.535752 60.394 179.7760
2.554127 60.523 179.3056
2.572635 60.651 178.8326
2.591277 60.778 178.3569
2.610055 60.905 177.8786
2.628968 61.031 177.3977
2.648019 61.157 176.9146
2.667208 61.282 176.4293
2.686535 61.407 175.9423
2.706003 61.531 175.4538
2.725612 61.654 174.9642
2.745363 61.777 174.4736
2.765257 61.899 173.9824
2.785295 62.021 173.4907
2.805478 62.142 172.9987
2.825808 62.263 172.5066
2.846285 62.383 172.0143
2.866910 62.503 171.5219
2.887685 62.623 171.0292
2.908611 62.742 170.5359
2.929688 62.860 170.0416
2.950917 62.977 169.5459
2.972301 63.094 169.0485
2.993839 63.211 168.5491
3.015534 63.326 168.0480
3.037386 63.441 167.5453
3.059396 63.555 167.0415
3.081565 63.668 166.5370
3.103896 63.780 166.0323
3.126388 63.892 165.5280
3.149043 64.003 165.0245
3.171862 64.114 164.5222
3.194847 64.224 164.0214
3.217998 64.334 163.5225
3.241317 64.442 163.0256
3.264805 64.551 162.5305
3.288463 64.659 162.0368
3.312293 64.766 161.5443
3.336295 64.872 161.0521
3.360471 64.978 160.5602
3.384822 65.083 160.0683
3.409350 65.187 159.5767
3.434056 65.290 159.0855
3.458940 65.393 158.5953
3.484005 65.495 158.1066
3.509252 65.596 157.6199
3.534681 65.697 157.1357
3.560295 65.797 156.6545
3.586094 65.897 156.1766
3.612081 65.996 155.7022
3.638255 66.095 155.2313
3.664620 66.194 154.7636
3.691175 66.292 154.2989
3.717923 66.389 153.8365
3.744864 66.486 153.3765
3.772001 66.582 152.9185
3.799335 66.678 152.4627
3.826866 66.773 152.0094
3.854597 66.867 151.5588
3.882529 66.962 151.1113
3.910664 67.056 150.6674
3.939002 67.149 150.2271
3.967546 67.243 149.7910
3.996296 67.336 149.3591
4.025255 67.430 148.9315
4.054423 67.523 148.5079
4.083804 67.616 148.0882
4.113396 67.708 147.6722
4.143204 67.801 147.2595
4.173227 67.893 146.8501
4.203468 67.985 146.4437
4.233928 68.077 146.0403
4.264609 68.169 145.6399
4.295512 68.261 145.2423
4.326639 68.353 144.8476
4.357992 68.445 144.4560
4.389572 68.538 144.0673
4.421380 68.631 143.6818
4.453419 68.724 143.2993
4.485691 68.817 142.9196
4.518196 68.910 142.5425
4.550936 69.004 142.1675
4.583914 69.097 141.7944
4.617131 69.191 141.4224
4.650589 69.285 141.0514
4.684289 69.380 140.6809
4.718233 69.474 140.3108
4.752424 69.570 139.9410
4.786862 69.665 139.5716
4.821549 69.761 139.2025
4.856488 69.857 138.8338
4.891680 69.954 138.4651
4.927127 70.050 138.0962
4.962831 70.147 137.7264
4.998794 70.245 137.3552
5.035017 70.342 136.9822
5.071503 70.440 136.6071
5.108253 70.537 136.2294
5.145270 70.635 135.8492
5.182555 70.733 135.4665
5.220110 70.832 135.0813
5.257937 70.930 134.6937
5.296038 71.028 134.3035
5.334415 71.127 133.9105
5.373071 71.225 133.5144
5.412006 71.323 133.1151
5.451224 71.421 132.7122
5.490725 71.518 132.3056
5.530514 71.616 131.8953
5.570590 71.713 131.4812
5.610957 71.809 131.0636
5.651616 71.905 130.6426
5.692570 72.001 130.2186
5.733821 72.097 129.7917
5.775370 72.191 129.3620
5.817221 72.286 128.9297
5.859375 72.379 128.4946
5.901834 72.472 128.0569
5.944602 72.564 127.6164
5.987679 72.655 127.1735
6.031068 72.745 126.7286
6.074771 72.835 126.2822
6.118792 72.924 125.8350
6.163131 73.012 125.3872
6.207792 73.099 124.9391
6.252776 73.185 124.4908
6.298086 73.271 124.0423
6.343725 73.355 123.5938
6.389694 73.438 123.1457
6.435996 73.521 122.6985
6.482634 73.603 122.2528
6.529610 73.684 121.8091
6.576926 73.764 121.3679
6.624585 73.843 120.9290
6.672590 73.921 120.4928
6.720942 73.999 120.0593
6.769645 74.076 119.6286
6.818700 74.152 119.2012
6.868111 74.227 118.7774
6.917881 74.302 118.3575
6.968010 74.377 117.9418
7.018504 74.451 117.5303
7.069362 74.524 117.1230
7.120590 74.597 116.7197
7.172189 74.670 116.3206
7.224161 74.742 115.9258
7.276511 74.815 115.5352
7.329239 74.887 115.1490
7.382350 74.958 114.7669
7.435845 75.030 114.3890
7.489729 75.102 114.0151
7.544002 75.173 113.6449
7.598669 75.245 113.2782
7.653732 75.316 112.9149
7.709194 75.388 112.5548
7.765058 75.460 112.1977
7.821327 75.532 111.8434
7.878004 75.604 111.4918
7.935091 75.676 111.1423
7.992592 75.749 110.7948
8.050510 75.821 110.4490
8.108847 75.894 110.1046
8.167607 75.967 109.7615
8.226793 76.041 109.4194
8.286408 76.114 109.0780
8.346454 76.188 108.7370
8.406936 76.262 108.3961
8.467856 76.336 108.0551
8.529218 76.410 107.7139
8.591024 76.484 107.3721
8.653278 76.559 107.0295
8.715983 76.633 106.6859
8.779143 76.708 106.3409
8.842760 76.783 105.9944
8.906839 76.858 105.6463
8.971381 76.933 105.2963
9.036392 77.008 104.9443
9.101873 77.083 104.5900
9.167829 77.157 104.2332
9.234263 77.232 103.8740
9.301178 77.306 103.5120
9.368578 77.380 103.1475
9.436467 77.454 102.7801
9.504847 77.528 102.4100
9.573723 77.601 102.0372
9.643099 77.674 101.6617
9.712976 77.746 101.2838
9.783361 77.817 100.9035
9.854255 77.888 100.5213
9.925663 77.958 100.1372
9.997588 78.028 99.7516
10.070035 78.097 99.3650
10.143007 78.165 98.9777
10.216507 78.232 98.5902
10.290540 78.298 98.2032
10.365109 78.363 97.8168
10.440219 78.428 97.4317
10.515873 78.492 97.0484
10.592076 78.555 96.6674
10.668830 78.617 96.2891
10.746141 78.679 95.9139
10.824012 78.740 95.5421
10.902447 78.801 95.1739
10.981451 78.862 94.8094
11.061027 78.922 94.4488
11.141180 78.982 94.0919
11.221913 79.041 93.7385
11.303232 79.101 93.3884
11.385140 79.161 93.0412
11.467641 79.221 92.6964
11.550741 79.282 92.3534
11.634442 79.342 92.0116
11.718750 79.403 91.6703
11.803669 79.464 91.3289
11.889203 79.525 90.9868
11.975357 79.587 90.6432
12.062136 79.648 90.2977
12.149543 79.710 89.9498
12.237583 79.772 89.5992
12.326262 79.833 89.2455
12.415583 79.894 88.8890
12.505552 79.955 88.5294
12.596172 80.015 88.1672
12.687449 80.074 87.8026
12.779387 80.133 87.4360
12.871992 80.191 87.0681
12.965268 80.249 86.6995
13.059220 80.305 86.3307
13.153852 80.361 85.9626
13.249170 80.417 85.5957
13.345179 80.471 85.2304
13.441884 80.525 84.8674
13.539289 80.579 84.5070
13.637401 80.632 84.1493
13.736223 80.685 83.7944
13.835761 80.737 83.4424
13.936021 80.790 83.0931
14.037007 80.842 82.7462
14.138725 80.895 82.4013
14.241180 80.947 82.0580
14.344377 81.000 81.7161
14.448323 81.053 81.3749
14.553021 81.106 81.0343
14.658478 81.159 80.6938
14.764700 81.212 80.3534
14.871691 81.265 80.0128
14.979457 81.318 79.6719
15.088005 81.371 79.3308
15.197339 81.425 78.9894
15.307465 81.478 78.6476
15.418389 81.531 78.3056
15.530117 81.585 77.9631
15.642655 81.639 77.6199
15.756008 81.692 77.2758
15.870182 81.746 76.9304
15.985184 81.801 76.5831
16.101019 81.855 76.2336
16.217694 81.910 75.8812
16.335214 81.965 75.5254
16.453586 82.020 75.1657
16.572815 82.075 74.8020
16.692909 82.129 74.4340
16.813872 82.184 74.0618
16.935713 82.238 73.6855
17.058436 82.291 73.3056
17.182048 82.344 72.9226
17.306556 82.396 72.5370
17.431967 82.448 72.1494
17.558286 82.499 71.7602
17.685521 82.549 71.3698
17.813677 82.599 70.9783
17.942762 82.648 70.5858
18.072783 82.697 70.1918
18.203746 82.745 69.7961
18.335658 82.793 69.3983
18.468526 82.839 68.9982
18.602356 82.885 68.5956
18.737156 82.929 68.1910
18.872934 82.972 67.7853
19.009695 83.014 67.3799
19.147447 83.053 66.9768
19.286197 83.091 66.5787
19.425953 83.126 66.1884
19.566721 83.160 65.8090
19.708510 83.192 65.4433
19.851326 83.223 65.0937
19.995177 83.253 64.7616
20.140070 83.284 64.4473
20.286013 83.316 64.1500
20.433014 83.349 63.8671
20.581080 83.385 63.5950
20.730219 83.423 63.3291
20.880439 83.463 63.0639
21.031747 83.507 62.7942
21.184152 83.552 62.5150
21.337661 83.599 62.2226
21.492282 83.646 61.9145
21.648024 83.693 61.5900
21.804895 83.739 61.2502
21.962902 83.784 60.8974
22.122054 83.826 60.5354
22.282360 83.866 60.1683
22.443827 83.904 59.8001
22.606464 83.940 59.4344
22.770280 83.975 59.0732
22.935283 84.009 58.7173
23.101481 84.044 58.3658
23.268884 84.078 58.0167
23.437500 84.113 57.6667
23.607338 84.149 57.3126
23.778406 84.185 56.9511
23.950714 84.221 56.5800
24.124271 84.257 56.1980
24.299086 84.292 55.8053
24.475167 84.325 55.4036
24.652524 84.357 54.9952
24.831166 84.387 54.5830
25.011103 84.415 54.1701
25.192344 84.442 53.7587
25.374898 84.468 53.3503
25.558775 84.494 52.9454
25.743984 84.519 52.5436
25.930536 84.545 52.1437
26.118439 84.570 51.7444
26.307704 84.596 51.3444
26.498341 84.622 50.9430
26.690359 84.649 50.5400
26.883768 84.675 50.1358
27.078579 84.701 49.7312
27.274801 84.727 49.3269
27.472446 84.753 48.9235
27.671522 84.779 48.5212
27.872042 84.805 48.1196
28.074014 84.832 47.7179
28.277450 84.859 47.3153
28.482360 84.886 46.9112
28.688755 84.914 46.5052
28.896645 84.941 46.0976
29.106042 84.967 45.6893
29.316957 84.993 45.2815
29.529400 85.019 44.8755
29.743382 85.043 44.4724
29.958915 85.068 44.0729
30.176009 85.091 43.6775
30.394677 85.115 43.2861
30.614929 85.138 42.8986
30.836778 85.160 42.5148
31.060234 85.183 42.1345
31.285309 85.205 41.7575
31.512015 85.226 41.3835
31.740364 85.248 41.0118
31.970368 85.269 40.6414
32.202039 85.291 40.2706
32.435388 85.312 39.8979
32.670428 85.332 39.5219
32.907171 85.352 39.1418
33.145630 85.371 38.7580
33.385817 85.389 38.3717
33.627745 85.405 37.9849
33.871425 85.420 37.6001
34.116871 85.434 37.2192
34.364096 85.448 36.8432
34.613113 85.461 36.4718
34.863934 85.475 36.1032
35.116572 85.489 35.7347
35.371041 85.504 35.3631
35.627354 85.520 34.9854
35.885525 85.536 34.5997
36.145566 85.552 34.2055
36.407492 85.567 33.8039
36.671316 85.581 33.3976
36.937051 85.594 32.9902
37.204712 85.605 32.5857
37.474313 85.616 32.1875
37.745867 85.626 31.7975
38.019389 85.637 31.4160
38.294893 85.649 31.0410
38.572394 85.662 30.6687
38.851905 85.677 30.2950
39.133442 85.692 29.9161
39.417019 85.707 29.5300
39.702651 85.722 29.1371
39.990353 85.735 28.7401
40.280140 85.747 28.3433
40.572026 85.757 27.9509
40.866028 85.766 27.5660
41.162160 85.774 27.1899
41.460438 85.782 26.8215
41.760877 85.791 26.4584
42.063494 85.800 26.0975
42.368303 85.809 25.7363
42.675322 85.818 25.3728
42.984565 85.826 25.0065
43.296048 85.835 24.6369
43.609789 85.842 24.2644
43.925804 85.849 23.8896
44.244108 85.855 23.5133
44.564719 85.860 23.1367
44.887654 85.864 22.7612
45.212928 85.868 22.3877
45.540560 85.872 22.0165
45.870565 85.875 21.6469
46.202962 85.879 21.2780
46.537768 85.882 20.9091
46.875000 85.885 20.5405
47.214676 85.888 20.1735
47.556813 85.891 19.8093
47.901429 85.894 19.4484
48.248542 85.898 19.0894
48.598171 85.902 18.7294
48.950334 85.907 18.3651
49.305048 85.911 17.9940
49.662333 85.915 17.6165
50.022206 85.917 17.2351
50.384688 85.918 16.8540
50.749796 85.917 16.4768
51.117550 85.915 16.1056
51.487969 85.913 15.7407
51.861072 85.910 15.3806
52.236879 85.908 15.0236
52.615409 85.905 14.6676
52.996681 85.903 14.3110
53.380717 85.900 13.9523
53.767536 85.897 13.5902
54.157158 85.894 13.2239
54.549603 85.890 12.8535
54.944892 85.884 12.4805
55.343045 85.878 12.1069
55.744084 85.871 11.7350
56.148028 85.862 11.3671
56.554900 85.853 11.0047
56.964720 85.844 10.6486
57.377510 85.835 10.2983
57.793291 85.827 9.9527
58.212085 85.819 9.6097
58.633914 85.811 9.2681
59.058799 85.804 8.9266
59.486764 85.797 8.5853
59.917829 85.791 8.2437
60.352019 85.785 7.9010
60.789354 85.779 7.5558
61.229859 85.773 7.2069
61.673556 85.767 6.8542
62.120468 85.759 6.4987
62.570618 85.750 6.1425
63.024031 85.739 5.7887
63.480729 85.727 5.4404
63.940736 85.713 5.1000
64.404077 85.698 4.7684
64.870776 85.682 4.4460
65.340856 85.665 4.1334
65.814343 85.649 3.8310
66.291261 85.633 3.5369
66.771635 85.620 3.2443
67.255489 85.608 2.9426
67.742850 85.598 2.6224
68.233743 85.586 2.2819
68.728193 85.573 1.9285
69.226226 85.557 1.5730
69.727867 85.540 1.2217
70.233144 85.523 0.8726
70.742083 85.507 0.5202
71.254709 85.489 0.1624
71.771050 85.470 -0.1960
72.291132 85.448 -0.5471
72.814984 85.426 -0.8855
73.342631 85.404 -1.2122
73.874102 85.382 -1.5326
74.409424 85.361 -1.8525
74.948626 85.339 -2.1755
75.491734 85.316 -2.5012
76.038779 85.292 -2.8274
76.589787 85.266 -3.1508
77.144788 85.238 -3.4688
77.703811 85.210 -3.7800
78.266885 85.181 -4.0845
78.834039 85.152 -4.3832
79.405303 85.124 -4.6776
79.980706 85.096 -4.9696
80.560280 85.068 -5.2605
81.144053 85.041 -5.5508
81.732056 85.014 -5.8403
82.324320 84.986 -6.1293
82.920876 84.959 -6.4177
83.521755 84.931 -6.7059
84.126988 84.902 -6.9931
84.736607 84.872 -7.2778
85.350643 84.841 -7.5586
85.969129 84.810 -7.8348
86.592097 84.778 -8.1058
87.219579 84.745 -8.3716
87.851608 84.713 -8.6329
88.488217 84.680 -8.8917
89.129439 84.647 -9.1500
89.775308 84.614 -9.4089
90.425856 84.580 -9.6682
91.081119 84.546 -9.9271
91.741131 84.511 -10.1852
92.405925 84.475 -10.4432
93.075536 84.439 -10.7023
93.750000 84.402 -10.9630
94.429351 84.365 -11.2247
95.113625 84.326 -11.4862
95.802858 84.287 -11.7467
96.497085 84.247 -12.0048
97.196342 84.205 -12.2581
97.900667 84.162 -12.5042
98.610096 84.118 -12.7421
99.324665 84.072 -12.9717
100.044413 84.026 -13.1930
100.769376 83.979 -13.4066
101.499592 83.931 -13.6149
102.235100 83.883 -13.8223
102.975938 83.835 -14.0321
103.722144 83.786 -14.2458
104.473757 83.736 -14.4627
105.230817 83.683 -14.6798
105.993363 83.629 -14.8925
106.761435 83.571 -15.0941
107.535072 83.511 -15.2789
108.314315 83.447 -15.4430
109.099206 83.381 -15.5850
109.889783 83.313 -15.7036
110.686090 83.242 -15.7982
111.488167 83.172 -15.8685
112.296056 83.101 -15.9146
113.109800 83.032 -15.9340
113.929440 82.965 -15.9210
114.755020 82.902 -15.8699
115.586582 82.846 -15.7806
116.424170 82.796 -15.6621
117.267827 82.755 -15.5304
118.117598 82.720 -15.4045
118.973527 82.689 -15.3007
119.835658 82.659 -15.2255
120.704037 82.629 -15.1761
121.578708 82.598 -15.1478
122.459718 82.566 -15.1384
123.347111 82.535 -15.1467
124.240935 82.503 -15.1692
125.141236 82.472 -15.2003
126.048061 82.440 -15.2342
126.961458 82.408 -15.2679
127.881473 82.376 -15.3025
128.808154 82.343 -15.3412
129.741551 82.308 -15.3862
130.681712 82.273 -15.4380
131.628686 82.238 -15.4970
132.582521 82.206 -15.5663
133.543269 82.176 -15.6520
134.510979 82.148 -15.7591
135.485701 82.118 -15.8839
136.467486 82.084 -16.0059
137.456386 82.043 -16.0981
138.452451 81.997 -16.1472
139.455735 81.946 -16.1580
140.466288 81.893 -16.1440
141.484165 81.839 -16.1179
142.509418 81.784 -16.0885
143.542100 81.731 -16.0619
144.582265 81.680 -16.0414
145.629968 81.633 -16.0273
146.685262 81.587 -16.0163
147.748204 81.543 -16.0025
148.818849 81.499 -15.9799
149.897251 81.454 -15.9448
150.983469 81.407 -15.8975
152.077557 81.360 -15.8402
153.179574 81.311 -15.7760
154.289576 81.262 -15.7070
155.407622 81.213 -15.6333
156.533770 81.165 -15.5546
157.668078 81.118 -15.4717
158.810606 81.073 -15.3879
159.961413 81.029 -15.3073
161.120559 80.986 -15.2318
162.288105 80.942 -15.1598
163.464112 80.897 -15.0850
164.648640 80.852 -14.9989
165.841752 80.806 -14.8947
167.043510 80.760 -14.7706
168.253976 80.715 -14.6301
169.473213 80.671 -14.4794
170.701286 80.628 -14.3239
171.938258 80.586 -14.1675
173.184194 80.545 -14.0125
174.439158 80.504 -13.8586
175.703216 80.462 -13.7043
176.976434 80.419 -13.5472
178.258878 80.375 -13.3856
179.550615 80.330 -13.2183
180.851713 80.285 -13.0438
182.162239 80.240 -12.8602
183.482262 80.197 -12.6674
184.811850 80.156 -12.4694
186.151073 80.119 -12.2721
187.500000 80.084 -12.0791
188.858702 80.050 -11.8901
190.227250 80.017 -11.7013
191.605715 79.985 -11.5077
192.994169 79.954 -11.3051
194.392685 79.922 -11.0910
195.801334 79.891 -10.8665
197.220191 79.859 -10.6354
198.649330 79.828 -10.4031
200.088825 79.798 -10.1744
201.538751 79.768 -9.9526
202.999184 79.740 -9.7379
204.470200 79.712 -9.5289
205.951875 79.685 -9.3219
207.444287 79.659 -9.1117
208.947514 79.633 -8.8934
210.461634 79.606 -8.6635
211.986726 79.580 -8.4221
213.522869 79.555 -8.1721
215.070144 79.529 -7.9178
216.628631 79.504 -7.6631
218.198411 79.479 -7.4108
219.779567 79.456 -7.1622
221.372180 79.434 -6.9170
222.976334 79.413 -6.6729
224.592112 79.393 -6.4257
226.219600 79.373 -6.1711
227.858880 79.353 -5.9073
229.510039 79.333 -5.6357
231.173164 79.313 -5.3601
232.848340 79.293 -5.0856
234.535655 79.274 -4.8148
236.235197 79.256 -4.5466
237.947054 79.239 -4.2769
239.671317 79.222 -4.0031
241.408074 79.206 -3.7267
243.157416 79.190 -3.4537
244.919435 79.175 -3.1909
246.694223 79.160 -2.9404
248.481871 79.147 -2.6990
250.282473 79.135 -2.4593
252.096123 79.125 -2.2140
253.922915 79.115 -1.9596
255.762945 79.105 -1.6980
257.616309 79.095 -1.4343
259.483103 79.084 -1.1741
261.363424 79.074 -0.9204
263.257372 79.064 -0.6722
265.165043 79.055 -0.4252
267.086538 79.047 -0.1740
269.021957 79.040 0.0842
270.971401 79.034 0.3490
272.934972 79.029 0.6173
274.912771 79.024 0.8864
276.904902 79.020 1.1541
278.911469 79.016 1.4181
280.932577 79.013 1.6758
282.968330 79.010 1.9265
285.018835 79.007 2.1724
287.084199 79.002 2.4160
289.164530 78.997 2.6593
291.259935 78.990 2.9023
293.370525 78.984 3.1445
295.496408 78.978 3.3848
297.637697 78.974 3.6227
299.794503 78.973 3.8591
301.966937 78.973 4.0956
304.155114 78.976 4.3318
306.359147 78.980 4.5674
308.579152 78.986 4.8022
310.815244 78.992 5.0376
313.067539 78.998 5.2759
315.336156 79.004 5.5195
317.621211 79.008 5.7697
319.922826 79.011 6.0248
322.241118 79.013 6.2811
324.576210 79.015 6.5352
326.928223 79.017 6.7855
329.297280 79.019 7.0322
331.683504 79.021 7.2737
334.087019 79.024 7.5072
336.507952 79.027 7.7322
338.946427 79.030 7.9519
341.402572 79.035 8.1717
343.876516 79.042 8.3922
346.368387 79.050 8.6093
348.878315 79.058 8.8191
351.406431 79.066 9.0217
353.952867 79.074 9.2206
356.517756 79.081 9.4203
359.101230 79.089 9.6246
361.703426 79.097 9.8353
364.324478 79.104 10.0511
366.964523 79.113 10.2688
369.623699 79.120 10.4851
372.302145 79.128 10.6984
375.000000 79.134 10.9105
377.717405 79.141 11.1235
380.454501 79.148 11.3357
383.211431 79.156 11.5427
385.988339 79.164 11.7436
388.785369 79.173 11.9409
391.602668 79.181 12.1368
394.440383 79.187 12.3291
397.298660 79.192 12.5139
400.177650 79.197 12.6909
403.077502 79.202 12.8655
405.998368 79.209 13.0456
408.940400 79.218 13.2402
411.903750 79.228 13.4576
414.888575 79.238 13.7004
417.895028 79.248 13.9644
420.923268 79.258 14.2392
423.973452 79.269 14.5140
427.045738 79.281 14.7811
430.140287 79.295 15.0348
433.257261 79.311 15.2698
436.396822 79.331 15.4821
439.559133 79.352 15.6714
442.744360 79.376 15.8420
445.952668 79.401 15.9988
449.184225 79.426 16.1461
452.439199 79.450 16.2886
455.717760 79.473 16.4315
459.020079 79.493 16.5787
462.346327 79.510 16.7317
465.696680 79.524 16.8900
469.071310 79.536 17.0524
472.470394 79.546 17.2172
475.894109 79.555 17.3801
479.342634 79.563 17.5338
482.816148 79.572 17.6730
486.314833 79.582 17.7996
489.838871 79.594 17.9224
493.388445 79.606 18.0516
496.963741 79.620 18.1921
500.564945 79.634 18.3434
504.192245 79.649 18.5013
507.845830 79.664 18.6605
511.525890 79.678 18.8152
515.232618 79.692 18.9617
518.966206 79.704 19.0999
522.726849 79.714 19.2339
526.514743 79.721 19.3667
530.330086 79.728 19.4974
534.173076 79.733 19.6233
538.043915 79.739 19.7433
541.942803 79.747 19.8593
545.869944 79.758 19.9740
549.825542 79.773 20.0900
553.809805 79.790 20.2083
557.822939 79.810 20.3285
561.865154 79.829 20.4506
565.936660 79.847 20.5752
570.037671 79.863 20.7030
574.168399 79.878 20.8347
578.329060 79.892 20.9695
582.519870 79.904 21.1055
586.741049 79.915 21.2408
590.992817 79.924 21.3751
595.275394 79.933 21.5085
599.589005 79.942 21.6431
603.933874 79.952 21.7826
608.310228 79.963 21.9307
612.718295 79.974 22.0886
617.158304 79.986 22.2543
621.630488 79.997 22.4247
626.135079 80.007 22.5968
630.672311 80.015 22.7666
635.242423 80.021 22.9316
639.845651 80.027 23.0934
644.482237 80.032 23.2543
649.152421 80.040 23.4150
653.856447 80.049 23.5747
658.594560 80.060 23.7324
663.367008 80.073 23.8865
668.174039 80.087 24.0355
673.015903 80.100 24.1801
677.892854 80.112 24.3226
682.805145 80.120 24.4659
687.753032 80.124 24.6112
692.736774 80.127 24.7601
697.756631 80.128 24.9144
702.812863 80.130 25.0741
707.905735 80.134 25.2380
713.035511 80.142 25.4075
718.202461 80.153 25.5870
723.406852 80.167 25.7815
728.648956 80.181 25.9908
733.929047 80.194 26.2095
739.247399 80.205 26.4290
744.604290 80.214 26.6404
750.000000 80.221 26.8385
755.434809 80.228 27.0266
760.909001 80.235 27.2137
766.422861 80.244 27.4091
771.976677 80.255 27.6179
777.570739 80.267 27.8402
783.205337 80.281 28.0717
788.880766 80.296 28.3064
794.597321 80.312 28.5389
800.355301 80.329 28.7670
806.155005 80.344 28.9909
811.996736 80.360 29.2114
817.880799 80.374 29.4268
823.807501 80.388 29.6331
829.777150 80.401 29.8275
835.790057 80.414 30.0099
841.846536 80.428 30.1839
847.946903 80.443 30.3553
854.091476 80.459 30.5298
860.280575 80.476 30.7119
866.514523 80.495 30.9052
872.793644 80.516 31.1131
879.118267 80.538 31.3371
885.488720 80.561 31.5766
891.905336 80.586 31.8294
898.368450 80.612 32.0915
904.878398 80.639 32.3575
911.435520 80.666 32.6227
918.040157 80.693 32.8826
924.692655 80.720 33.1339
931.393359 80.747 33.3730
938.142619 80.775 33.5971
944.940787 80.804 33.8058
951.788218 80.835 34.0017
958.685268 80.868 34.1922
965.632296 80.904 34.3874
972.629666 80.943 34.5946
979.677741 80.984 34.8131
986.776890 81.025 35.0356
993.927482 81.065 35.2523
1001.129891 81.105 35.4549
1008.384491 81.143 35.6372
1015.691660 81.181 35.7953
1023.051781 81.217 35.9280
1030.465236 81.253 36.0368
1037.932411 81.289 36.1235
1045.453698 81.326 36.1886
1053.029486 81.364 36.2332
1060.660172 81.404 36.2628
1068.346153 81.443 36.2878
1076.087829 81.483 36.3201
1083.885605 81.522 36.3688
1091.739887 81.561 36.4386
1099.651084 81.602 36.5290
1107.619609 81.644 36.6350
1115.645878 81.688 36.7477
1123.730308 81.733 36.8575
1131.873321 81.777 36.9561
1140.075341 81.820 37.0367
1148.336797 81.862 37.0932
1156.658119 81.903 37.1227
1165.039741 81.941 37.1274
1173.482099 81.979 37.1129
1181.985634 82.014 37.0863
1190.550789 82.049 37.0554
1199.178011 82.083 37.0263
1207.867749 82.117 37.0015
1216.620457 82.151 36.9798
1225.436590 82.183 36.9572
1234.316609 82.214 36.9265
1243.260976 82.241 36.8793
1252.270157 82.265 36.8103
1261.344623 82.286 36.7204
1270.484846 82.303 36.6154
1279.691303 82.318 36.5037
1288.964474 82.332 36.3930
1298.304842 82.345 36.2903
1307.712894 82.357 36.2007
1317.189120 82.370 36.1255
1326.734016 82.381 36.0605
1336.348077 82.389 35.9992
1346.031806 82.394 35.9356
1355.785708 82.396 35.8657
1365.610290 82.392 35.7882
1375.506065 82.384 35.7046
1385.473549 82.372 35.6197
1395.513261 82.357 35.5421
1405.625726 82.340 35.4836
1415.811469 82.322 35.4561
1426.071023 82.304 35.4665
1436.404921 82.285 35.5141
1446.813703 82.264 35.5916
1457.297912 82.241 35.6893
1467.858093 82.216 35.7983
1478.494798 82.189 35.9110
1489.208581 82.161 36.0212
1500.000000 82.130 36.1261
1510.869618 82.098 36.2278
1521.818002 82.064 36.3314
1532.845723 82.026 36.4431
1543.953355 81.985 36.5702
1555.141477 81.942 36.7216
1566.410674 81.899 36.9092
1577.761531 81.855 37.1477
1589.194642 81.813 37.4523
1600.710601 81.772 37.8354
1612.310010 81.732 38.3039
1623.993473 81.696 38.8585
1635.761599 81.662 39.4943
1647.615002 81.633 40.2029
1659.554299 81.609 40.9751
1671.580114 81.591 41.8029
1683.693072 81.580 42.6815
1695.893807 81.577 43.6090
1708.182952 81.585 44.5871
1720.561150 81.606 45.6207
1733.029045 81.645 46.7119
1745.587288 81.705 47.8531
1758.236533 81.789 49.0206
1770.977440 81.897 50.1777
1783.810673 82.028 51.2817
1796.736900 82.180 52.2899
1809.756796 82.347 53.1642
1822.871040 82.522 53.8777
1836.080315 82.702 54.4192
1849.385310 82.880 54.7941
1862.786718 83.057 55.0210
1876.285239 83.229 55.1256
1889.881575 83.397 55.1351
1903.576436 83.563 55.0739
1917.370535 83.725 54.9603
1931.264593 83.886 54.8058
1945.259332 84.045 54.6178
1959.355483 84.203 54.4013
1973.553781 84.359 54.1595
1987.854965 84.512 53.8928
2002.259781 84.661 53.5988
2016.768981 84.806 53.2729
2031.383320 84.944 52.9093
2046.103561 85.073 52.5012
2060.930471 85.192 52.0424
2075.864823 85.300 51.5295
2090.907395 85.398 50.9635
2106.058972 85.487 50.3523
2121.320344 85.569 49.7125
2136.692305 85.644 49.0668
2152.175658 85.715 48.4362
2167.771210 85.782 47.8347
2183.479774 85.845 47.2667
2199.302169 85.904 46.7276
2215.239219 85.959 46.2073
2231.291755 86.009 45.6927
2247.460615 86.054 45.1705
2263.746641 86.095 44.6299
2280.150683 86.131 44.0651
2296.673595 86.163 43.4745
2313.316238 86.192 42.8600
2330.079481 86.217 42.2255
2346.964198 86.238 41.5763
2363.971268 86.256 40.9206
2381.101578 86.270 40.2689
2398.356022 86.281 39.6328
2415.735498 86.290 39.0242
2433.240913 86.296 38.4551
2450.873180 86.302 37.9377
2468.633217 86.308 37.4810
2486.521951 86.316 37.0861
2504.540314 86.325 36.7434
2522.689246 86.335 36.4326
2540.969692 86.343 36.1271
2559.382606 86.351 35.8023
2577.928947 86.355 35.4425
2596.609683 86.356 35.0434
2615.425787 86.353 34.6124
2634.378241 86.347 34.1662
2653.468031 86.339 33.7278
2672.696154 86.331 33.3210
2692.063613 86.323 32.9636
2711.571415 86.316 32.6613
2731.220579 86.310 32.4058
2751.012130 86.305 32.1766
2770.947098 86.301 31.9476
2791.026522 86.297 31.6942
2811.251451 86.292 31.4017
2831.622938 86.286 31.0666
2852.142045 86.279 30.6955
2872.809842 86.273 30.3052
2893.627406 86.266 29.9180
2914.595823 86.261 29.5516
2935.716186 86.256 29.2142
2956.989596 86.252 28.9041
2978.417161 86.245 28.6119
3000.000000 86.236 28.3210
3021.739237 86.223 28.0121
3043.636005 86.205 27.6685
3065.691446 86.183 27.2819
3087.906710 86.156 26.8541
3110.282955 86.126 26.3989
3132.821347 86.092 25.9410
3155.523062 86.057 25.5106
3178.389283 86.021 25.1357
3201.421202 85.983 24.8330
3224.620020 85.944 24.6040
3247.986946 85.905 24.4336
3271.523198 85.865 24.2947
3295.230004 85.826 24.1565
3319.108599 85.785 23.9918
3343.160228 85.744 23.7842
3367.386145 85.701 23.5308
3391.787613 85.657 23.2448
3416.365904 85.613 22.9515
3441.122300 85.570 22.6799
3466.058091 85.528 22.4528
3491.174576 85.487 22.2803
3516.473066 85.449 22.1583
3541.954880 85.411 22.0696
3567.621345 85.372 21.9888
3593.473800 85.330 21.8884
3619.513592 85.285 21.7456
3645.742080 85.236 21.5463
3672.160630 85.185 21.2865
3698.770620 85.131 20.9714
3725.573436 85.077 20.6124
3752.570477 85.022 20.2234
3779.763150 84.967 19.8201
3807.152872 84.910 19.4175
3834.741071 84.853 19.0309
3862.529185 84.795 18.6781
3890.518664 84.735 18.3805
3918.710966 84.675 18.1588
3947.107561 84.615 18.0256
3975.709929 84.555 17.9815
4004.519563 84.495 18.0128
4033.537962 84.433 18.0930
4062.766641 84.369 18.1875
4092.207123 84.304 18.2629
4121.860942 84.237 18.2966
4151.729646 84.168 18.2830
4181.814790 84.098 18.2345
4212.117944 84.027 18.1777
4242.640687 83.956 18.1467
4273.384610 83.884 18.1737
4304.351317 83.813 18.2820
4335.542421 83.743 18.4786
4366.959549 83.674 18.7538
4398.604338 83.607 19.0828
4430.478438 83.542 19.4333
4462.583511 83.478 19.7732
4494.921231 83.415 20.0796
4527.493283 83.351 20.3459
4560.301365 83.289 20.5851
4593.347189 83.227 20.8267
4626.632476 83.169 21.1077
4660.158962 83.116 21.4628
4693.928395 83.069 21.9136
4727.942535 83.029 22.4630
4762.203156 82.997 23.0932
4796.712043 82.973 23.7706
4831.470996 82.956 24.4542
4866.481826 82.946 25.1050
4901.746360 82.942 25.6967
4937.266434 82.945 26.2221
4973.043902 82.957 26.6947
5009.080628 82.978 27.1434
5045.378492 83.011 27.6028
5081.939384 83.057 28.1007
5118.765212 83.117 28.6475
5155.857894 83.192 29.2296
5193.219366 83.280 29.8110
5230.851574 83.382 30.3388
5268.756481 83.495 30.7547
5306.936062 83.616 31.0058
5345.392309 83.745 31.0540
5384.127225 83.877 30.8798
5423.142830 84.013 30.4817
5462.441159 84.149 29.8712
5502.024259 84.282 29.0659
5541.894195 84.408 28.0855
5582.053045 84.525 26.9515
5622.502902 84.630 25.6888
5663.245876 84.718 24.3286
5704.284090 84.788 22.9088
5745.619684 84.838 21.4729
5787.254813 84.867 20.0616
5829.191647 84.873 18.7038
5871.432373 84.855 17.4087
5913.979192 84.812 16.1671
5956.834323 84.743 14.9573
6000.000000 84.647 13.7550
6043.478473 84.524 12.5432
6087.272010 84.373 11.3230
6131.382892 84.198 10.1199
6175.813420 84.000 8.9846
6220.565910 83.783 7.9845
6265.642695 83.552 7.1909
6311.046124 83.313 6.6620
6356.778566 83.073 6.4237
6402.842404 82.839 6.4512
6449.240040 82.615 6.6647
6495.973891 82.402 6.9507
6543.046396 82.193 7.2130
6590.460007 81.976 7.4178
6638.217197 81.747 7.5936
6686.320456 81.506 7.7983
6734.772290 81.258 8.0925
6783.575226 81.010 8.5259
6832.731809 80.768 9.1356
6882.244600 80.540 9.9503
6932.116181 80.329 10.9962
6982.349153 80.145 12.3000
7032.946133 79.993 13.8841
7083.909760 79.883 15.7570
7135.242690 79.825 17.8991
7186.947600 79.824 20.2526
7239.027185 79.881 22.7348
7291.484160 79.992 25.2682
7344.321260 80.156 27.7864
7397.541239 80.375 30.2122
7451.146872 80.655 32.4476
7505.140954 80.997 34.3870
7559.526299 81.403 35.9386
7614.305743 81.868 37.0360
7669.482141 82.383 37.6355
7725.058371 82.935 37.7091
7781.037328 83.505 37.2376
7837.421932 84.075 36.2046
7894.215122 84.621 34.5948
7951.419859 85.119 32.4004
8009.039125 85.549 29.6346
8067.075924 85.891 26.3429
8125.533282 86.131 22.6105
8184.414245 86.260 18.5634
8243.721885 86.276 14.3653
8303.459292 86.186 10.2064
8363.629581 86.002 6.2800
8424.235888 85.741 2.7589
8485.281374 85.424 -0.2261
8546.769221 85.071 -2.6023
8608.702634 84.705 -4.3661
8671.084842 84.343 -5.5819
8733.919097 83.999 -6.3654
8797.208675 83.683 -6.8597
8860.956876 83.400 -7.2089
8925.167022 83.152 -7.5292
8989.842461 82.940 -7.8887
9054.986566 82.762 -8.3028
9120.602731 82.617 -8.7479
9186.694378 82.502 -9.1843
9253.264952 82.414 -9.5792
9320.317925 82.352 -9.9277
9387.856790 82.311 -10.2656
9455.885071 82.289 -10.6661
9524.406312 82.279 -11.2239
9593.424086 82.277 -12.0361
9662.941992 82.277 -13.1814
9732.963653 82.271 -14.7009
9803.492719 82.255 -16.5872
9874.532869 82.222 -18.7880
9946.087805 82.167 -21.2211
10018.161257 82.083 -23.7920
10090.756983 81.965 -26.4120
10163.878768 81.808 -29.0143
10237.530423 81.606 -31.5667
10311.715789 81.355 -34.0707
10386.438732 81.053 -36.5511
10461.703149 80.696 -39.0399
10537.512962 80.286 -41.5604
10613.872125 79.824 -44.1130
10690.784618 79.312 -46.6659
10768.254450 78.757 -49.1610
10846.285661 78.163 -51.5304
10924.882318 77.537 -53.7112
11004.048518 76.884 -55.6521
11083.788390 76.210 -57.3121
11164.106090 75.521 -58.6568
11245.005805 74.822 -59.6516
11326.491752 74.117 -60.2562
11408.568180 73.412 -60.4249
11491.239368 72.709 -60.1179
11574.509626 72.013 -59.3206
11658.383294 71.326 -58.0603
11742.864745 70.649 -56.4097
11827.958384 69.986 -54.4731
11913.668646 69.336 -52.3640
12000.000000 68.700 -50.1770
12086.956947 68.081 -47.9613
12174.544019 67.478 -45.7075
12262.765784 66.892 -43.3542
12351.626840 66.324 -40.8074
12441.131819 65.776 -37.9629
12531.285389 65.248 -34.7341
12622.092249 64.742 -31.0784
12713.557132 64.259 -27.0077
12805.684808 63.799 -22.5787
12898.480079 63.364 -17.8712
12991.947783 62.957 -12.9628
13086.092792 62.584 -7.8995
13180.920015 62.254 -2.6725
13276.434395 61.985 2.7806
13372.640911 61.798 8.5498
13469.544580 61.721 14.7159
13567.150452 61.787 21.3119
13665.463617 62.029 28.2860
13764.489200 62.476 35.4768
13864.232362 63.137 42.6200
13964.698305 64.002 49.3888
14065.892266 65.040 55.4510
14167.819519 66.205 60.5122
14270.485380 67.449 64.3380
14373.895200 68.724 66.7607
14478.054370 69.985 67.6839
14582.968320 71.191 67.0832
14688.642520 72.309 65.0037
14795.082478 73.308 61.5621
14902.293745 74.164 56.9563
15010.281908 74.860 51.4702
15119.052599 75.391 45.4548
15228.611486 75.761 39.2869
15338.964283 75.988 33.3177
15450.116741 76.102 27.8192
15562.074656 76.139 22.9361
15674.843864 76.136 18.6614
15788.430244 76.126 14.8497
15902.839718 76.132 11.2593
16018.078250 76.168 7.6002
16134.151848 76.232 3.5876
16251.066563 76.314 -0.9999
16368.828491 76.392 -6.2786
16487.443769 76.440 -12.2560
16606.918584 76.427 -18.8547
16727.259161 76.323 -25.9374
16848.471777 76.100 -33.3185
16970.562748 75.739 -40.7729
17093.538442 75.231 -48.0537
17217.405268 74.579 -54.9156
17342.169684 73.795 -61.1313
17467.838194 72.900 -66.5002
17594.417350 71.920 -70.8666
17721.913751 70.881 -74.1491
17850.334044 69.813 -76.3667
17979.684923 68.740 -77.6417
18109.973131 67.685 -78.1823
18241.205462 66.666 -78.2496
18373.388756 65.698 -78.1102
18506.529905 64.787 -77.9782
18640.635849 63.934 -77.9747
18775.713581 63.135 -78.1258
18911.770141 62.385 -78.3867
19048.812624 61.673 -78.6760
19186.848172 60.991 -78.9138
19325.883983 60.334 -79.0574
19465.927305 59.699 -79.1152
19606.985439 59.100 -79.1313
19749.065738 58.568 -79.1498
19892.175609 58.156 -79.1868
20036.322514 57.929 -79.2218
