* Measurement data measured by REW V5.31.3
* Source: Headset (CX31993 HIFI AUDIO), MICROPHONE (Master Volume), R, volume: 0.250
* Format: 256k Log Swept Sine, 1 sweep at -12.0 dBFS with no timing reference
* Dated: 12 31, 24 1:04:46 PM
* REW Settings:
*  C-weighting compensation: Off
*  Target level: 75.0 dB
* Note: ; 
* Measurement: Sony LB 16K MAX L
* Smoothing: 1/12 octave
* Frequency Step: 96 ppo
* Start Frequency: 0.36621094 Hz
*
* Freq(Hz) SPL(dB) Phase(degrees)
0.366211 31.913 -177.9085
0.368865 31.922 -177.8594
0.371538 31.935 -177.7866
0.374230 31.951 -177.6962
0.376942 31.969 -177.5937
0.379673 31.988 -177.4830
0.382424 32.008 -177.3667
0.385196 32.029 -177.2464
0.387987 32.050 -177.1230
0.390798 32.071 -176.9970
0.393630 32.093 -176.8685
0.396483 32.114 -176.7378
0.399356 32.136 -176.6048
0.402250 32.158 -176.4695
0.405165 32.180 -176.3319
0.408101 32.202 -176.1920
0.411058 32.225 -176.0497
0.414037 32.247 -175.9049
0.417037 32.270 -175.7577
0.420059 32.293 -175.6080
0.423103 32.316 -175.4557
0.426169 32.339 -175.3007
0.429257 32.363 -175.1431
0.432368 32.386 -174.9827
0.435501 32.410 -174.8196
0.438656 32.434 -174.6536
0.441835 32.458 -174.4848
0.445037 32.482 -174.3130
0.448262 32.507 -174.1382
0.451510 32.532 -173.9604
0.454782 32.556 -173.7795
0.458077 32.581 -173.5955
0.461397 32.607 -173.4084
0.464740 32.632 -173.2180
0.468108 32.657 -173.0243
0.471500 32.683 -172.8273
0.474917 32.709 -172.6270
0.478358 32.735 -172.4233
0.481825 32.762 -172.2161
0.485316 32.788 -172.0055
0.488833 32.815 -171.7914
0.492375 32.842 -171.5737
0.495943 32.869 -171.3524
0.499537 32.896 -171.1276
0.503157 32.923 -170.8991
0.506803 32.951 -170.6670
0.510475 32.979 -170.4312
0.514175 33.007 -170.1917
0.517900 33.035 -169.9485
0.521653 33.064 -169.7017
0.525434 33.092 -169.4511
0.529241 33.121 -169.1968
0.533076 33.150 -168.9388
0.536939 33.180 -168.6772
0.540830 33.209 -168.4118
0.544749 33.239 -168.1428
0.548696 33.269 -167.8702
0.552673 33.299 -167.5940
0.556677 33.329 -167.3143
0.560711 33.360 -167.0311
0.564774 33.391 -166.7444
0.568867 33.422 -166.4543
0.572989 33.453 -166.1609
0.577141 33.485 -165.8643
0.581324 33.516 -165.5645
0.585536 33.548 -165.2617
0.589779 33.581 -164.9559
0.594053 33.613 -164.6472
0.598358 33.646 -164.3358
0.602694 33.679 -164.0218
0.607061 33.712 -163.7053
0.611460 33.745 -163.3865
0.615891 33.779 -163.0655
0.620354 33.813 -162.7425
0.624849 33.847 -162.4176
0.629377 33.881 -162.0911
0.633938 33.916 -161.7630
0.638532 33.950 -161.4337
0.643159 33.986 -161.1033
0.647819 34.021 -160.7719
0.652514 34.057 -160.4399
0.657242 34.092 -160.1075
0.662005 34.129 -159.7749
0.666802 34.165 -159.4422
0.671634 34.202 -159.1099
0.676501 34.239 -158.7780
0.681403 34.276 -158.4469
0.686341 34.313 -158.1168
0.691314 34.351 -157.7879
0.696324 34.390 -157.4605
0.701370 34.429 -157.1349
0.706452 34.469 -156.8111
0.711571 34.510 -156.4892
0.716728 34.553 -156.1694
0.721921 34.599 -155.8514
0.727153 34.649 -155.5347
0.732422 34.705 -155.2190
0.737729 34.767 -154.9033
0.743075 34.834 -154.5870
0.748460 34.907 -154.2696
0.753883 34.984 -153.9507
0.759346 35.064 -153.6304
0.764849 35.148 -153.3087
0.770391 35.235 -152.9858
0.775974 35.324 -152.6622
0.781597 35.416 -152.3382
0.787261 35.510 -152.0142
0.792966 35.606 -151.6905
0.798712 35.705 -151.3676
0.804500 35.806 -151.0459
0.810329 35.910 -150.7258
0.816201 36.016 -150.4078
0.822116 36.124 -150.0921
0.828073 36.234 -149.7794
0.834074 36.347 -149.4699
0.840118 36.462 -149.1640
0.846206 36.579 -148.8622
0.852338 36.698 -148.5649
0.858514 36.819 -148.2724
0.864735 36.942 -147.9852
0.871001 37.067 -147.7036
0.877313 37.194 -147.4279
0.883670 37.323 -147.1586
0.890074 37.454 -146.8960
0.896524 37.587 -146.6404
0.903020 37.721 -146.3922
0.909564 37.857 -146.1518
0.916155 37.995 -145.9193
0.922794 38.134 -145.6952
0.929481 38.275 -145.4797
0.936216 38.417 -145.2731
0.943000 38.560 -145.0758
0.949834 38.705 -144.8879
0.956717 38.851 -144.7097
0.963649 38.997 -144.5415
0.970632 39.145 -144.3835
0.977666 39.294 -144.2360
0.984750 39.443 -144.0990
0.991886 39.593 -143.9729
0.999074 39.744 -143.8579
1.006314 39.895 -143.7540
1.013606 40.046 -143.6615
1.020951 40.197 -143.5805
1.028349 40.349 -143.5112
1.035801 40.500 -143.4536
1.043307 40.651 -143.4078
1.050867 40.802 -143.3739
1.058482 40.952 -143.3517
1.066152 41.102 -143.3411
1.073878 41.251 -143.3417
1.081660 41.399 -143.3527
1.089498 41.547 -143.3731
1.097393 41.695 -143.4013
1.105345 41.842 -143.4356
1.113355 41.990 -143.4743
1.121423 42.139 -143.5159
1.129549 42.288 -143.5596
1.137734 42.437 -143.6050
1.145979 42.588 -143.6518
1.154283 42.740 -143.7001
1.162647 42.892 -143.7503
1.171072 43.045 -143.8025
1.179558 43.199 -143.8572
1.188106 43.354 -143.9145
1.196715 43.510 -143.9750
1.205387 43.667 -144.0388
1.214122 43.825 -144.1064
1.222920 43.983 -144.1781
1.231782 44.142 -144.2541
1.240708 44.301 -144.3349
1.249699 44.462 -144.4205
1.258754 44.622 -144.5115
1.267876 44.784 -144.6079
1.277063 44.946 -144.7102
1.286318 45.109 -144.8185
1.295639 45.272 -144.9331
1.305027 45.435 -145.0543
1.314484 45.599 -145.1823
1.324009 45.763 -145.3174
1.333604 45.927 -145.4596
1.343268 46.092 -145.6094
1.353002 46.257 -145.7669
1.362806 46.422 -145.9324
1.372681 46.587 -146.1059
1.382628 46.752 -146.2877
1.392647 46.917 -146.4780
1.402739 47.082 -146.6768
1.412904 47.247 -146.8842
1.423142 47.412 -147.1001
1.433455 47.576 -147.3242
1.443843 47.740 -147.5560
1.454305 47.904 -147.7945
1.464844 48.068 -148.0386
1.475459 48.231 -148.2866
1.486150 48.394 -148.5372
1.496920 48.556 -148.7893
1.507767 48.719 -149.0423
1.518693 48.881 -149.2959
1.529698 49.043 -149.5501
1.540783 49.204 -149.8051
1.551948 49.366 -150.0612
1.563194 49.527 -150.3189
1.574521 49.688 -150.5784
1.585931 49.849 -150.8403
1.597423 50.010 -151.1049
1.608999 50.170 -151.3726
1.620658 50.330 -151.6439
1.632402 50.490 -151.9192
1.644232 50.650 -152.1988
1.656146 50.810 -152.4831
1.668147 50.970 -152.7726
1.680235 51.129 -153.0676
1.692411 51.289 -153.3684
1.704675 51.448 -153.6755
1.717028 51.608 -153.9892
1.729470 51.767 -154.3098
1.742003 51.926 -154.6377
1.754626 52.086 -154.9731
1.767341 52.245 -155.3162
1.780147 52.404 -155.6672
1.793047 52.563 -156.0260
1.806040 52.722 -156.3924
1.819128 52.882 -156.7658
1.832310 53.041 -157.1454
1.845587 53.199 -157.5302
1.858961 53.357 -157.9191
1.872432 53.515 -158.3113
1.886001 53.673 -158.7062
1.899667 53.830 -159.1033
1.913433 53.986 -159.5024
1.927299 54.142 -159.9035
1.941265 54.297 -160.3066
1.955332 54.452 -160.7118
1.969501 54.607 -161.1191
1.983773 54.761 -161.5288
1.998148 54.915 -161.9408
2.012627 55.068 -162.3555
2.027212 55.221 -162.7731
2.041902 55.374 -163.1936
2.056698 55.526 -163.6174
2.071602 55.678 -164.0446
2.086614 55.830 -164.4756
2.101734 55.981 -164.9105
2.116964 56.133 -165.3495
2.132304 56.284 -165.7930
2.147756 56.435 -166.2410
2.163320 56.586 -166.6936
2.178996 56.737 -167.1509
2.194786 56.887 -167.6125
2.210690 57.037 -168.0783
2.226710 57.187 -168.5477
2.242845 57.336 -169.0204
2.259098 57.484 -169.4959
2.275468 57.632 -169.9739
2.291957 57.779 -170.4542
2.308566 57.925 -170.9366
2.325295 58.071 -171.4208
2.342145 58.216 -171.9068
2.359117 58.361 -172.3946
2.376212 58.505 -172.8840
2.393431 58.649 -173.3751
2.410775 58.792 -173.8678
2.428244 58.935 -174.3622
2.445840 59.077 -174.8584
2.463564 59.219 -175.3564
2.481416 59.361 -175.8564
2.499397 59.502 -176.3585
2.517509 59.643 -176.8629
2.535752 59.784 -177.3697
2.554127 59.924 -177.8792
2.572635 60.064 -178.3914
2.591277 60.203 -178.9065
2.610055 60.342 -179.4243
2.628968 60.480 -179.9447
2.648019 60.617 179.5324
2.667208 60.753 179.0075
2.686535 60.889 178.4808
2.706003 61.024 177.9526
2.725612 61.158 177.4233
2.745363 61.292 176.8930
2.765257 61.425 176.3620
2.785295 61.558 175.8305
2.805478 61.690 175.2987
2.825808 61.822 174.7667
2.846285 61.953 174.2345
2.866910 62.084 173.7022
2.887685 62.215 173.1696
2.908611 62.345 172.6365
2.929688 62.474 172.1027
2.950917 62.603 171.5677
2.972301 62.732 171.0314
2.993839 62.859 170.4936
3.015534 62.986 169.9543
3.037386 63.112 169.4139
3.059396 63.238 168.8725
3.081565 63.363 168.3305
3.103896 63.487 167.7882
3.126388 63.611 167.2460
3.149043 63.734 166.7042
3.171862 63.856 166.1631
3.194847 63.978 165.6229
3.217998 64.100 165.0838
3.241317 64.221 164.5458
3.264805 64.342 164.0089
3.288463 64.463 163.4728
3.312293 64.583 162.9373
3.336295 64.702 162.4020
3.360471 64.821 161.8667
3.384822 64.940 161.3312
3.409350 65.057 160.7957
3.434056 65.174 160.2602
3.458940 65.291 159.7251
3.484005 65.407 159.1905
3.509252 65.522 158.6567
3.534681 65.637 158.1240
3.560295 65.752 157.5925
3.586094 65.866 157.0625
3.612081 65.980 156.5339
3.638255 66.094 156.0069
3.664620 66.208 155.4811
3.691175 66.321 154.9564
3.717923 66.434 154.4326
3.744864 66.546 153.9096
3.772001 66.658 153.3871
3.799335 66.769 152.8652
3.826866 66.880 152.3440
3.854597 66.990 151.8234
3.882529 67.101 151.3036
3.910664 67.211 150.7845
3.939002 67.320 150.2664
3.967546 67.430 149.7491
3.996296 67.539 149.2327
4.025255 67.648 148.7171
4.054423 67.757 148.2022
4.083804 67.865 147.6879
4.113396 67.974 147.1740
4.143204 68.082 146.6605
4.173227 68.189 146.1473
4.203468 68.296 145.6342
4.233928 68.403 145.1213
4.264609 68.510 144.6084
4.295512 68.616 144.0954
4.326639 68.722 143.5823
4.357992 68.828 143.0688
4.389572 68.934 142.5550
4.421380 69.039 142.0406
4.453419 69.144 141.5258
4.485691 69.249 141.0103
4.518196 69.353 140.4941
4.550936 69.457 139.9774
4.583914 69.560 139.4601
4.617131 69.663 138.9422
4.650589 69.766 138.4236
4.684289 69.868 137.9042
4.718233 69.970 137.3839
4.752424 70.071 136.8625
4.786862 70.172 136.3398
4.821549 70.272 135.8158
4.856488 70.372 135.2905
4.891680 70.471 134.7639
4.927127 70.569 134.2364
4.962831 70.667 133.7082
4.998794 70.764 133.1794
5.035017 70.860 132.6504
5.071503 70.956 132.1210
5.108253 71.050 131.5913
5.145270 71.144 131.0609
5.182555 71.237 130.5298
5.220110 71.330 129.9978
5.257937 71.421 129.4653
5.296038 71.512 128.9327
5.334415 71.601 128.4005
5.373071 71.690 127.8693
5.412006 71.777 127.3394
5.451224 71.864 126.8111
5.490725 71.950 126.2845
5.530514 72.034 125.7592
5.570590 72.118 125.2353
5.610957 72.200 124.7129
5.651616 72.282 124.1923
5.692570 72.362 123.6741
5.733821 72.441 123.1590
5.775370 72.520 122.6476
5.817221 72.597 122.1405
5.859375 72.674 121.6376
5.901834 72.749 121.1391
5.944602 72.824 120.6447
5.987679 72.897 120.1547
6.031068 72.970 119.6692
6.074771 73.041 119.1887
6.118792 73.112 118.7137
6.163131 73.183 118.2448
6.207792 73.252 117.7822
6.252776 73.321 117.3260
6.298086 73.389 116.8762
6.343725 73.457 116.4326
6.389694 73.524 115.9953
6.435996 73.591 115.5642
6.482634 73.657 115.1396
6.529610 73.723 114.7214
6.576926 73.789 114.3098
6.624585 73.855 113.9047
6.672590 73.920 113.5062
6.720942 73.986 113.1138
6.769645 74.051 112.7273
6.818700 74.117 112.3463
6.868111 74.182 111.9705
6.917881 74.248 111.5996
6.968010 74.314 111.2334
7.018504 74.380 110.8717
7.069362 74.447 110.5142
7.120590 74.514 110.1606
7.172189 74.581 109.8102
7.224161 74.648 109.4625
7.276511 74.716 109.1170
7.329239 74.784 108.7733
7.382350 74.852 108.4312
7.435845 74.920 108.0904
7.489729 74.989 107.7505
7.544002 75.059 107.4111
7.598669 75.128 107.0717
7.653732 75.198 106.7321
7.709194 75.267 106.3917
7.765058 75.337 106.0505
7.821327 75.407 105.7083
7.878004 75.478 105.3649
7.935091 75.548 105.0202
7.992592 75.618 104.6739
8.050510 75.688 104.3258
8.108847 75.758 103.9760
8.167607 75.828 103.6242
8.226793 75.898 103.2706
8.286408 75.967 102.9150
8.346454 76.037 102.5575
8.406936 76.106 102.1981
8.467856 76.175 101.8367
8.529218 76.244 101.4734
8.591024 76.312 101.1081
8.653278 76.380 100.7408
8.715983 76.448 100.3717
8.779143 76.515 100.0007
8.842760 76.582 99.6278
8.906839 76.649 99.2530
8.971381 76.715 98.8763
9.036392 76.781 98.4977
9.101873 76.846 98.1171
9.167829 76.912 97.7347
9.234263 76.976 97.3504
9.301178 77.040 96.9642
9.368578 77.104 96.5762
9.436467 77.168 96.1864
9.504847 77.230 95.7949
9.573723 77.293 95.4017
9.643099 77.354 95.0070
9.712976 77.415 94.6108
9.783361 77.476 94.2134
9.854255 77.536 93.8149
9.925663 77.595 93.4156
9.997588 77.654 93.0154
10.070035 77.713 92.6148
10.143007 77.770 92.2139
10.216507 77.827 91.8130
10.290540 77.884 91.4123
10.365109 77.940 91.0119
10.440219 77.995 90.6121
10.515873 78.051 90.2128
10.592076 78.105 89.8144
10.668830 78.160 89.4169
10.746141 78.214 89.0202
10.824012 78.268 88.6244
10.902447 78.321 88.2293
10.981451 78.375 87.8349
11.061027 78.428 87.4409
11.141180 78.481 87.0473
11.221913 78.534 86.6538
11.303232 78.587 86.2601
11.385140 78.640 85.8660
11.467641 78.692 85.4713
11.550741 78.745 85.0757
11.634442 78.798 84.6793
11.718750 78.850 84.2816
11.803669 78.902 83.8828
11.889203 78.954 83.4828
11.975357 79.006 83.0818
12.062136 79.057 82.6797
12.149543 79.108 82.2770
12.237583 79.158 81.8737
12.326262 79.208 81.4703
12.415583 79.258 81.0671
12.505552 79.307 80.6645
12.596172 79.356 80.2628
12.687449 79.404 79.8624
12.779387 79.452 79.4636
12.871992 79.500 79.0667
12.965268 79.548 78.6719
13.059220 79.595 78.2792
13.153852 79.643 77.8886
13.249170 79.690 77.5002
13.345179 79.737 77.1136
13.441884 79.785 76.7285
13.539289 79.832 76.3447
13.637401 79.880 75.9616
13.736223 79.927 75.5789
13.835761 79.975 75.1961
13.936021 80.023 74.8127
14.037007 80.071 74.4283
14.138725 80.119 74.0426
14.241180 80.167 73.6553
14.344377 80.214 73.2664
14.448323 80.262 72.8759
14.553021 80.308 72.4839
14.658478 80.354 72.0907
14.764700 80.400 71.6967
14.871691 80.445 71.3025
14.979457 80.489 70.9086
15.088005 80.532 70.5160
15.197339 80.574 70.1252
15.307465 80.616 69.7372
15.418389 80.657 69.3526
15.530117 80.697 68.9724
15.642655 80.736 68.5971
15.756008 80.775 68.2273
15.870182 80.813 67.8633
15.985184 80.852 67.5054
16.101019 80.890 67.1535
16.217694 80.928 66.8072
16.335214 80.967 66.4659
16.453586 81.006 66.1288
16.572815 81.046 65.7947
16.692909 81.087 65.4623
16.813872 81.128 65.1298
16.935713 81.170 64.7957
17.058436 81.213 64.4580
17.182048 81.256 64.1152
17.306556 81.300 63.7656
17.431967 81.343 63.4081
17.558286 81.387 63.0417
17.685521 81.430 62.6660
17.813677 81.472 62.2812
17.942762 81.513 61.8880
18.072783 81.552 61.4875
18.203746 81.589 61.0815
18.335658 81.624 60.6719
18.468526 81.657 60.2611
18.602356 81.688 59.8513
18.737156 81.717 59.4446
18.872934 81.744 59.0431
19.009695 81.769 58.6482
19.147447 81.793 58.2608
19.286197 81.816 57.8815
19.425953 81.838 57.5101
19.566721 81.860 57.1464
19.708510 81.881 56.7897
19.851326 81.902 56.4395
19.995177 81.922 56.0957
20.140070 81.941 55.7585
20.286013 81.960 55.4288
20.433014 81.978 55.1081
20.581080 81.996 54.7984
20.730219 82.013 54.5020
20.880439 82.030 54.2210
21.031747 82.048 53.9571
21.184152 82.066 53.7110
21.337661 82.087 53.4818
21.492282 82.111 53.2669
21.648024 82.139 53.0620
21.804895 82.171 52.8609
21.962902 82.208 52.6562
22.122054 82.249 52.4402
22.282360 82.294 52.2050
22.443827 82.343 51.9441
22.606464 82.393 51.6528
22.770280 82.444 51.3290
22.935283 82.493 50.9731
23.101481 82.541 50.5884
23.268884 82.585 50.1801
23.437500 82.626 49.7551
23.607338 82.662 49.3212
23.778406 82.694 48.8859
23.950714 82.723 48.4557
24.124271 82.748 48.0356
24.299086 82.772 47.6285
24.475167 82.794 47.2355
24.652524 82.816 46.8561
24.831166 82.837 46.4883
25.011103 82.859 46.1297
25.192344 82.881 45.7782
25.374898 82.903 45.4321
25.558775 82.926 45.0904
25.743984 82.948 44.7530
25.930536 82.971 44.4202
26.118439 82.993 44.0921
26.307704 83.017 43.7686
26.498341 83.040 43.4486
26.690359 83.065 43.1301
26.883768 83.091 42.8105
27.078579 83.118 42.4867
27.274801 83.145 42.1564
27.472446 83.172 41.8180
27.671522 83.198 41.4712
27.872042 83.224 41.1176
28.074014 83.248 40.7598
28.277450 83.270 40.4013
28.482360 83.290 40.0458
28.688755 83.309 39.6965
28.896645 83.327 39.3553
29.106042 83.344 39.0228
29.316957 83.362 38.6982
29.529400 83.380 38.3796
29.743382 83.398 38.0648
29.958915 83.418 37.7513
30.176009 83.437 37.4371
30.394677 83.457 37.1209
30.614929 83.477 36.8019
30.836778 83.496 36.4797
31.060234 83.516 36.1541
31.285309 83.534 35.8250
31.512015 83.552 35.4926
31.740364 83.570 35.1578
31.970368 83.585 34.8217
32.202039 83.600 34.4863
32.435388 83.613 34.1539
32.670428 83.625 33.8270
32.907171 83.637 33.5072
33.145630 83.648 33.1950
33.385817 83.659 32.8896
33.627745 83.671 32.5883
33.871425 83.684 32.2880
34.116871 83.697 31.9857
34.364096 83.710 31.6794
34.613113 83.723 31.3689
34.863934 83.736 31.0558
35.116572 83.747 30.7426
35.371041 83.758 30.4324
35.627354 83.768 30.1273
35.885525 83.778 29.8275
36.145566 83.789 29.5317
36.407492 83.800 29.2373
36.671316 83.812 28.9413
36.937051 83.825 28.6416
37.204712 83.838 28.3375
37.474313 83.850 28.0298
37.745867 83.861 27.7203
38.019389 83.872 27.4110
38.294893 83.883 27.1032
38.572394 83.893 26.7972
38.851905 83.903 26.4930
39.133442 83.912 26.1901
39.417019 83.921 25.8887
39.702651 83.929 25.5896
39.990353 83.937 25.2941
40.280140 83.945 25.0033
40.572026 83.952 24.7169
40.866028 83.960 24.4337
41.162160 83.968 24.1516
41.460438 83.976 23.8682
41.760877 83.983 23.5824
42.063494 83.990 23.2948
42.368303 83.996 23.0073
42.675322 84.001 22.7227
42.984565 84.005 22.4429
43.296048 84.010 22.1681
43.609789 84.014 21.8965
43.925804 84.020 21.6247
44.244108 84.025 21.3491
44.564719 84.031 21.0674
44.887654 84.036 20.7791
45.212928 84.040 20.4861
45.540560 84.043 20.1917
45.870565 84.045 19.8991
46.202962 84.046 19.6110
46.537768 84.046 19.3283
46.875000 84.047 19.0507
47.214676 84.048 18.7767
47.556813 84.049 18.5047
47.901429 84.051 18.2330
48.248542 84.053 17.9606
48.598171 84.055 17.6870
48.950334 84.057 17.4121
49.305048 84.059 17.1364
49.662333 84.060 16.8602
50.022206 84.061 16.5844
50.384688 84.062 16.3090
50.749796 84.063 16.0343
51.117550 84.064 15.7600
51.487969 84.064 15.4861
51.861072 84.064 15.2125
52.236879 84.063 14.9398
52.615409 84.062 14.6683
52.996681 84.061 14.3981
53.380717 84.059 14.1288
53.767536 84.057 13.8604
54.157158 84.054 13.5935
54.549603 84.050 13.3290
54.944892 84.046 13.0687
55.343045 84.042 12.8135
55.744084 84.038 12.5631
56.148028 84.034 12.3162
56.554900 84.030 12.0697
56.964720 84.027 11.8208
57.377510 84.024 11.5671
57.793291 84.021 11.3080
58.212085 84.016 11.0439
58.633914 84.011 10.7770
59.058799 84.004 10.5096
59.486764 83.997 10.2438
59.917829 83.989 9.9807
60.352019 83.980 9.7201
60.789354 83.973 9.4609
61.229859 83.965 9.2017
61.673556 83.958 8.9415
62.120468 83.951 8.6809
62.570618 83.944 8.4215
63.024031 83.937 8.1653
63.480729 83.932 7.9132
63.940736 83.927 7.6653
64.404077 83.923 7.4204
64.870776 83.921 7.1772
65.340856 83.920 6.9331
65.814343 83.919 6.6836
66.291261 83.918 6.4242
66.771635 83.916 6.1536
67.255489 83.911 5.8772
67.742850 83.901 5.6057
68.233743 83.889 5.3495
68.728193 83.875 5.1118
69.226226 83.860 4.8870
69.727867 83.846 4.6648
70.233144 83.831 4.4376
70.742083 83.814 4.2052
71.254709 83.795 3.9724
71.771050 83.775 3.7451
72.291132 83.755 3.5251
72.814984 83.735 3.3104
73.342631 83.717 3.0967
73.874102 83.699 2.8821
74.409424 83.681 2.6672
74.948626 83.664 2.4545
75.491734 83.647 2.2460
76.038779 83.631 2.0422
76.589787 83.615 1.8420
77.144788 83.599 1.6445
77.703811 83.584 1.4482
78.266885 83.568 1.2518
78.834039 83.552 1.0538
79.405303 83.535 0.8530
79.980706 83.517 0.6492
80.560280 83.498 0.4430
81.144053 83.478 0.2349
81.732056 83.458 0.0242
82.324320 83.438 -0.1898
82.920876 83.418 -0.4072
83.521755 83.397 -0.6270
84.126988 83.377 -0.8479
84.736607 83.357 -1.0679
85.350643 83.336 -1.2847
85.969129 83.314 -1.4955
86.592097 83.292 -1.6981
87.219579 83.270 -1.8920
87.851608 83.248 -2.0785
88.488217 83.226 -2.2608
89.129439 83.203 -2.4424
89.775308 83.180 -2.6259
90.425856 83.156 -2.8119
91.081119 83.131 -2.9985
91.741131 83.105 -3.1833
92.405925 83.078 -3.3645
93.075536 83.051 -3.5418
93.750000 83.024 -3.7157
94.429351 82.996 -3.8871
95.113625 82.969 -4.0562
95.802858 82.940 -4.2214
96.497085 82.911 -4.3806
97.196342 82.881 -4.5327
97.900667 82.851 -4.6782
98.610096 82.822 -4.8197
99.324665 82.793 -4.9600
100.044413 82.764 -5.1020
100.769376 82.736 -5.2488
101.499592 82.708 -5.4019
102.235100 82.679 -5.5612
102.975938 82.650 -5.7255
103.722144 82.620 -5.8936
104.473757 82.588 -6.0640
105.230817 82.554 -6.2350
105.993363 82.519 -6.4040
106.761435 82.481 -6.5671
107.535072 82.441 -6.7201
108.314315 82.400 -6.8600
109.099206 82.358 -6.9866
109.889783 82.316 -7.1031
110.686090 82.272 -7.2127
111.488167 82.226 -7.3162
112.296056 82.177 -7.4107
113.109800 82.124 -7.4902
113.929440 82.068 -7.5469
114.755020 82.008 -7.5728
115.586582 81.947 -7.5615
116.424170 81.887 -7.5090
117.267827 81.829 -7.4146
118.117598 81.776 -7.2819
118.973527 81.731 -7.1196
119.835658 81.694 -6.9412
120.704037 81.666 -6.7640
121.578708 81.645 -6.6045
122.459718 81.628 -6.4731
123.347111 81.614 -6.3738
124.240935 81.601 -6.3035
125.141236 81.586 -6.2537
126.048061 81.571 -6.2144
126.961458 81.555 -6.1779
127.881473 81.539 -6.1398
128.808154 81.522 -6.0989
129.741551 81.506 -6.0558
130.681712 81.488 -6.0119
131.628686 81.469 -5.9696
132.582521 81.448 -5.9341
133.543269 81.428 -5.9132
134.510979 81.407 -5.9151
135.485701 81.388 -5.9489
136.467486 81.370 -6.0215
137.456386 81.352 -6.1263
138.452451 81.335 -6.2434
139.455735 81.317 -6.3530
140.466288 81.299 -6.4436
141.484165 81.281 -6.5118
142.509418 81.261 -6.5597
143.542100 81.238 -6.5916
144.582265 81.212 -6.6110
145.629968 81.183 -6.6205
146.685262 81.152 -6.6213
147.748204 81.120 -6.6136
148.818849 81.089 -6.5974
149.897251 81.059 -6.5735
150.983469 81.030 -6.5445
152.077557 81.003 -6.5138
153.179574 80.977 -6.4836
154.289576 80.950 -6.4551
155.407622 80.922 -6.4283
156.533770 80.893 -6.4034
157.668078 80.863 -6.3802
158.810606 80.832 -6.3571
159.961413 80.800 -6.3310
161.120559 80.767 -6.2980
162.288105 80.735 -6.2545
163.464112 80.702 -6.1977
164.648640 80.670 -6.1265
165.841752 80.638 -6.0410
167.043510 80.607 -5.9447
168.253976 80.577 -5.8448
169.473213 80.548 -5.7504
170.701286 80.520 -5.6683
171.938258 80.492 -5.6007
173.184194 80.465 -5.5446
174.439158 80.439 -5.4940
175.703216 80.412 -5.4427
176.976434 80.384 -5.3849
178.258878 80.357 -5.3168
179.550615 80.329 -5.2368
180.851713 80.301 -5.1451
182.162239 80.274 -5.0418
183.482262 80.248 -4.9260
184.811850 80.223 -4.7960
186.151073 80.198 -4.6520
187.500000 80.173 -4.4977
188.858702 80.147 -4.3384
190.227250 80.119 -4.1788
191.605715 80.090 -4.0219
192.994169 80.061 -3.8680
194.392685 80.032 -3.7180
195.801334 80.004 -3.5710
197.220191 79.979 -3.4253
198.649330 79.956 -3.2783
200.088825 79.935 -3.1288
201.538751 79.916 -2.9772
202.999184 79.897 -2.8260
204.470200 79.878 -2.6781
205.951875 79.858 -2.5336
207.444287 79.837 -2.3894
208.947514 79.815 -2.2422
210.461634 79.793 -2.0909
211.986726 79.771 -1.9351
213.522869 79.750 -1.7745
215.070144 79.729 -1.6089
216.628631 79.708 -1.4381
218.198411 79.688 -1.2622
219.779567 79.669 -1.0822
221.372180 79.649 -0.9008
222.976334 79.630 -0.7219
224.592112 79.611 -0.5492
226.219600 79.592 -0.3842
227.858880 79.574 -0.2256
229.510039 79.556 -0.0685
231.173164 79.540 0.0936
232.848340 79.526 0.2675
234.535655 79.511 0.4568
236.235197 79.497 0.6602
237.947054 79.483 0.8726
239.671317 79.467 1.0877
241.408074 79.452 1.3009
243.157416 79.437 1.5098
244.919435 79.423 1.7140
246.694223 79.409 1.9142
248.481871 79.397 2.1104
250.282473 79.385 2.3031
252.096123 79.374 2.4945
253.922915 79.363 2.6868
255.762945 79.353 2.8802
257.616309 79.343 3.0737
259.483103 79.333 3.2655
261.363424 79.324 3.4550
263.257372 79.315 3.6436
265.165043 79.306 3.8350
267.086538 79.297 4.0325
269.021957 79.288 4.2365
270.971401 79.279 4.4442
272.934972 79.270 4.6543
274.912771 79.261 4.8663
276.904902 79.254 5.0787
278.911469 79.247 5.2903
280.932577 79.242 5.5015
282.968330 79.238 5.7139
285.018835 79.233 5.9280
287.084199 79.229 6.1437
289.164530 79.223 6.3605
291.259935 79.217 6.5791
293.370525 79.210 6.8005
295.496408 79.203 7.0259
297.637697 79.197 7.2557
299.794503 79.192 7.4887
301.966937 79.188 7.7214
304.155114 79.186 7.9503
306.359147 79.185 8.1734
308.579152 79.185 8.3906
310.815244 79.186 8.6027
313.067539 79.189 8.8110
315.336156 79.191 9.0184
317.621211 79.193 9.2277
319.922826 79.195 9.4395
322.241118 79.197 9.6514
324.576210 79.198 9.8603
326.928223 79.199 10.0638
329.297280 79.199 10.2627
331.683504 79.199 10.4593
334.087019 79.199 10.6570
336.507952 79.198 10.8580
338.946427 79.198 11.0630
341.402572 79.199 11.2714
343.876516 79.201 11.4829
346.368387 79.204 11.6967
348.878315 79.207 11.9102
351.406431 79.211 12.1211
353.952867 79.215 12.3292
356.517756 79.218 12.5365
359.101230 79.222 12.7451
361.703426 79.226 12.9553
364.324478 79.231 13.1660
366.964523 79.236 13.3752
369.623699 79.241 13.5814
372.302145 79.246 13.7842
375.000000 79.252 13.9840
377.717405 79.259 14.1807
380.454501 79.269 14.3737
383.211431 79.280 14.5620
385.988339 79.290 14.7458
388.785369 79.300 14.9271
391.602668 79.308 15.1097
394.440383 79.314 15.2967
397.298660 79.319 15.4888
400.177650 79.322 15.6854
403.077502 79.326 15.8868
405.998368 79.328 16.0948
408.940400 79.331 16.3094
411.903750 79.334 16.5294
414.888575 79.339 16.7559
417.895028 79.347 16.9922
420.923268 79.360 17.2397
423.973452 79.375 17.4955
427.045738 79.391 17.7520
430.140287 79.409 18.0007
433.257261 79.427 18.2365
436.396822 79.444 18.4567
439.559133 79.460 18.6612
442.744360 79.475 18.8502
445.952668 79.490 19.0237
449.184225 79.505 19.1818
452.439199 79.522 19.3268
455.717760 79.540 19.4625
459.020079 79.561 19.5928
462.346327 79.582 19.7214
465.696680 79.603 19.8512
469.071310 79.624 19.9849
472.470394 79.642 20.1248
475.894109 79.657 20.2715
479.342634 79.669 20.4219
482.816148 79.679 20.5706
486.314833 79.687 20.7120
489.838871 79.695 20.8455
493.388445 79.703 20.9740
496.963741 79.712 21.1021
500.564945 79.722 21.2333
504.192245 79.732 21.3696
507.845830 79.744 21.5110
511.525890 79.756 21.6562
515.232618 79.769 21.8046
518.966206 79.782 21.9558
522.726849 79.795 22.1097
526.514743 79.809 22.2655
530.330086 79.822 22.4224
534.173076 79.834 22.5806
538.043915 79.846 22.7397
541.942803 79.857 22.8984
545.869944 79.868 23.0542
549.825542 79.879 23.2054
553.809805 79.890 23.3512
557.822939 79.902 23.4910
561.865154 79.914 23.6261
565.936660 79.927 23.7610
570.037671 79.940 23.9017
574.168399 79.954 24.0527
578.329060 79.966 24.2142
582.519870 79.979 24.3824
586.741049 79.989 24.5516
590.992817 79.998 24.7164
595.275394 80.006 24.8740
599.589005 80.013 25.0237
603.933874 80.020 25.1672
608.310228 80.029 25.3090
612.718295 80.038 25.4539
617.158304 80.047 25.6038
621.630488 80.057 25.7572
626.135079 80.067 25.9136
630.672311 80.078 26.0750
635.242423 80.089 26.2417
639.845651 80.100 26.4095
644.482237 80.111 26.5733
649.152421 80.121 26.7317
653.856447 80.130 26.8878
658.594560 80.139 27.0455
663.367008 80.150 27.2067
668.174039 80.161 27.3704
673.015903 80.174 27.5348
677.892854 80.184 27.6996
682.805145 80.193 27.8668
687.753032 80.199 28.0392
692.736774 80.202 28.2188
697.756631 80.205 28.4058
702.812863 80.206 28.5986
707.905735 80.208 28.7955
713.035511 80.210 28.9944
718.202461 80.215 29.1945
723.406852 80.224 29.3963
728.648956 80.235 29.6003
733.929047 80.248 29.8055
739.247399 80.263 30.0115
744.604290 80.277 30.2184
750.000000 80.291 30.4255
755.434809 80.304 30.6312
760.909001 80.316 30.8340
766.422861 80.328 31.0326
771.976677 80.340 31.2247
777.570739 80.351 31.4098
783.205337 80.361 31.5912
788.880766 80.372 31.7752
794.597321 80.382 31.9683
800.355301 80.391 32.1753
806.155005 80.401 32.3970
811.996736 80.412 32.6303
817.880799 80.424 32.8703
823.807501 80.439 33.1148
829.777150 80.457 33.3644
835.790057 80.477 33.6196
841.846536 80.498 33.8791
847.946903 80.519 34.1389
854.091476 80.541 34.3940
860.280575 80.562 34.6419
866.514523 80.583 34.8839
872.793644 80.603 35.1241
879.118267 80.623 35.3662
885.488720 80.645 35.6121
891.905336 80.669 35.8627
898.368450 80.696 36.1196
904.878398 80.726 36.3841
911.435520 80.758 36.6557
918.040157 80.790 36.9312
924.692655 80.823 37.2034
931.393359 80.854 37.4624
938.142619 80.884 37.7001
944.940787 80.913 37.9140
951.788218 80.944 38.1082
958.685268 80.976 38.2908
965.632296 81.009 38.4701
972.629666 81.043 38.6516
979.677741 81.077 38.8356
986.776890 81.111 39.0187
993.927482 81.146 39.1978
1001.129891 81.182 39.3742
1008.384491 81.220 39.5525
1015.691660 81.260 39.7357
1023.051781 81.302 39.9219
1030.465236 81.345 40.1062
1037.932411 81.388 40.2841
1045.453698 81.431 40.4535
1053.029486 81.472 40.6141
1060.660172 81.512 40.7659
1068.346153 81.550 40.9075
1076.087829 81.587 41.0373
1083.885605 81.625 41.1557
1091.739887 81.663 41.2663
1099.651084 81.702 41.3752
1107.619609 81.743 41.4869
1115.645878 81.784 41.6020
1123.730308 81.825 41.7161
1131.873321 81.866 41.8231
1140.075341 81.907 41.9163
1148.336797 81.948 41.9901
1156.658119 81.990 42.0409
1165.039741 82.031 42.0681
1173.482099 82.070 42.0753
1181.985634 82.108 42.0693
1190.550789 82.145 42.0576
1199.178011 82.182 42.0456
1207.867749 82.217 42.0367
1216.620457 82.252 42.0305
1225.436590 82.286 42.0246
1234.316609 82.318 42.0153
1243.260976 82.347 41.9983
1252.270157 82.374 41.9696
1261.344623 82.398 41.9263
1270.484846 82.419 41.8686
1279.691303 82.437 41.8000
1288.964474 82.455 41.7270
1298.304842 82.470 41.6577
1307.712894 82.485 41.5997
1317.189120 82.499 41.5567
1326.734016 82.512 41.5274
1336.348077 82.522 41.5061
1346.031806 82.529 41.4854
1355.785708 82.532 41.4576
1365.610290 82.530 41.4173
1375.506065 82.524 41.3621
1385.473549 82.513 41.2931
1395.513261 82.499 41.2143
1405.625726 82.481 41.1316
1415.811469 82.462 41.0515
1426.071023 82.442 40.9808
1436.404921 82.421 40.9271
1446.813703 82.398 40.8980
1457.297912 82.374 40.9025
1467.858093 82.348 40.9504
1478.494798 82.322 41.0484
1489.208581 82.296 41.1982
1500.000000 82.270 41.3957
1510.869618 82.244 41.6337
1521.818002 82.218 41.9040
1532.845723 82.189 42.1982
1543.953355 82.157 42.5093
1555.141477 82.121 42.8333
1566.410674 82.082 43.1706
1577.761531 82.041 43.5285
1589.194642 81.998 43.9188
1600.710601 81.956 44.3541
1612.310010 81.914 44.8447
1623.993473 81.874 45.3985
1635.761599 81.838 46.0216
1647.615002 81.806 46.7171
1659.554299 81.781 47.4857
1671.580114 81.762 48.3245
1683.693072 81.750 49.2261
1695.893807 81.746 50.1811
1708.182952 81.753 51.1803
1720.561150 81.775 52.2156
1733.029045 81.815 53.2794
1745.587288 81.875 54.3622
1758.236533 81.957 55.4476
1770.977440 82.062 56.5103
1783.810673 82.189 57.5201
1796.736900 82.335 58.4489
1809.756796 82.497 59.2758
1822.871040 82.670 59.9909
1836.080315 82.851 60.5950
1849.385310 83.036 61.0957
1862.786718 83.222 61.5029
1876.285239 83.405 61.8246
1889.881575 83.584 62.0649
1903.576436 83.758 62.2241
1917.370535 83.927 62.3026
1931.264593 84.092 62.3026
1945.259332 84.253 62.2295
1959.355483 84.412 62.0923
1973.553781 84.568 61.9019
1987.854965 84.722 61.6689
2002.259781 84.873 61.4017
2016.768981 85.021 61.1064
2031.383320 85.163 60.7846
2046.103561 85.300 60.4324
2060.930471 85.428 60.0412
2075.864823 85.547 59.6026
2090.907395 85.656 59.1138
2106.058972 85.754 58.5791
2121.320344 85.842 58.0091
2136.692305 85.920 57.4190
2152.175658 85.991 56.8270
2167.771210 86.056 56.2531
2183.479774 86.118 55.7148
2199.302169 86.177 55.2195
2215.239219 86.233 54.7626
2231.291755 86.287 54.3292
2247.460615 86.338 53.8993
2263.746641 86.385 53.4542
2280.150683 86.427 52.9827
2296.673595 86.465 52.4829
2313.316238 86.496 51.9612
2330.079481 86.524 51.4310
2346.964198 86.547 50.9107
2363.971268 86.567 50.4205
2381.101578 86.586 49.9769
2398.356022 86.604 49.5873
2415.735498 86.622 49.2479
2433.240913 86.638 48.9435
2450.873180 86.652 48.6525
2468.633217 86.663 48.3543
2486.521951 86.673 48.0356
2504.540314 86.680 47.6921
2522.689246 86.687 47.3288
2540.969692 86.692 46.9587
2559.382606 86.698 46.5999
2577.928947 86.703 46.2691
2596.609683 86.709 45.9755
2615.425787 86.716 45.7187
2634.378241 86.722 45.4903
2653.468031 86.728 45.2761
2672.696154 86.732 45.0596
2692.063613 86.735 44.8261
2711.571415 86.735 44.5648
2731.220579 86.735 44.2700
2751.012130 86.734 43.9417
2770.947098 86.732 43.5849
2791.026522 86.731 43.2072
2811.251451 86.730 42.8143
2831.622938 86.730 42.4098
2852.142045 86.732 41.9971
2872.809842 86.735 41.5837
2893.627406 86.738 41.1820
2914.595823 86.741 40.8054
2935.716186 86.743 40.4630
2956.989596 86.743 40.1567
2978.417161 86.741 39.8792
3000.000000 86.736 39.6155
3021.739237 86.728 39.3430
3043.636005 86.716 39.0375
3065.691446 86.700 38.6825
3087.906710 86.677 38.2732
3110.282955 86.650 37.8179
3132.821347 86.617 37.3364
3155.523062 86.579 36.8566
3178.389283 86.538 36.4097
3201.421202 86.497 36.0210
3224.620020 86.456 35.7034
3247.986946 86.417 35.4547
3271.523198 86.379 35.2588
3295.230004 86.343 35.0886
3319.108599 86.306 34.9135
3343.160228 86.269 34.7072
3367.386145 86.230 34.4526
3391.787613 86.190 34.1436
3416.365904 86.149 33.7844
3441.122300 86.108 33.3862
3466.058091 86.067 32.9619
3491.174576 86.026 32.5231
3516.473066 85.985 32.0810
3541.954880 85.944 31.6473
3567.621345 85.901 31.2364
3593.473800 85.858 30.8655
3619.513592 85.814 30.5514
3645.742080 85.771 30.3055
3672.160630 85.727 30.1292
3698.770620 85.684 30.0099
3725.573436 85.639 29.9230
3752.570477 85.593 29.8398
3779.763150 85.545 29.7350
3807.152872 85.494 29.5922
3834.741071 85.439 29.4073
3862.529185 85.380 29.1904
3890.518664 85.319 28.9647
3918.710966 85.257 28.7594
3947.107561 85.194 28.6008
3975.709929 85.132 28.5055
4004.519563 85.072 28.4774
4033.537962 85.013 28.5067
4062.766641 84.953 28.5711
4092.207123 84.892 28.6402
4121.860942 84.830 28.6838
4151.729646 84.764 28.6785
4181.814790 84.697 28.6129
4212.117944 84.629 28.4899
4242.640687 84.560 28.3241
4273.384610 84.491 28.1358
4304.351317 84.422 27.9449
4335.542421 84.354 27.7678
4366.959549 84.286 27.6182
4398.604338 84.219 27.5098
4430.478438 84.152 27.4603
4462.583511 84.087 27.4915
4494.921231 84.024 27.6236
4527.493283 83.965 27.8674
4560.301365 83.910 28.2183
4593.347189 83.859 28.6547
4626.632476 83.812 29.1421
4660.158962 83.767 29.6409
4693.928395 83.725 30.1163
4727.942535 83.687 30.5480
4762.203156 83.652 30.9357
4796.712043 83.622 31.2983
4831.470996 83.600 31.6678
4866.481826 83.587 32.0808
4901.746360 83.583 32.5676
4937.266434 83.590 33.1421
4973.043902 83.609 33.7951
5009.080628 83.639 34.4946
5045.378492 83.681 35.1935
5081.939384 83.734 35.8392
5118.765212 83.798 36.3862
5155.857894 83.873 36.8068
5193.219366 83.959 37.0967
5230.851574 84.056 37.2715
5268.756481 84.166 37.3587
5306.936062 84.286 37.3874
5345.392309 84.416 37.3775
5384.127225 84.554 37.3306
5423.142830 84.697 37.2259
5462.441159 84.842 37.0242
5502.024259 84.985 36.6778
5541.894195 85.121 36.1422
5582.053045 85.246 35.3879
5622.502902 85.357 34.4099
5663.245876 85.449 33.2309
5704.284090 85.523 31.8982
5745.619684 85.576 30.4727
5787.254813 85.607 29.0168
5829.191647 85.615 27.5836
5871.432373 85.600 26.2070
5913.979192 85.560 24.8975
5956.834323 85.494 23.6426
6000.000000 85.401 22.4156
6043.478473 85.280 21.1881
6087.272010 85.133 19.9423
6131.382892 84.960 18.6804
6175.813420 84.766 17.4280
6220.565910 84.553 16.2283
6265.642695 84.326 15.1299
6311.046124 84.090 14.1757
6356.778566 83.850 13.3936
6402.842404 83.615 12.7881
6449.240040 83.390 12.3352
6495.973891 83.175 11.9982
6543.046396 82.965 11.7631
6590.460007 82.752 11.6667
6638.217197 82.531 11.7799
6686.320456 82.302 12.1625
6734.772290 82.068 12.8350
6783.575226 81.834 13.7770
6832.731809 81.607 14.9431
6882.244600 81.390 16.2845
6932.116181 81.189 17.7687
6982.349153 81.010 19.3894
7032.946133 80.861 21.1620
7083.909760 80.754 23.1068
7135.242690 80.697 25.2277
7186.947600 80.697 27.4995
7239.027185 80.756 29.8774
7291.484160 80.870 32.3179
7344.321260 81.037 34.7775
7397.541239 81.260 37.1873
7451.146872 81.544 39.4394
7505.140954 81.892 41.4011
7559.526299 82.305 42.9413
7614.305743 82.777 43.9507
7669.482141 83.300 44.3494
7725.058371 83.860 44.0848
7781.037328 84.437 43.1271
7837.421932 85.012 41.4681
7894.215122 85.562 39.1262
7951.419859 86.063 36.1531
8009.039125 86.496 32.6394
8067.075924 86.841 28.7158
8125.533282 87.086 24.5461
8184.414245 87.223 20.3107
8243.721885 87.251 16.1816
8303.459292 87.176 12.2994
8363.629581 87.007 8.7599
8424.235888 86.762 5.6116
8485.281374 86.459 2.8622
8546.769221 86.118 0.4894
8608.702634 85.759 -1.5403
8671.084842 85.399 -3.2549
8733.919097 85.053 -4.6691
8797.208675 84.733 -5.7866
8860.956876 84.448 -6.6094
8925.167022 84.203 -7.1511
8989.842461 83.999 -7.4506
9054.986566 83.834 -7.5784
9120.602731 83.705 -7.6323
9186.694378 83.605 -7.7212
9253.264952 83.530 -7.9496
9320.317925 83.476 -8.4009
9387.856790 83.439 -9.1215
9455.885071 83.416 -10.1133
9524.406312 83.405 -11.3416
9593.424086 83.404 -12.7533
9662.941992 83.407 -14.2941
9732.963653 83.411 -15.9236
9803.492719 83.407 -17.6310
9874.532869 83.390 -19.4413
9946.087805 83.350 -21.4061
10018.161257 83.281 -23.5862
10090.756983 83.174 -26.0320
10163.878768 83.023 -28.7654
10237.530423 82.823 -31.7634
10311.715789 82.572 -34.9526
10386.438732 82.269 -38.2192
10461.703149 81.913 -41.4308
10537.512962 81.507 -44.4551
10613.872125 81.051 -47.1818
10690.784618 80.551 -49.5417
10768.254450 80.010 -51.5175
10846.285661 79.432 -53.1371
10924.882318 78.824 -54.4592
11004.048518 78.189 -55.5538
11083.788390 77.532 -56.4819
11164.106090 76.860 -57.2736
11245.005805 76.175 -57.9159
11326.491752 75.484 -58.3563
11408.568180 74.791 -58.5182
11491.239368 74.100 -58.3203
11574.509626 73.416 -57.7004
11658.383294 72.744 -56.6382
11742.864745 72.085 -55.1664
11827.958384 71.442 -53.3634
11913.668646 70.813 -51.3346
12000.000000 70.198 -49.1901
12086.956947 69.599 -47.0201
12174.544019 69.013 -44.8743
12262.765784 68.443 -42.7565
12351.626840 67.889 -40.6356
12441.131819 67.353 -38.4620
12531.285389 66.835 -36.1808
12622.092249 66.336 -33.7367
12713.557132 65.858 -31.0723
12805.684808 65.401 -28.1191
12898.480079 64.969 -24.7900
12991.947783 64.567 -20.9768
13086.092792 64.202 -16.5633
13180.920015 63.886 -11.4541
13276.434395 63.635 -5.6047
13372.640911 63.469 0.9609
13469.544580 63.416 8.1422
13567.150452 63.509 15.7584
13665.463617 63.778 23.5594
13764.489200 64.249 31.2554
13864.232362 64.932 38.5517
13964.698305 65.814 45.1734
14065.892266 66.866 50.8828
14167.819519 68.043 55.4911
14270.485380 69.297 58.8566
14373.895200 70.580 60.8749
14478.054370 71.849 61.4781
14582.968320 73.063 60.6418
14688.642520 74.190 58.3919
14795.082478 75.199 54.8125
14902.293745 76.066 50.0574
15010.281908 76.773 44.3640
15119.052599 77.315 38.0500
15228.611486 77.694 31.4803
15338.964283 77.929 25.0115
15450.116741 78.047 18.9366
15562.074656 78.085 13.4413
15674.843864 78.081 8.5731
15788.430244 78.066 4.2359
15902.839718 78.067 0.2158
16018.078250 78.095 -3.7693
16134.151848 78.151 -8.0112
16251.066563 78.223 -12.7516
16368.828491 78.289 -18.1340
16487.443769 78.323 -24.1781
16606.918584 78.293 -30.7850
16727.259161 78.171 -37.7618
16848.471777 77.930 -44.8508
16970.562748 77.550 -51.7703
17093.538442 77.025 -58.2666
17217.405268 76.354 -64.1582
17342.169684 75.551 -69.3516
17467.838194 74.635 -73.8348
17594.417350 73.628 -77.6622
17721.913751 72.558 -80.9286
17850.334044 71.449 -83.7335
17979.684923 70.328 -86.1548
18109.973131 69.218 -88.2437
18241.205462 68.137 -90.0385
18373.388756 67.100 -91.5802
18506.529905 66.116 -92.9200
18640.635849 65.188 -94.1123
18775.713581 64.317 -95.1986
18911.770141 63.497 -96.1964
19048.812624 62.719 -97.0948
19186.848172 61.974 -97.8611
19325.883983 61.255 -98.4617
19465.927305 60.562 -98.8899
19606.985439 59.908 -99.1732
19749.065738 59.327 -99.3529
19892.175609 58.880 -99.4623
20036.322514 58.632 -99.5166
