* Measurement data measured by REW V5.31.3
* Source: Headset (2- CX31993 HIFI AUDIO), MICROPHONE (Master Volume), R, volume: 0.500
* Format: 256k Log Swept Sine, 1 sweep at -11.9 dBFS with no timing reference
* Dated: 08 5, 25 4:05:22 PM
* REW Settings:
*  C-weighting compensation: Off
*  Target level: 75.0 dB
* Note: 
* Measurement: SpaceTravel2 EQ R
* Smoothing: 1/12 octave
* Frequency Step: 96 ppo
* Start Frequency: 0.36621094 Hz
*
* Freq(Hz) SPL(dB) Phase(degrees)
0.366211 75.408 -74.9742
0.368865 75.416 -75.0826
0.371538 75.428 -75.2448
0.374230 75.443 -75.4480
0.376942 75.460 -75.6814
0.379673 75.477 -75.9369
0.382424 75.496 -76.2093
0.385196 75.515 -76.4954
0.387987 75.534 -76.7934
0.390798 75.554 -77.1024
0.393630 75.574 -77.4220
0.396483 75.594 -77.7520
0.399356 75.614 -78.0924
0.402250 75.634 -78.4433
0.405165 75.654 -78.8048
0.408101 75.675 -79.1771
0.411058 75.696 -79.5603
0.414037 75.716 -79.9546
0.417037 75.737 -80.3601
0.420059 75.759 -80.7770
0.423103 75.780 -81.2055
0.426169 75.801 -81.6457
0.429257 75.823 -82.0978
0.432368 75.845 -82.5618
0.435501 75.867 -83.0380
0.438656 75.889 -83.5265
0.441835 75.911 -84.0274
0.445037 75.933 -84.5408
0.448262 75.956 -85.0668
0.451510 75.979 -85.6055
0.454782 76.002 -86.1570
0.458077 76.025 -86.7213
0.461397 76.048 -87.2986
0.464740 76.071 -87.8888
0.468108 76.095 -88.4920
0.471500 76.119 -89.1082
0.474917 76.143 -89.7373
0.478358 76.167 -90.3793
0.481825 76.191 -91.0342
0.485316 76.215 -91.7019
0.488833 76.240 -92.3822
0.492375 76.265 -93.0751
0.495943 76.290 -93.7803
0.499537 76.315 -94.4978
0.503157 76.340 -95.2272
0.506803 76.366 -95.9683
0.510475 76.391 -96.7208
0.514175 76.417 -97.4844
0.517900 76.443 -98.2589
0.521653 76.470 -99.0437
0.525434 76.496 -99.8384
0.529241 76.523 -100.6427
0.533076 76.550 -101.4561
0.536939 76.577 -102.2779
0.540830 76.604 -103.1078
0.544749 76.631 -103.9451
0.548696 76.659 -104.7891
0.552673 76.687 -105.6393
0.556677 76.715 -106.4950
0.560711 76.743 -107.3555
0.564774 76.772 -108.2201
0.568867 76.800 -109.0880
0.572989 76.829 -109.9585
0.577141 76.858 -110.8308
0.581324 76.887 -111.7042
0.585536 76.917 -112.5778
0.589779 76.947 -113.4508
0.594053 76.977 -114.3224
0.598358 77.007 -115.1919
0.602694 77.037 -116.0583
0.607061 77.068 -116.9209
0.611460 77.098 -117.7789
0.615891 77.129 -118.6315
0.620354 77.161 -119.4779
0.624849 77.192 -120.3173
0.629377 77.224 -121.1491
0.633938 77.256 -121.9724
0.638532 77.288 -122.7866
0.643159 77.320 -123.5910
0.647819 77.353 -124.3849
0.652514 77.386 -125.1677
0.657242 77.419 -125.9388
0.662005 77.452 -126.6977
0.666802 77.486 -127.4437
0.671634 77.520 -128.1764
0.676501 77.554 -128.8954
0.681403 77.588 -129.6003
0.686341 77.623 -130.2907
0.691314 77.658 -130.9669
0.696324 77.693 -131.6290
0.701370 77.728 -132.2780
0.706452 77.764 -132.9161
0.711571 77.801 -133.5468
0.716728 77.838 -134.1761
0.721921 77.876 -134.8128
0.727153 77.916 -135.4684
0.732422 77.958 -136.1549
0.737729 78.001 -136.8807
0.743075 78.047 -137.6461
0.748460 78.094 -138.4459
0.753883 78.143 -139.2735
0.759346 78.193 -140.1229
0.764849 78.244 -140.9893
0.770391 78.297 -141.8694
0.775974 78.350 -142.7608
0.781597 78.405 -143.6618
0.787261 78.461 -144.5711
0.792966 78.517 -145.4875
0.798712 78.575 -146.4102
0.804500 78.633 -147.3383
0.810329 78.693 -148.2711
0.816201 78.753 -149.2076
0.822116 78.815 -150.1472
0.828073 78.877 -151.0892
0.834074 78.940 -152.0327
0.840118 79.005 -152.9772
0.846206 79.070 -153.9219
0.852338 79.135 -154.8661
0.858514 79.202 -155.8094
0.864735 79.270 -156.7509
0.871001 79.338 -157.6903
0.877313 79.407 -158.6270
0.883670 79.477 -159.5604
0.890074 79.547 -160.4902
0.896524 79.618 -161.4159
0.903020 79.690 -162.3372
0.909564 79.762 -163.2536
0.916155 79.835 -164.1651
0.922794 79.909 -165.0712
0.929481 79.983 -165.9717
0.936216 80.058 -166.8666
0.943000 80.133 -167.7557
0.949834 80.208 -168.6388
0.956717 80.284 -169.5160
0.963649 80.360 -170.3873
0.970632 80.437 -171.2526
0.977666 80.513 -172.1121
0.984750 80.590 -172.9659
0.991886 80.667 -173.8141
0.999074 80.744 -174.6570
1.006314 80.821 -175.4946
1.013606 80.898 -176.3275
1.020951 80.975 -177.1557
1.028349 81.051 -177.9798
1.035801 81.128 -178.8001
1.043307 81.204 -179.6171
1.050867 81.280 179.5686
1.058482 81.355 178.7564
1.066152 81.430 177.9453
1.073878 81.505 177.1343
1.081660 81.579 176.3219
1.089498 81.652 175.5060
1.097393 81.725 174.6846
1.105345 81.798 173.8549
1.113355 81.871 173.0146
1.121423 81.943 172.1619
1.129549 82.016 171.2957
1.137734 82.088 170.4156
1.145979 82.161 169.5218
1.154283 82.234 168.6145
1.162647 82.307 167.6945
1.171072 82.380 166.7624
1.179558 82.454 165.8191
1.188106 82.527 164.8656
1.196715 82.600 163.9027
1.205387 82.674 162.9315
1.214122 82.747 161.9529
1.222920 82.820 160.9680
1.231782 82.894 159.9776
1.240708 82.967 158.9830
1.249699 83.040 157.9849
1.258754 83.113 156.9846
1.267876 83.186 155.9829
1.277063 83.259 154.9810
1.286318 83.332 153.9797
1.295639 83.404 152.9800
1.305027 83.476 151.9829
1.314484 83.548 150.9893
1.324009 83.620 149.9999
1.333604 83.691 149.0159
1.343268 83.762 148.0378
1.353002 83.832 147.0666
1.362806 83.902 146.1028
1.372681 83.972 145.1473
1.382628 84.041 144.2006
1.392647 84.109 143.2631
1.402739 84.177 142.3354
1.412904 84.244 141.4174
1.423142 84.311 140.5092
1.433455 84.377 139.6100
1.443843 84.442 138.7186
1.454305 84.507 137.8328
1.464844 84.570 136.9497
1.475459 84.633 136.0658
1.486150 84.695 135.1777
1.496920 84.757 134.2827
1.507767 84.818 133.3791
1.518693 84.878 132.4660
1.529698 84.937 131.5434
1.540783 84.995 130.6113
1.551948 85.053 129.6704
1.563194 85.110 128.7213
1.574521 85.165 127.7648
1.585931 85.221 126.8017
1.597423 85.275 125.8329
1.608999 85.328 124.8592
1.620658 85.381 123.8817
1.632402 85.432 122.9010
1.644232 85.483 121.9182
1.656146 85.532 120.9342
1.668147 85.581 119.9496
1.680235 85.629 118.9656
1.692411 85.675 117.9827
1.704675 85.721 117.0020
1.717028 85.765 116.0239
1.729470 85.809 115.0493
1.742003 85.851 114.0788
1.754626 85.892 113.1128
1.767341 85.932 112.1514
1.780147 85.971 111.1945
1.793047 86.008 110.2414
1.806040 86.045 109.2903
1.819128 86.080 108.3387
1.832310 86.114 107.3830
1.845587 86.146 106.4188
1.858961 86.177 105.4419
1.872432 86.207 104.4494
1.886001 86.235 103.4393
1.899667 86.262 102.4109
1.913433 86.287 101.3642
1.927299 86.311 100.3000
1.941265 86.333 99.2195
1.955332 86.354 98.1239
1.969501 86.372 97.0150
1.983773 86.389 95.8943
1.998148 86.405 94.7639
2.012627 86.418 93.6256
2.027212 86.430 92.4815
2.041902 86.440 91.3337
2.056698 86.447 90.1844
2.071602 86.453 89.0357
2.086614 86.457 87.8897
2.101734 86.459 86.7485
2.116964 86.458 85.6138
2.132304 86.456 84.4871
2.147756 86.451 83.3687
2.163320 86.444 82.2583
2.178996 86.434 81.1537
2.194786 86.423 80.0510
2.210690 86.409 78.9447
2.226710 86.393 77.8289
2.242845 86.375 76.6984
2.259098 86.354 75.5497
2.275468 86.330 74.3806
2.291957 86.305 73.1904
2.308566 86.276 71.9792
2.325295 86.245 70.7479
2.342145 86.211 69.4981
2.359117 86.174 68.2315
2.376212 86.134 66.9505
2.393431 86.090 65.6577
2.410775 86.043 64.3557
2.428244 85.993 63.0479
2.445840 85.939 61.7375
2.463564 85.882 60.4276
2.481416 85.820 59.1213
2.499397 85.755 57.8212
2.517509 85.685 56.5287
2.535752 85.612 55.2433
2.554127 85.534 53.9623
2.572635 85.453 52.6805
2.591277 85.368 51.3907
2.610055 85.278 50.0858
2.628968 85.185 48.7598
2.648019 85.088 47.4083
2.667208 84.987 46.0285
2.686535 84.881 44.6192
2.706003 84.770 43.1801
2.725612 84.654 41.7120
2.745363 84.532 40.2167
2.765257 84.405 38.6967
2.785295 84.271 37.1553
2.805478 84.130 35.5964
2.825808 83.982 34.0245
2.846285 83.826 32.4443
2.866910 83.663 30.8599
2.887685 83.491 29.2741
2.908611 83.311 27.6873
2.929688 83.122 26.0960
2.950917 82.925 24.4932
2.972301 82.719 22.8692
2.993839 82.505 21.2139
3.015534 82.282 19.5179
3.037386 82.051 17.7734
3.059396 81.810 15.9740
3.081565 81.561 14.1150
3.103896 81.301 12.1930
3.126388 81.031 10.2061
3.149043 80.750 8.1539
3.171862 80.458 6.0374
3.194847 80.153 3.8589
3.217998 79.835 1.6214
3.241317 79.501 -0.6729
3.264805 79.150 -3.0243
3.288463 78.777 -5.4390
3.312293 78.380 -7.9315
3.336295 77.955 -10.5250
3.360471 77.500 -13.2507
3.384822 77.016 -16.1451
3.409350 76.506 -19.2487
3.434056 75.975 -22.6060
3.458940 75.432 -26.2649
3.484005 74.885 -30.2759
3.509252 74.346 -34.6906
3.534681 73.826 -39.5590
3.560295 73.340 -44.9261
3.586094 72.902 -50.8278
3.612081 72.526 -57.2888
3.638255 72.226 -64.3241
3.664620 72.010 -71.9410
3.691175 71.885 -80.1355
3.717923 71.848 -88.8699
3.744864 71.896 -98.0379
3.772001 72.017 -107.4442
3.799335 72.203 -116.8183
3.826866 72.440 -125.8698
3.854597 72.717 -134.3539
3.882529 73.022 -142.1182
3.910664 73.345 -149.1101
3.939002 73.679 -155.3572
3.967546 74.016 -160.9395
3.996296 74.354 -165.9631
4.025255 74.692 -170.5422
4.054423 75.034 -174.7828
4.083804 75.381 -178.7701
4.113396 75.734 177.4382
4.143204 76.094 173.8095
4.173227 76.457 170.3287
4.203468 76.819 166.9905
4.233928 77.176 163.7932
4.264609 77.523 160.7341
4.295512 77.856 157.8068
4.326639 78.171 154.9985
4.357992 78.464 152.2895
4.389572 78.735 149.6534
4.421380 78.983 147.0608
4.453419 79.209 144.4860
4.485691 79.415 141.9125
4.518196 79.601 139.3351
4.550936 79.771 136.7573
4.583914 79.925 134.1876
4.617131 80.065 131.6366
4.650589 80.193 129.1131
4.684289 80.309 126.6212
4.718233 80.415 124.1583
4.752424 80.511 121.7136
4.786862 80.596 119.2703
4.821549 80.669 116.8105
4.856488 80.732 114.3216
4.891680 80.783 111.7990
4.927127 80.823 109.2458
4.962831 80.853 106.6703
4.998794 80.872 104.0827
5.035017 80.882 101.4919
5.071503 80.884 98.9022
5.108253 80.876 96.3102
5.145270 80.860 93.7051
5.182555 80.836 91.0714
5.220110 80.802 88.3959
5.257937 80.759 85.6717
5.296038 80.707 82.8996
5.334415 80.646 80.0865
5.373071 80.578 77.2423
5.412006 80.501 74.3763
5.451224 80.418 71.4930
5.490725 80.327 68.5890
5.530514 80.228 65.6533
5.570590 80.122 62.6719
5.610957 80.009 59.6343
5.651616 79.888 56.5376
5.692570 79.759 53.3866
5.733821 79.624 50.1916
5.775370 79.481 46.9642
5.817221 79.332 43.7123
5.859375 79.176 40.4360
5.901834 79.013 37.1260
5.944602 78.843 33.7698
5.987679 78.666 30.3577
6.031068 78.482 26.8886
6.074771 78.289 23.3703
6.118792 78.087 19.8164
6.163131 77.875 16.2410
6.207792 77.654 12.6520
6.252776 77.423 9.0467
6.298086 77.182 5.4135
6.343725 76.929 1.7397
6.389694 76.663 -1.9802
6.435996 76.380 -5.7417
6.482634 76.079 -9.5323
6.529610 75.757 -13.3373
6.576926 75.411 -17.1489
6.624585 75.040 -20.9731
6.672590 74.643 -24.8298
6.720942 74.215 -28.7438
6.769645 73.748 -32.7356
6.818700 73.234 -36.8171
6.868111 72.659 -40.9951
6.917881 72.010 -45.2831
6.968010 71.273 -49.7198
7.018504 70.440 -54.3907
7.069362 69.517 -59.4461
7.120590 68.527 -65.1279
7.172189 67.527 -71.8380
7.224161 66.609 -80.3187
7.276511 65.900 -92.1290
7.329239 65.540 -110.7869
7.382350 65.612 -142.0801
7.435845 66.094 179.4077
7.489729 66.879 152.3094
7.544002 67.843 136.5117
7.598669 68.887 126.3816
7.653732 69.950 119.0312
7.709194 71.002 113.1724
7.765058 72.030 108.1980
7.821327 73.023 103.8060
7.878004 73.972 99.8352
7.935091 74.869 96.1873
7.992592 75.706 92.7919
8.050510 76.479 89.5931
8.108847 77.189 86.5488
8.167607 77.839 83.6331
8.226793 78.436 80.8348
8.286408 78.987 78.1514
8.346454 79.498 75.5798
8.406936 79.974 73.1139
8.467856 80.419 70.7434
8.529218 80.833 68.4602
8.591024 81.219 66.2621
8.653278 81.578 64.1521
8.715983 81.914 62.1343
8.779143 82.227 60.2100
8.842760 82.519 58.3767
8.906839 82.792 56.6306
8.971381 83.046 54.9706
9.036392 83.284 53.3981
9.101873 83.507 51.9153
9.167829 83.716 50.5227
9.234263 83.913 49.2184
9.301178 84.100 47.9983
9.368578 84.277 46.8591
9.436467 84.445 45.7979
9.504847 84.607 44.8116
9.573723 84.762 43.8970
9.643099 84.913 43.0487
9.712976 85.059 42.2603
9.783361 85.201 41.5245
9.854255 85.340 40.8352
9.925663 85.476 40.1860
9.997588 85.608 39.5715
10.070035 85.738 38.9865
10.143007 85.864 38.4250
10.216507 85.986 37.8822
10.290540 86.103 37.3541
10.365109 86.215 36.8386
10.440219 86.322 36.3350
10.515873 86.422 35.8431
10.592076 86.515 35.3641
10.668830 86.600 34.8995
10.746141 86.678 34.4518
10.824012 86.748 34.0249
10.902447 86.809 33.6239
10.981451 86.862 33.2538
11.061027 86.908 32.9187
11.141180 86.947 32.6229
11.221913 86.979 32.3700
11.303232 87.006 32.1633
11.385140 87.029 32.0052
11.467641 87.050 31.8959
11.550741 87.069 31.8330
11.634442 87.088 31.8125
11.718750 87.108 31.8291
11.803669 87.131 31.8754
11.889203 87.157 31.9423
11.975357 87.187 32.0184
12.062136 87.221 32.0914
12.149543 87.258 32.1498
12.237583 87.299 32.1825
12.326262 87.341 32.1796
12.415583 87.383 32.1318
12.505552 87.424 32.0327
12.596172 87.462 31.8787
12.687449 87.494 31.6696
12.779387 87.519 31.4073
12.871992 87.534 31.0966
12.965268 87.538 30.7444
13.059220 87.530 30.3612
13.153852 87.509 29.9592
13.249170 87.473 29.5518
13.345179 87.423 29.1525
13.441884 87.360 28.7764
13.539289 87.283 28.4387
13.637401 87.195 28.1533
13.736223 87.098 27.9318
13.835761 86.994 27.7836
13.936021 86.886 27.7150
14.037007 86.778 27.7284
14.138725 86.672 27.8203
14.241180 86.573 27.9823
14.344377 86.483 28.2013
14.448323 86.406 28.4598
14.553021 86.341 28.7363
14.658478 86.292 29.0071
14.764700 86.257 29.2489
14.871691 86.235 29.4407
14.979457 86.224 29.5638
15.088005 86.222 29.6046
15.197339 86.226 29.5552
15.307465 86.233 29.4133
15.418389 86.241 29.1816
15.530117 86.246 28.8673
15.642655 86.248 28.4811
15.756008 86.244 28.0365
15.870182 86.235 27.5477
15.985184 86.220 27.0287
16.101019 86.202 26.4930
16.217694 86.180 25.9514
16.335214 86.156 25.4120
16.453586 86.133 24.8792
16.572815 86.112 24.3539
16.692909 86.096 23.8340
16.813872 86.084 23.3140
16.935713 86.078 22.7869
17.058436 86.078 22.2449
17.182048 86.083 21.6812
17.306556 86.092 21.0906
17.431967 86.103 20.4712
17.558286 86.114 19.8251
17.685521 86.122 19.1583
17.813677 86.127 18.4811
17.942762 86.126 17.8074
18.072783 86.119 17.1537
18.203746 86.105 16.5378
18.335658 86.087 15.9779
18.468526 86.064 15.4899
18.602356 86.041 15.0862
18.737156 86.019 14.7744
18.872934 86.003 14.5547
19.009695 85.996 14.4202
19.147447 86.000 14.3558
19.286197 86.019 14.3405
19.425953 86.052 14.3481
19.566721 86.100 14.3510
19.708510 86.159 14.3229
19.851326 86.228 14.2419
19.995177 86.301 14.0935
20.140070 86.373 13.8716
20.286013 86.441 13.5786
20.433014 86.500 13.2256
20.581080 86.547 12.8302
20.730219 86.580 12.4146
20.880439 86.599 12.0032
21.031747 86.603 11.6204
21.184152 86.595 11.2871
21.337661 86.578 11.0193
21.492282 86.556 10.8246
21.648024 86.533 10.7019
21.804895 86.512 10.6410
21.962902 86.497 10.6229
22.122054 86.490 10.6230
22.282360 86.491 10.6143
22.443827 86.497 10.5712
22.606464 86.508 10.4740
22.770280 86.519 10.3108
22.935283 86.526 10.0792
23.101481 86.526 9.7867
23.268884 86.516 9.4484
23.437500 86.495 9.0846
23.607338 86.463 8.7184
23.778406 86.420 8.3713
23.950714 86.371 8.0612
24.124271 86.317 7.7988
24.299086 86.264 7.5870
24.475167 86.215 7.4203
24.652524 86.173 7.2865
24.831166 86.139 7.1687
25.011103 86.115 7.0493
25.192344 86.100 6.9126
25.374898 86.092 6.7474
25.558775 86.090 6.5483
25.743984 86.092 6.3156
25.930536 86.097 6.0526
26.118439 86.105 5.7655
26.307704 86.115 5.4592
26.498341 86.127 5.1371
26.690359 86.143 4.7993
26.883768 86.162 4.4441
27.078579 86.183 4.0684
27.274801 86.205 3.6703
27.472446 86.226 3.2509
27.671522 86.245 2.8148
27.872042 86.260 2.3710
28.074014 86.270 1.9313
28.277450 86.274 1.5090
28.482360 86.273 1.1166
28.688755 86.269 0.7634
28.896645 86.263 0.4545
29.106042 86.256 0.1902
29.316957 86.250 -0.0338
29.529400 86.246 -0.2246
29.743382 86.244 -0.3909
29.958915 86.243 -0.5411
30.176009 86.244 -0.6826
30.394677 86.246 -0.8213
30.614929 86.247 -0.9618
30.836778 86.249 -1.1077
31.060234 86.248 -1.2612
31.285309 86.246 -1.4233
31.512015 86.242 -1.5930
31.740364 86.234 -1.7665
31.970368 86.223 -1.9385
32.202039 86.209 -2.1030
32.435388 86.193 -2.2560
32.670428 86.177 -2.3973
32.907171 86.163 -2.5328
33.145630 86.152 -2.6733
33.385817 86.144 -2.8322
33.627745 86.138 -3.0206
33.871425 86.130 -3.2432
34.116871 86.120 -3.4939
34.364096 86.104 -3.7566
34.613113 86.082 -4.0083
34.863934 86.056 -4.2264
35.116572 86.030 -4.3970
35.371041 86.010 -4.5210
35.627354 85.998 -4.6169
35.885525 85.999 -4.7167
36.145566 86.009 -4.8562
36.407492 86.025 -5.0637
36.671316 86.041 -5.3500
36.937051 86.051 -5.7047
37.204712 86.049 -6.0995
37.474313 86.034 -6.4967
37.745867 86.006 -6.8597
38.019389 85.971 -7.1622
38.294893 85.933 -7.3944
38.572394 85.897 -7.5625
38.851905 85.865 -7.6848
39.133442 85.839 -7.7841
39.417019 85.819 -7.8811
39.702651 85.802 -7.9913
39.990353 85.788 -8.1235
40.280140 85.775 -8.2823
40.572026 85.761 -8.4691
40.866028 85.745 -8.6824
41.162160 85.726 -8.9169
41.460438 85.703 -9.1627
41.760877 85.676 -9.4066
42.063494 85.645 -9.6349
42.368303 85.614 -9.8376
42.675322 85.585 -10.0133
42.984565 85.560 -10.1699
43.296048 85.543 -10.3237
43.609789 85.533 -10.4937
43.925804 85.529 -10.6963
44.244108 85.528 -10.9419
44.564719 85.527 -11.2324
44.887654 85.525 -11.5631
45.212928 85.519 -11.9233
45.540560 85.508 -12.2993
45.870565 85.490 -12.6748
46.202962 85.466 -13.0316
46.537768 85.437 -13.3529
46.875000 85.404 -13.6251
47.214676 85.371 -13.8431
47.556813 85.340 -14.0120
47.901429 85.313 -14.1465
48.248542 85.292 -14.2665
48.598171 85.275 -14.3901
48.950334 85.259 -14.5278
49.305048 85.243 -14.6793
49.662333 85.225 -14.8374
50.022206 85.205 -14.9930
50.384688 85.184 -15.1423
50.749796 85.164 -15.2891
51.117550 85.145 -15.4434
51.487969 85.126 -15.6158
51.861072 85.106 -15.8115
52.236879 85.084 -16.0269
52.615409 85.057 -16.2505
52.996681 85.027 -16.4685
53.380717 84.994 -16.6693
53.767536 84.962 -16.8475
54.157158 84.930 -17.0040
54.549603 84.902 -17.1442
54.944892 84.878 -17.2750
55.343045 84.859 -17.4047
55.744084 84.843 -17.5409
56.148028 84.831 -17.6914
56.554900 84.822 -17.8629
56.964720 84.813 -18.0599
57.377510 84.803 -18.2845
57.793291 84.791 -18.5345
58.212085 84.773 -18.8033
58.633914 84.747 -19.0779
59.058799 84.715 -19.3401
59.486764 84.675 -19.5717
59.917829 84.631 -19.7618
60.352019 84.587 -19.9125
60.789354 84.543 -20.0371
61.229859 84.502 -20.1532
61.673556 84.462 -20.2726
62.120468 84.422 -20.3990
62.570618 84.381 -20.5312
63.024031 84.340 -20.6675
63.480729 84.300 -20.8075
63.940736 84.260 -20.9502
64.404077 84.220 -21.0933
64.870776 84.182 -21.2354
65.340856 84.145 -21.3792
65.814343 84.111 -21.5299
66.291261 84.076 -21.6887
66.771635 84.042 -21.8492
67.255489 84.006 -22.0009
67.742850 83.971 -22.1360
68.233743 83.938 -22.2554
68.728193 83.906 -22.3654
69.226226 83.877 -22.4724
69.727867 83.848 -22.5797
70.233144 83.821 -22.6877
70.742083 83.794 -22.7980
71.254709 83.767 -22.9125
71.771050 83.740 -23.0339
72.291132 83.712 -23.1625
72.814984 83.682 -23.2947
73.342631 83.649 -23.4237
73.874102 83.614 -23.5402
74.409424 83.576 -23.6377
74.948626 83.539 -23.7163
75.491734 83.503 -23.7838
76.038779 83.467 -23.8501
76.589787 83.432 -23.9226
77.144788 83.395 -24.0034
77.703811 83.357 -24.0912
78.266885 83.318 -24.1833
78.834039 83.277 -24.2771
79.405303 83.235 -24.3702
79.980706 83.192 -24.4603
80.560280 83.149 -24.5454
81.144053 83.106 -24.6238
81.732056 83.064 -24.6935
82.324320 83.023 -24.7539
82.920876 82.983 -24.8044
83.521755 82.945 -24.8447
84.126988 82.908 -24.8752
84.736607 82.872 -24.8976
85.350643 82.837 -24.9144
85.969129 82.802 -24.9280
86.592097 82.768 -24.9391
87.219579 82.734 -24.9489
87.851608 82.700 -24.9590
88.488217 82.665 -24.9712
89.129439 82.631 -24.9846
89.775308 82.596 -24.9960
90.425856 82.562 -25.0018
91.081119 82.528 -25.0011
91.741131 82.495 -24.9954
92.405925 82.463 -24.9868
93.075536 82.432 -24.9766
93.750000 82.401 -24.9645
94.429351 82.369 -24.9487
95.113625 82.336 -24.9280
95.802858 82.303 -24.9023
96.497085 82.269 -24.8738
97.196342 82.236 -24.8458
97.900667 82.203 -24.8221
98.610096 82.171 -24.8044
99.324665 82.139 -24.7927
100.044413 82.107 -24.7858
100.769376 82.076 -24.7815
101.499592 82.044 -24.7775
102.235100 82.012 -24.7694
102.975938 81.980 -24.7524
103.722144 81.947 -24.7229
104.473757 81.915 -24.6808
105.230817 81.884 -24.6300
105.993363 81.854 -24.5762
106.761435 81.825 -24.5249
107.535072 81.797 -24.4808
108.314315 81.772 -24.4463
109.099206 81.747 -24.4216
109.889783 81.723 -24.4053
110.686090 81.700 -24.3931
111.488167 81.677 -24.3788
112.296056 81.654 -24.3574
113.109800 81.631 -24.3269
113.929440 81.607 -24.2878
114.755020 81.582 -24.2427
115.586582 81.556 -24.1934
116.424170 81.528 -24.1415
117.267827 81.498 -24.0880
118.117598 81.469 -24.0328
118.973527 81.440 -23.9747
119.835658 81.413 -23.9127
120.704037 81.389 -23.8480
121.578708 81.368 -23.7843
122.459718 81.350 -23.7241
123.347111 81.334 -23.6689
124.240935 81.318 -23.6198
125.141236 81.301 -23.5759
126.048061 81.283 -23.5360
126.961458 81.262 -23.5004
127.881473 81.240 -23.4717
128.808154 81.216 -23.4518
129.741551 81.190 -23.4402
130.681712 81.164 -23.4338
131.628686 81.138 -23.4298
132.582521 81.113 -23.4261
133.543269 81.090 -23.4199
134.510979 81.068 -23.4086
135.485701 81.047 -23.3901
136.467486 81.028 -23.3635
137.456386 81.010 -23.3296
138.452451 80.992 -23.2903
139.455735 80.975 -23.2462
140.466288 80.957 -23.1980
141.484165 80.938 -23.1477
142.509418 80.920 -23.0981
143.542100 80.900 -23.0529
144.582265 80.880 -23.0156
145.629968 80.860 -22.9884
146.685262 80.840 -22.9698
147.748204 80.820 -22.9578
148.818849 80.800 -22.9470
149.897251 80.781 -22.9302
150.983469 80.762 -22.9016
152.077557 80.743 -22.8611
153.179574 80.725 -22.8125
154.289576 80.706 -22.7616
155.407622 80.685 -22.7122
156.533770 80.664 -22.6649
157.668078 80.641 -22.6212
158.810606 80.618 -22.5823
159.961413 80.596 -22.5488
161.120559 80.576 -22.5204
162.288105 80.557 -22.4963
163.464112 80.541 -22.4755
164.648640 80.524 -22.4543
165.841752 80.508 -22.4296
167.043510 80.491 -22.3988
168.253976 80.472 -22.3606
169.473213 80.452 -22.3147
170.701286 80.432 -22.2623
171.938258 80.410 -22.2063
173.184194 80.389 -22.1478
174.439158 80.368 -22.0867
175.703216 80.349 -22.0225
176.976434 80.330 -21.9567
178.258878 80.313 -21.8911
179.550615 80.296 -21.8287
180.851713 80.279 -21.7729
182.162239 80.262 -21.7262
183.482262 80.245 -21.6877
184.811850 80.228 -21.6547
186.151073 80.212 -21.6227
187.500000 80.196 -21.5876
188.858702 80.181 -21.5459
190.227250 80.167 -21.4954
191.605715 80.153 -21.4368
192.994169 80.140 -21.3743
194.392685 80.126 -21.3125
195.801334 80.112 -21.2531
197.220191 80.097 -21.1959
198.649330 80.083 -21.1423
200.088825 80.068 -21.0941
201.538751 80.053 -21.0513
202.999184 80.038 -21.0100
204.470200 80.022 -20.9646
205.951875 80.007 -20.9110
207.444287 79.991 -20.8480
208.947514 79.976 -20.7749
210.461634 79.960 -20.6920
211.986726 79.944 -20.6016
213.522869 79.928 -20.5090
215.070144 79.913 -20.4207
216.628631 79.899 -20.3396
218.198411 79.886 -20.2639
219.779567 79.872 -20.1866
221.372180 79.859 -20.0986
222.976334 79.846 -19.9937
224.592112 79.835 -19.8727
226.219600 79.826 -19.7416
227.858880 79.818 -19.6073
229.510039 79.813 -19.4745
231.173164 79.808 -19.3429
232.848340 79.803 -19.2095
234.535655 79.798 -19.0692
236.235197 79.792 -18.9182
237.947054 79.785 -18.7566
239.671317 79.776 -18.5889
241.408074 79.767 -18.4224
243.157416 79.757 -18.2627
244.919435 79.749 -18.1112
246.694223 79.742 -17.9642
248.481871 79.736 -17.8165
250.282473 79.731 -17.6644
252.096123 79.726 -17.5077
253.922915 79.722 -17.3478
255.762945 79.717 -17.1860
257.616309 79.711 -17.0226
259.483103 79.706 -16.8560
261.363424 79.701 -16.6860
263.257372 79.695 -16.5142
265.165043 79.690 -16.3422
267.086538 79.685 -16.1699
269.021957 79.681 -15.9966
270.971401 79.677 -15.8212
272.934972 79.673 -15.6432
274.912771 79.670 -15.4630
276.904902 79.666 -15.2811
278.911469 79.663 -15.0979
280.932577 79.661 -14.9133
282.968330 79.658 -14.7278
285.018835 79.656 -14.5414
287.084199 79.655 -14.3551
289.164530 79.654 -14.1700
291.259935 79.654 -13.9872
293.370525 79.654 -13.8071
295.496408 79.654 -13.6300
297.637697 79.654 -13.4553
299.794503 79.654 -13.2823
301.966937 79.655 -13.1090
304.155114 79.656 -12.9325
306.359147 79.656 -12.7504
308.579152 79.657 -12.5613
310.815244 79.658 -12.3651
313.067539 79.659 -12.1637
315.336156 79.661 -11.9595
317.621211 79.663 -11.7552
319.922826 79.665 -11.5537
322.241118 79.668 -11.3571
324.576210 79.673 -11.1655
326.928223 79.678 -10.9771
329.297280 79.684 -10.7882
331.683504 79.691 -10.5961
334.087019 79.699 -10.4000
336.507952 79.708 -10.2014
338.946427 79.718 -10.0022
341.402572 79.728 -9.8032
343.876516 79.739 -9.6045
346.368387 79.751 -9.4058
348.878315 79.764 -9.2078
351.406431 79.777 -9.0121
353.952867 79.791 -8.8213
356.517756 79.805 -8.6382
359.101230 79.820 -8.4645
361.703426 79.835 -8.3005
364.324478 79.851 -8.1458
366.964523 79.868 -7.9993
369.623699 79.884 -7.8605
372.302145 79.901 -7.7291
375.000000 79.917 -7.6045
377.717405 79.932 -7.4851
380.454501 79.947 -7.3690
383.211431 79.961 -7.2540
385.988339 79.974 -7.1390
388.785369 79.987 -7.0244
391.602668 79.999 -6.9125
394.440383 80.011 -6.8059
397.298660 80.022 -6.7061
400.177650 80.031 -6.6115
403.077502 80.040 -6.5188
405.998368 80.048 -6.4244
408.940400 80.055 -6.3260
411.903750 80.061 -6.2230
414.888575 80.066 -6.1173
417.895028 80.071 -6.0107
420.923268 80.076 -5.9044
423.973452 80.080 -5.7975
427.045738 80.084 -5.6879
430.140287 80.087 -5.5731
433.257261 80.088 -5.4523
436.396822 80.089 -5.3257
439.559133 80.089 -5.1960
442.744360 80.090 -5.0653
445.952668 80.091 -4.9340
449.184225 80.091 -4.8015
452.439199 80.092 -4.6666
455.717760 80.093 -4.5288
459.020079 80.093 -4.3879
462.346327 80.093 -4.2443
465.696680 80.093 -4.0975
469.071310 80.092 -3.9475
472.470394 80.091 -3.7941
475.894109 80.090 -3.6372
479.342634 80.088 -3.4781
482.816148 80.087 -3.3186
486.314833 80.084 -3.1591
489.838871 80.082 -2.9974
493.388445 80.079 -2.8313
496.963741 80.077 -2.6592
500.564945 80.073 -2.4819
504.192245 80.070 -2.3005
507.845830 80.066 -2.1151
511.525890 80.061 -1.9250
515.232618 80.056 -1.7307
518.966206 80.050 -1.5326
522.726849 80.044 -1.3311
526.514743 80.038 -1.1261
530.330086 80.032 -0.9167
534.173076 80.026 -0.7030
538.043915 80.020 -0.4845
541.942803 80.014 -0.2606
545.869944 80.007 -0.0309
549.825542 80.001 0.2048
553.809805 79.994 0.4462
557.822939 79.987 0.6925
561.865154 79.980 0.9434
565.936660 79.973 1.1979
570.037671 79.966 1.4556
574.168399 79.958 1.7166
578.329060 79.949 1.9819
582.519870 79.940 2.2532
586.741049 79.930 2.5321
590.992817 79.921 2.8199
595.275394 79.911 3.1172
599.589005 79.902 3.4235
603.933874 79.892 3.7380
608.310228 79.883 4.0602
612.718295 79.873 4.3895
617.158304 79.864 4.7266
621.630488 79.854 5.0714
626.135079 79.845 5.4244
630.672311 79.835 5.7848
635.242423 79.825 6.1520
639.845651 79.815 6.5259
644.482237 79.805 6.9067
649.152421 79.795 7.2948
653.856447 79.785 7.6902
658.594560 79.775 8.0928
663.367008 79.766 8.5034
668.174039 79.757 8.9238
673.015903 79.750 9.3555
677.892854 79.743 9.7983
682.805145 79.738 10.2504
687.753032 79.734 10.7069
692.736774 79.732 11.1617
697.756631 79.730 11.6075
702.812863 79.729 12.0382
707.905735 79.728 12.4504
713.035511 79.726 12.8427
718.202461 79.723 13.2142
723.406852 79.719 13.5652
728.648956 79.715 13.8971
733.929047 79.711 14.2125
739.247399 79.707 14.5160
744.604290 79.705 14.8120
750.000000 79.703 15.1036
755.434809 79.704 15.3932
760.909001 79.706 15.6824
766.422861 79.709 15.9724
771.976677 79.714 16.2645
777.570739 79.720 16.5604
783.205337 79.727 16.8618
788.880766 79.736 17.1692
794.597321 79.746 17.4805
800.355301 79.757 17.7933
806.155005 79.769 18.1066
811.996736 79.783 18.4203
817.880799 79.799 18.7354
823.807501 79.816 19.0518
829.777150 79.834 19.3694
835.790057 79.853 19.6875
841.846536 79.874 20.0061
847.946903 79.896 20.3248
854.091476 79.919 20.6431
860.280575 79.943 20.9600
866.514523 79.969 21.2745
872.793644 79.997 21.5863
879.118267 80.026 21.8954
885.488720 80.057 22.2029
891.905336 80.089 22.5092
898.368450 80.123 22.8132
904.878398 80.159 23.1135
911.435520 80.195 23.4087
918.040157 80.234 23.6981
924.692655 80.273 23.9814
931.393359 80.314 24.2583
938.142619 80.356 24.5286
944.940787 80.400 24.7925
951.788218 80.445 25.0505
958.685268 80.491 25.3022
965.632296 80.538 25.5470
972.629666 80.586 25.7837
979.677741 80.635 26.0120
986.776890 80.685 26.2321
993.927482 80.736 26.4440
1001.129891 80.788 26.6475
1008.384491 80.842 26.8418
1015.691660 80.897 27.0254
1023.051781 80.953 27.1975
1030.465236 81.010 27.3575
1037.932411 81.068 27.5057
1045.453698 81.126 27.6420
1053.029486 81.185 27.7662
1060.660172 81.244 27.8783
1068.346153 81.303 27.9784
1076.087829 81.362 28.0669
1083.885605 81.422 28.1443
1091.739887 81.482 28.2098
1099.651084 81.541 28.2627
1107.619609 81.599 28.3014
1115.645878 81.657 28.3265
1123.730308 81.715 28.3392
1131.873321 81.772 28.3398
1140.075341 81.828 28.3276
1148.336797 81.883 28.3016
1156.658119 81.938 28.2620
1165.039741 81.991 28.2107
1173.482099 82.044 28.1525
1181.985634 82.096 28.0928
1190.550789 82.146 28.0353
1199.178011 82.196 27.9778
1207.867749 82.244 27.9149
1216.620457 82.291 27.8425
1225.436590 82.336 27.7590
1234.316609 82.381 27.6655
1243.260976 82.423 27.5651
1252.270157 82.464 27.4611
1261.344623 82.504 27.3556
1270.484846 82.541 27.2498
1279.691303 82.576 27.1434
1288.964474 82.608 27.0361
1298.304842 82.639 26.9283
1307.712894 82.668 26.8209
1317.189120 82.695 26.7137
1326.734016 82.720 26.6063
1336.348077 82.744 26.5000
1346.031806 82.766 26.3982
1355.785708 82.786 26.3054
1365.610290 82.804 26.2247
1375.506065 82.819 26.1589
1385.473549 82.831 26.1101
1395.513261 82.841 26.0818
1405.625726 82.849 26.0789
1415.811469 82.855 26.1069
1426.071023 82.859 26.1720
1436.404921 82.863 26.2795
1446.813703 82.867 26.4360
1457.297912 82.872 26.6481
1467.858093 82.882 26.9214
1478.494798 82.898 27.2590
1489.208581 82.924 27.6592
1500.000000 82.963 28.1122
1510.869618 83.019 28.6003
1521.818002 83.092 29.0978
1532.845723 83.183 29.5725
1543.953355 83.292 29.9899
1555.141477 83.415 30.3176
1566.410674 83.549 30.5305
1577.761531 83.687 30.6150
1589.194642 83.825 30.5712
1600.710601 83.960 30.4104
1612.310010 84.087 30.1515
1623.993473 84.204 29.8163
1635.761599 84.310 29.4268
1647.615002 84.405 29.0018
1659.554299 84.489 28.5575
1671.580114 84.564 28.1056
1683.693072 84.631 27.6554
1695.893807 84.691 27.2133
1708.182952 84.745 26.7838
1720.561150 84.796 26.3694
1733.029045 84.843 25.9707
1745.587288 84.888 25.5870
1758.236533 84.930 25.2169
1770.977440 84.971 24.8591
1783.810673 85.009 24.5123
1796.736900 85.047 24.1755
1809.756796 85.083 23.8481
1822.871040 85.119 23.5288
1836.080315 85.155 23.2158
1849.385310 85.191 22.9076
1862.786718 85.226 22.6034
1876.285239 85.261 22.3037
1889.881575 85.297 22.0093
1903.576436 85.332 21.7203
1917.370535 85.367 21.4366
1931.264593 85.402 21.1575
1945.259332 85.437 20.8817
1959.355483 85.473 20.6083
1973.553781 85.509 20.3354
1987.854965 85.545 20.0618
2002.259781 85.582 19.7861
2016.768981 85.619 19.5077
2031.383320 85.656 19.2268
2046.103561 85.694 18.9446
2060.930471 85.732 18.6617
2075.864823 85.770 18.3781
2090.907395 85.810 18.0927
2106.058972 85.849 17.8043
2121.320344 85.890 17.5121
2136.692305 85.931 17.2157
2152.175658 85.973 16.9139
2167.771210 86.015 16.6056
2183.479774 86.057 16.2894
2199.302169 86.100 15.9645
2215.239219 86.144 15.6304
2231.291755 86.188 15.2867
2247.460615 86.233 14.9335
2263.746641 86.278 14.5696
2280.150683 86.324 14.1943
2296.673595 86.370 13.8074
2313.316238 86.416 13.4083
2330.079481 86.462 12.9967
2346.964198 86.508 12.5717
2363.971268 86.555 12.1328
2381.101578 86.601 11.6801
2398.356022 86.646 11.2130
2415.735498 86.691 10.7314
2433.240913 86.735 10.2345
2450.873180 86.779 9.7216
2468.633217 86.822 9.1920
2486.521951 86.863 8.6461
2504.540314 86.903 8.0847
2522.689246 86.941 7.5088
2540.969692 86.977 6.9197
2559.382606 87.010 6.3185
2577.928947 87.042 5.7063
2596.609683 87.071 5.0847
2615.425787 87.098 4.4547
2634.378241 87.122 3.8170
2653.468031 87.143 3.1727
2672.696154 87.162 2.5240
2692.063613 87.178 1.8739
2711.571415 87.192 1.2253
2731.220579 87.204 0.5807
2751.012130 87.214 -0.0594
2770.947098 87.224 -0.6957
2791.026522 87.233 -1.3298
2811.251451 87.242 -1.9655
2831.622938 87.252 -2.6069
2852.142045 87.263 -3.2606
2872.809842 87.274 -3.9329
2893.627406 87.286 -4.6300
2914.595823 87.298 -5.3569
2935.716186 87.307 -6.1168
2956.989596 87.314 -6.9103
2978.417161 87.316 -7.7356
3000.000000 87.312 -8.5890
3021.739237 87.302 -9.4646
3043.636005 87.285 -10.3551
3065.691446 87.259 -11.2523
3087.906710 87.226 -12.1476
3110.282955 87.185 -13.0325
3132.821347 87.137 -13.8988
3155.523062 87.083 -14.7391
3178.389283 87.023 -15.5477
3201.421202 86.959 -16.3214
3224.620020 86.892 -17.0602
3247.986946 86.824 -17.7665
3271.523198 86.754 -18.4445
3295.230004 86.684 -19.0985
3319.108599 86.613 -19.7327
3343.160228 86.541 -20.3501
3367.386145 86.469 -20.9526
3391.787613 86.395 -21.5411
3416.365904 86.320 -22.1151
3441.122300 86.244 -22.6735
3466.058091 86.167 -23.2148
3491.174576 86.088 -23.7384
3516.473066 86.009 -24.2435
3541.954880 85.928 -24.7297
3567.621345 85.847 -25.1967
3593.473800 85.765 -25.6442
3619.513592 85.683 -26.0730
3645.742080 85.601 -26.4838
3672.160630 85.519 -26.8773
3698.770620 85.437 -27.2542
3725.573436 85.355 -27.6145
3752.570477 85.274 -27.9587
3779.763150 85.194 -28.2872
3807.152872 85.115 -28.6007
3834.741071 85.036 -28.9000
3862.529185 84.959 -29.1862
3890.518664 84.883 -29.4602
3918.710966 84.808 -29.7231
3947.107561 84.735 -29.9760
3975.709929 84.663 -30.2200
4004.519563 84.593 -30.4564
4033.537962 84.524 -30.6865
4062.766641 84.458 -30.9099
4092.207123 84.393 -31.1251
4121.860942 84.331 -31.3286
4151.729646 84.270 -31.5137
4181.814790 84.210 -31.6685
4212.117944 84.150 -31.7733
4242.640687 84.091 -31.7998
4273.384610 84.034 -31.7107
4304.351317 83.978 -31.4661
4335.542421 83.927 -31.0360
4366.959549 83.881 -30.4111
4398.604338 83.838 -29.6051
4430.478438 83.797 -28.6489
4462.583511 83.756 -27.5795
4494.921231 83.715 -26.4302
4527.493283 83.675 -25.2264
4560.301365 83.634 -23.9866
4593.347189 83.595 -22.7240
4626.632476 83.557 -21.4482
4660.158962 83.520 -20.1666
4693.928395 83.484 -18.8849
4727.942535 83.450 -17.6083
4762.203156 83.415 -16.3417
4796.712043 83.380 -15.0896
4831.470996 83.343 -13.8555
4866.481826 83.304 -12.6417
4901.746360 83.262 -11.4493
4937.266434 83.214 -10.2783
4973.043902 83.160 -9.1267
5009.080628 83.099 -7.9894
5045.378492 83.028 -6.8591
5081.939384 82.948 -5.7266
5118.765212 82.855 -4.5806
5155.857894 82.751 -3.4080
5193.219366 82.635 -2.1945
5230.851574 82.506 -0.9246
5268.756481 82.365 0.4177
5306.936062 82.214 1.8468
5345.392309 82.054 3.3756
5384.127225 81.884 5.0149
5423.142830 81.709 6.7738
5462.441159 81.529 8.6587
5502.024259 81.346 10.6724
5541.894195 81.164 12.8136
5582.053045 80.982 15.0792
5622.502902 80.804 17.4652
5663.245876 80.631 19.9664
5704.284090 80.464 22.5763
5745.619684 80.305 25.2860
5787.254813 80.156 28.0844
5829.191647 80.016 30.9596
5871.432373 79.888 33.9001
5913.979192 79.769 36.8961
5956.834323 79.661 39.9381
6000.000000 79.562 43.0187
6043.478473 79.471 46.1318
6087.272010 79.388 49.2743
6131.382892 79.312 52.4443
6175.813420 79.241 55.6407
6220.565910 79.176 58.8621
6265.642695 79.115 62.1067
6311.046124 79.058 65.3726
6356.778566 79.004 68.6592
6402.842404 78.953 71.9683
6449.240040 78.905 75.3038
6495.973891 78.858 78.6704
6543.046396 78.813 82.0718
6590.460007 78.770 85.5103
6638.217197 78.727 88.9885
6686.320456 78.686 92.5103
6734.772290 78.646 96.0802
6783.575226 78.607 99.7039
6832.731809 78.568 103.3879
6882.244600 78.531 107.1399
6932.116181 78.493 110.9690
6982.349153 78.457 114.8865
7032.946133 78.422 118.9048
7083.909760 78.391 123.0361
7135.242690 78.364 127.2947
7186.947600 78.344 131.6956
7239.027185 78.334 136.2556
7291.484160 78.336 140.9927
7344.321260 78.357 145.9243
7397.541239 78.400 151.0658
7451.146872 78.476 156.4279
7505.140954 78.591 162.0110
7559.526299 78.755 167.7998
7614.305743 78.979 173.7554
7669.482141 79.271 179.8098
7725.058371 79.639 -174.1366
7781.037328 80.086 -168.2119
7837.421932 80.611 -162.5610
7894.215122 81.207 -157.3318
7951.419859 81.863 -152.6639
8009.039125 82.564 -148.6780
8067.075924 83.290 -145.4663
8125.533282 84.021 -143.0874
8184.414245 84.733 -141.5643
8243.721885 85.402 -140.8843
8303.459292 86.005 -140.9983
8363.629581 86.520 -141.8201
8424.235888 86.927 -143.2275
8485.281374 87.210 -145.0654
8546.769221 87.360 -147.1527
8608.702634 87.372 -149.2950
8671.084842 87.248 -151.2982
8733.919097 86.999 -152.9835
8797.208675 86.637 -154.2003
8860.956876 86.181 -154.8339
8925.167022 85.649 -154.8086
8989.842461 85.063 -154.0865
9054.986566 84.439 -152.6631
9120.602731 83.795 -150.5615
9186.694378 83.145 -147.8250
9253.264952 82.499 -144.5098
9320.317925 81.867 -140.6775
9387.856790 81.253 -136.3905
9455.885071 80.663 -131.7075
9524.406312 80.097 -126.6814
9593.424086 79.558 -121.3585
9662.941992 79.046 -115.7785
9732.963653 78.558 -109.9744
9803.492719 78.096 -103.9730
9874.532869 77.656 -97.7955
9946.087805 77.239 -91.4587
10018.161257 76.842 -84.9756
10090.756983 76.464 -78.3567
10163.878768 76.104 -71.6094
10237.530423 75.761 -64.7393
10311.715789 75.434 -57.7498
10386.438732 75.122 -50.6426
10461.703149 74.826 -43.4183
10537.512962 74.544 -36.0777
10613.872125 74.278 -28.6209
10690.784618 74.027 -21.0505
10768.254450 73.793 -13.3717
10846.285661 73.576 -5.5939
10924.882318 73.375 2.2699
11004.048518 73.190 10.2062
11083.788390 73.021 18.2015
11164.106090 72.867 26.2440
11245.005805 72.727 34.3229
11326.491752 72.600 42.4290
11408.568180 72.486 50.5538
11491.239368 72.382 58.6897
11574.509626 72.287 66.8306
11658.383294 72.200 74.9717
11742.864745 72.117 83.1104
11827.958384 72.037 91.2455
11913.668646 71.957 99.3786
12000.000000 71.875 107.5145
12086.956947 71.789 115.6618
12174.544019 71.696 123.8346
12262.765784 71.595 132.0532
12351.626840 71.484 140.3439
12441.131819 71.363 148.7371
12531.285389 71.231 157.2667
12622.092249 71.089 165.9686
12713.557132 70.938 174.8820
12805.684808 70.780 -175.9512
12898.480079 70.618 -166.4847
12991.947783 70.458 -156.6697
13086.092792 70.305 -146.4565
13180.920015 70.166 -135.7999
13276.434395 70.051 -124.6655
13372.640911 69.971 -113.0411
13469.544580 69.936 -100.9528
13567.150452 69.960 -88.4893
13665.463617 70.053 -75.8267
13764.489200 70.228 -63.2321
13864.232362 70.493 -51.0211
13964.698305 70.860 -39.4675
14065.892266 71.338 -28.7190
14167.819519 71.936 -18.7946
14270.485380 72.662 -9.6657
14373.895200 73.515 -1.3477
14478.054370 74.486 6.0605
14582.968320 75.555 12.3885
14688.642520 76.694 17.4377
14795.082478 77.864 21.0309
14902.293745 79.021 23.0499
15010.281908 80.115 23.4589
15119.052599 81.094 22.3173
15228.611486 81.906 19.7902
15338.964283 82.504 16.1586
15450.116741 82.849 11.8231
15562.074656 82.924 7.2814
15674.843864 82.733 3.0648
15788.430244 82.307 -0.3441
15902.839718 81.695 -2.5729
16018.078250 80.956 -3.3839
16134.151848 80.156 -2.6770
16251.066563 79.359 -0.4901
16368.828491 78.626 2.9991
16487.443769 78.009 7.4802
16606.918584 77.547 12.5315
16727.259161 77.259 17.6664
16848.471777 77.142 22.3937
16970.562748 77.172 26.2793
17093.538442 77.307 28.9948
17217.405268 77.489 30.3456
17342.169684 77.653 30.2823
17467.838194 77.732 28.8987
17594.417350 77.663 26.4255
17721.913751 77.397 23.2135
17850.334044 76.901 19.6961
17979.684923 76.167 16.3281
18109.973131 75.202 13.5238
18241.205462 74.030 11.6182
18373.388756 72.678 10.8579
18506.529905 71.178 11.4095
18640.635849 69.561 13.3708
18775.713581 67.853 16.7814
18911.770141 66.081 21.6313
19048.812624 64.265 27.8738
19186.848172 62.424 35.4469
19325.883983 60.574 44.3028
19465.927305 58.734 54.4066
19606.985439 56.940 65.6165
19749.065738 55.274 77.2854
19892.175609 53.901 87.6639
20036.322514 53.092 93.9809
