* Measurement data measured by REW V5.31.3
* Source: Headset (3- CX31993 HIFI AUDIO), MICROPHONE (Master Volume), R, volume: 0.400
* Format: 256k Log Swept Sine, 1 sweep at -11.9 dBFS with no timing reference
* Dated: 04 11, 25 4:04:26 PM
* REW Settings:
*  C-weighting compensation: Off
*  Target level: 75.0 dB
* Note: ; 
* Measurement: Tangzu Wan'er 2 R
* Smoothing: 1/12 octave
* Frequency Step: 96 ppo
* Start Frequency: 0.36621094 Hz
*
* Freq(Hz) SPL(dB) Phase(degrees)
0.366211 41.505 7.7522
0.368865 41.526 7.8267
0.371538 41.556 7.9373
0.374230 41.594 8.0745
0.376942 41.636 8.2301
0.379673 41.681 8.3981
0.382424 41.728 8.5747
0.385196 41.777 8.7574
0.387987 41.826 8.9448
0.390798 41.875 9.1363
0.393630 41.925 9.3313
0.396483 41.976 9.5298
0.399356 42.027 9.7315
0.402250 42.078 9.9365
0.405165 42.130 10.1447
0.408101 42.182 10.3562
0.411058 42.235 10.5708
0.414037 42.288 10.7887
0.417037 42.341 11.0098
0.420059 42.395 11.2342
0.423103 42.449 11.4617
0.426169 42.503 11.6924
0.429257 42.558 11.9263
0.432368 42.613 12.1634
0.435501 42.669 12.4036
0.438656 42.725 12.6469
0.441835 42.781 12.8933
0.445037 42.838 13.1428
0.448262 42.896 13.3953
0.451510 42.953 13.6508
0.454782 43.011 13.9092
0.458077 43.070 14.1705
0.461397 43.129 14.4346
0.464740 43.188 14.7015
0.468108 43.248 14.9711
0.471500 43.308 15.2433
0.474917 43.369 15.5181
0.478358 43.430 15.7953
0.481825 43.492 16.0749
0.485316 43.554 16.3568
0.488833 43.616 16.6408
0.492375 43.679 16.9270
0.495943 43.742 17.2150
0.499537 43.806 17.5050
0.503157 43.871 17.7966
0.506803 43.935 18.0898
0.510475 44.001 18.3845
0.514175 44.066 18.6805
0.517900 44.132 18.9776
0.521653 44.199 19.2757
0.525434 44.266 19.5747
0.529241 44.334 19.8743
0.533076 44.402 20.1744
0.536939 44.471 20.4748
0.540830 44.540 20.7754
0.544749 44.609 21.0759
0.548696 44.680 21.3761
0.552673 44.750 21.6759
0.556677 44.821 21.9750
0.560711 44.893 22.2733
0.564774 44.965 22.5705
0.568867 45.038 22.8663
0.572989 45.111 23.1607
0.577141 45.185 23.4534
0.581324 45.259 23.7441
0.585536 45.334 24.0326
0.589779 45.409 24.3188
0.594053 45.485 24.6023
0.598358 45.562 24.8830
0.602694 45.639 25.1605
0.607061 45.716 25.4348
0.611460 45.795 25.7056
0.615891 45.873 25.9725
0.620354 45.953 26.2356
0.624849 46.032 26.4944
0.629377 46.113 26.7488
0.633938 46.194 26.9986
0.638532 46.275 27.2435
0.643159 46.358 27.4834
0.647819 46.441 27.7181
0.652514 46.524 27.9474
0.657242 46.608 28.1710
0.662005 46.693 28.3888
0.666802 46.778 28.6007
0.671634 46.864 28.8064
0.676501 46.950 29.0058
0.681403 47.037 29.1988
0.686341 47.125 29.3851
0.691314 47.214 29.5648
0.696324 47.303 29.7377
0.701370 47.393 29.9038
0.706452 47.484 30.0631
0.711571 47.576 30.2158
0.716728 47.669 30.3623
0.721921 47.765 30.5030
0.727153 47.863 30.6391
0.732422 47.964 30.7717
0.737729 48.068 30.9022
0.743075 48.176 31.0322
0.748460 48.287 31.1626
0.753883 48.400 31.2940
0.759346 48.516 31.4266
0.764849 48.634 31.5606
0.770391 48.755 31.6955
0.775974 48.877 31.8312
0.781597 49.001 31.9673
0.787261 49.127 32.1033
0.792966 49.255 32.2388
0.798712 49.385 32.3735
0.804500 49.516 32.5069
0.810329 49.649 32.6387
0.816201 49.785 32.7684
0.822116 49.922 32.8957
0.828073 50.060 33.0201
0.834074 50.201 33.1414
0.840118 50.343 33.2592
0.846206 50.487 33.3731
0.852338 50.632 33.4828
0.858514 50.779 33.5879
0.864735 50.927 33.6883
0.871001 51.077 33.7834
0.877313 51.229 33.8732
0.883670 51.382 33.9572
0.890074 51.536 34.0353
0.896524 51.692 34.1070
0.903020 51.848 34.1723
0.909564 52.006 34.2308
0.916155 52.166 34.2822
0.922794 52.326 34.3265
0.929481 52.488 34.3632
0.936216 52.650 34.3923
0.943000 52.813 34.4135
0.949834 52.977 34.4267
0.956717 53.142 34.4315
0.963649 53.308 34.4280
0.970632 53.474 34.4158
0.977666 53.641 34.3948
0.984750 53.808 34.3649
0.991886 53.975 34.3259
0.999074 54.143 34.2776
1.006314 54.311 34.2200
1.013606 54.479 34.1529
1.020951 54.647 34.0762
1.028349 54.815 33.9898
1.035801 54.982 33.8936
1.043307 55.149 33.7875
1.050867 55.315 33.6717
1.058482 55.481 33.5460
1.066152 55.646 33.4108
1.073878 55.811 33.2665
1.081660 55.974 33.1136
1.089498 56.137 32.9534
1.097393 56.299 32.7872
1.105345 56.461 32.6168
1.113355 56.622 32.4439
1.121423 56.783 32.2698
1.129549 56.944 32.0954
1.137734 57.105 31.9213
1.145979 57.266 31.7476
1.154283 57.427 31.5742
1.162647 57.588 31.4010
1.171072 57.749 31.2277
1.179558 57.910 31.0540
1.188106 58.072 30.8797
1.196715 58.233 30.7043
1.205387 58.394 30.5276
1.214122 58.556 30.3494
1.222920 58.717 30.1692
1.231782 58.879 29.9867
1.240708 59.040 29.8018
1.249699 59.202 29.6141
1.258754 59.364 29.4232
1.267876 59.525 29.2290
1.277063 59.687 29.0311
1.286318 59.849 28.8294
1.295639 60.011 28.6234
1.305027 60.173 28.4130
1.314484 60.335 28.1979
1.324009 60.497 27.9779
1.333604 60.659 27.7526
1.343268 60.821 27.5219
1.353002 60.983 27.2855
1.362806 61.145 27.0432
1.372681 61.308 26.7947
1.382628 61.470 26.5399
1.392647 61.632 26.2784
1.402739 61.795 26.0103
1.412904 61.958 25.7354
1.423142 62.120 25.4536
1.433455 62.283 25.1653
1.443843 62.445 24.8708
1.454305 62.608 24.5708
1.464844 62.770 24.2665
1.475459 62.933 23.9592
1.486150 63.094 23.6500
1.496920 63.256 23.3399
1.507767 63.417 23.0295
1.518693 63.578 22.7191
1.529698 63.738 22.4087
1.540783 63.897 22.0982
1.551948 64.057 21.7872
1.563194 64.215 21.4756
1.574521 64.374 21.1629
1.585931 64.531 20.8488
1.597423 64.689 20.5330
1.608999 64.846 20.2151
1.620658 65.003 19.8947
1.632402 65.159 19.5715
1.644232 65.315 19.2451
1.656146 65.471 18.9152
1.668147 65.626 18.5813
1.680235 65.781 18.2433
1.692411 65.936 17.9007
1.704675 66.091 17.5531
1.717028 66.246 17.2003
1.729470 66.400 16.8419
1.742003 66.555 16.4776
1.754626 66.709 16.1070
1.767341 66.863 15.7300
1.780147 67.017 15.3464
1.793047 67.172 14.9562
1.806040 67.326 14.5593
1.819128 67.480 14.1563
1.832310 67.633 13.7477
1.845587 67.787 13.3342
1.858961 67.940 12.9168
1.872432 68.092 12.4961
1.886001 68.244 12.0728
1.899667 68.395 11.6471
1.913433 68.546 11.2194
1.927299 68.696 10.7897
1.941265 68.845 10.3583
1.955332 68.994 9.9250
1.969501 69.142 9.4900
1.983773 69.290 9.0531
1.998148 69.437 8.6143
2.012627 69.584 8.1735
2.027212 69.730 7.7306
2.041902 69.875 7.2854
2.056698 70.021 6.8379
2.071602 70.166 6.3878
2.086614 70.310 5.9350
2.101734 70.454 5.4792
2.116964 70.598 5.0203
2.132304 70.742 4.5581
2.147756 70.886 4.0924
2.163320 71.029 3.6229
2.178996 71.172 3.1497
2.194786 71.315 2.6726
2.210690 71.457 2.1919
2.226710 71.599 1.7076
2.242845 71.740 1.2201
2.259098 71.880 0.7296
2.275468 72.019 0.2365
2.291957 72.158 -0.2591
2.308566 72.296 -0.7567
2.325295 72.433 -1.2563
2.342145 72.570 -1.7576
2.359117 72.706 -2.2605
2.376212 72.841 -2.7647
2.393431 72.976 -3.2704
2.410775 73.110 -3.7772
2.428244 73.244 -4.2853
2.445840 73.377 -4.7946
2.463564 73.510 -5.3051
2.481416 73.642 -5.8169
2.499397 73.774 -6.3301
2.517509 73.906 -6.8450
2.535752 74.037 -7.3617
2.554127 74.168 -7.8805
2.572635 74.298 -8.4017
2.591277 74.427 -8.9257
2.610055 74.556 -9.4524
2.628968 74.684 -9.9818
2.648019 74.811 -10.5139
2.667208 74.937 -11.0481
2.686535 75.063 -11.5844
2.706003 75.188 -12.1223
2.725612 75.312 -12.6614
2.745363 75.435 -13.2015
2.765257 75.558 -13.7422
2.785295 75.680 -14.2833
2.805478 75.801 -14.8246
2.825808 75.922 -15.3658
2.846285 76.043 -15.9069
2.866910 76.163 -16.4479
2.887685 76.282 -16.9889
2.908611 76.402 -17.5301
2.929688 76.520 -18.0720
2.950917 76.638 -18.6150
2.972301 76.755 -19.1595
2.993839 76.871 -19.7057
3.015534 76.987 -20.2536
3.037386 77.102 -20.8030
3.059396 77.216 -21.3536
3.081565 77.329 -21.9052
3.103896 77.441 -22.4572
3.126388 77.553 -23.0093
3.149043 77.664 -23.5611
3.171862 77.775 -24.1123
3.194847 77.885 -24.6626
3.217998 77.995 -25.2119
3.241317 78.104 -25.7599
3.264805 78.213 -26.3070
3.288463 78.321 -26.8533
3.312293 78.428 -27.3992
3.336295 78.535 -27.9452
3.360471 78.641 -28.4917
3.384822 78.747 -29.0387
3.409350 78.852 -29.5861
3.434056 78.956 -30.1339
3.458940 79.059 -30.6816
3.484005 79.162 -31.2291
3.509252 79.264 -31.7759
3.534681 79.366 -32.3218
3.560295 79.467 -32.8665
3.586094 79.568 -33.4097
3.612081 79.669 -33.9514
3.638255 79.769 -34.4917
3.664620 79.868 -35.0309
3.691175 79.967 -35.5691
3.717923 80.066 -36.1068
3.744864 80.164 -36.6442
3.772001 80.261 -37.1814
3.799335 80.358 -37.7182
3.826866 80.455 -38.2546
3.854597 80.550 -38.7905
3.882529 80.646 -39.3254
3.910664 80.741 -39.8594
3.939002 80.835 -40.3922
3.967546 80.929 -40.9237
3.996296 81.023 -41.4540
4.025255 81.117 -41.9831
4.054423 81.210 -42.5113
4.083804 81.303 -43.0388
4.113396 81.395 -43.5658
4.143204 81.487 -44.0923
4.173227 81.579 -44.6184
4.203468 81.670 -45.1441
4.233928 81.760 -45.6692
4.264609 81.851 -46.1938
4.295512 81.941 -46.7177
4.326639 82.030 -47.2409
4.357992 82.120 -47.7635
4.389572 82.209 -48.2856
4.421380 82.298 -48.8073
4.453419 82.386 -49.3287
4.485691 82.474 -49.8501
4.518196 82.562 -50.3714
4.550936 82.649 -50.8926
4.583914 82.736 -51.4137
4.617131 82.822 -51.9347
4.650589 82.909 -52.4556
4.684289 82.995 -52.9763
4.718233 83.080 -53.4968
4.752424 83.165 -54.0174
4.786862 83.250 -54.5381
4.821549 83.335 -55.0590
4.856488 83.419 -55.5803
4.891680 83.502 -56.1019
4.927127 83.586 -56.6238
4.962831 83.668 -57.1459
4.998794 83.751 -57.6681
5.035017 83.833 -58.1903
5.071503 83.915 -58.7125
5.108253 83.996 -59.2349
5.145270 84.076 -59.7575
5.182555 84.157 -60.2804
5.220110 84.237 -60.8037
5.257937 84.316 -61.3275
5.296038 84.395 -61.8515
5.334415 84.473 -62.3757
5.373071 84.551 -62.8998
5.412006 84.629 -63.4237
5.451224 84.706 -63.9474
5.490725 84.782 -64.4709
5.530514 84.858 -64.9943
5.570590 84.934 -65.5177
5.610957 85.008 -66.0411
5.651616 85.083 -66.5645
5.692570 85.157 -67.0877
5.733821 85.230 -67.6104
5.775370 85.303 -68.1325
5.817221 85.375 -68.6538
5.859375 85.447 -69.1745
5.901834 85.519 -69.6945
5.944602 85.590 -70.2139
5.987679 85.660 -70.7328
6.031068 85.730 -71.2511
6.074771 85.799 -71.7686
6.118792 85.868 -72.2852
6.163131 85.936 -72.8008
6.207792 86.004 -73.3152
6.252776 86.072 -73.8287
6.298086 86.139 -74.3411
6.343725 86.206 -74.8526
6.389694 86.272 -75.3632
6.435996 86.338 -75.8728
6.482634 86.403 -76.3814
6.529610 86.468 -76.8890
6.576926 86.533 -77.3955
6.624585 86.597 -77.9009
6.672590 86.661 -78.4053
6.720942 86.725 -78.9089
6.769645 86.788 -79.4116
6.818700 86.851 -79.9135
6.868111 86.913 -80.4146
6.917881 86.975 -80.9149
6.968010 87.037 -81.4144
7.018504 87.099 -81.9132
7.069362 87.160 -82.4115
7.120590 87.220 -82.9091
7.172189 87.281 -83.4062
7.224161 87.341 -83.9028
7.276511 87.401 -84.3988
7.329239 87.460 -84.8944
7.382350 87.519 -85.3896
7.435845 87.577 -85.8844
7.489729 87.636 -86.3789
7.544002 87.694 -86.8729
7.598669 87.751 -87.3665
7.653732 87.808 -87.8596
7.709194 87.865 -88.3522
7.765058 87.921 -88.8445
7.821327 87.977 -89.3362
7.878004 88.032 -89.8274
7.935091 88.087 -90.3180
7.992592 88.141 -90.8078
8.050510 88.195 -91.2968
8.108847 88.249 -91.7850
8.167607 88.302 -92.2723
8.226793 88.354 -92.7587
8.286408 88.407 -93.2440
8.346454 88.458 -93.7281
8.406936 88.510 -94.2110
8.467856 88.560 -94.6925
8.529218 88.611 -95.1727
8.591024 88.661 -95.6515
8.653278 88.711 -96.1289
8.715983 88.760 -96.6047
8.779143 88.809 -97.0790
8.842760 88.857 -97.5517
8.906839 88.905 -98.0228
8.971381 88.953 -98.4923
9.036392 89.001 -98.9603
9.101873 89.048 -99.4269
9.167829 89.095 -99.8919
9.234263 89.142 -100.3556
9.301178 89.188 -100.8179
9.368578 89.235 -101.2790
9.436467 89.281 -101.7389
9.504847 89.326 -102.1978
9.573723 89.372 -102.6557
9.643099 89.417 -103.1127
9.712976 89.462 -103.5689
9.783361 89.507 -104.0245
9.854255 89.551 -104.4794
9.925663 89.596 -104.9338
9.997588 89.640 -105.3877
10.070035 89.683 -105.8412
10.143007 89.726 -106.2942
10.216507 89.769 -106.7469
10.290540 89.812 -107.1991
10.365109 89.854 -107.6509
10.440219 89.896 -108.1021
10.515873 89.937 -108.5528
10.592076 89.978 -109.0029
10.668830 90.019 -109.4521
10.746141 90.059 -109.9005
10.824012 90.098 -110.3479
10.902447 90.137 -110.7943
10.981451 90.176 -111.2393
11.061027 90.214 -111.6830
11.141180 90.252 -112.1253
11.221913 90.290 -112.5660
11.303232 90.327 -113.0051
11.385140 90.363 -113.4425
11.467641 90.400 -113.8783
11.550741 90.435 -114.3123
11.634442 90.471 -114.7447
11.718750 90.506 -115.1756
11.803669 90.541 -115.6049
11.889203 90.576 -116.0329
11.975357 90.610 -116.4596
12.062136 90.644 -116.8852
12.149543 90.678 -117.3099
12.237583 90.712 -117.7337
12.326262 90.745 -118.1567
12.415583 90.778 -118.5791
12.505552 90.810 -119.0010
12.596172 90.843 -119.4224
12.687449 90.874 -119.8432
12.779387 90.905 -120.2633
12.871992 90.936 -120.6828
12.965268 90.967 -121.1013
13.059220 90.996 -121.5188
13.153852 91.026 -121.9349
13.249170 91.054 -122.3495
13.345179 91.083 -122.7622
13.441884 91.110 -123.1730
13.539289 91.138 -123.5815
13.637401 91.164 -123.9876
13.736223 91.191 -124.3912
13.835761 91.217 -124.7925
13.936021 91.243 -125.1914
14.037007 91.269 -125.5881
14.138725 91.295 -125.9831
14.241180 91.321 -126.3766
14.344377 91.346 -126.7692
14.448323 91.372 -127.1613
14.553021 91.398 -127.5535
14.658478 91.423 -127.9463
14.764700 91.449 -128.3400
14.871691 91.474 -128.7350
14.979457 91.498 -129.1314
15.088005 91.523 -129.5293
15.197339 91.546 -129.9284
15.307465 91.569 -130.3283
15.418389 91.592 -130.7283
15.530117 91.613 -131.1278
15.642655 91.634 -131.5257
15.756008 91.654 -131.9211
15.870182 91.673 -132.3130
15.985184 91.691 -132.7005
16.101019 91.709 -133.0828
16.217694 91.727 -133.4594
16.335214 91.745 -133.8301
16.453586 91.762 -134.1953
16.572815 91.781 -134.5554
16.692909 91.800 -134.9115
16.813872 91.819 -135.2649
16.935713 91.840 -135.6174
17.058436 91.861 -135.9708
17.182048 91.884 -136.3269
17.306556 91.907 -136.6875
17.431967 91.931 -137.0542
17.558286 91.955 -137.4281
17.685521 91.978 -137.8099
17.813677 92.002 -138.1994
17.942762 92.024 -138.5962
18.072783 92.045 -138.9990
18.203746 92.065 -139.4060
18.335658 92.083 -139.8151
18.468526 92.100 -140.2240
18.602356 92.114 -140.6300
18.737156 92.128 -141.0309
18.872934 92.139 -141.4246
19.009695 92.150 -141.8096
19.147447 92.160 -142.1850
19.286197 92.170 -142.5505
19.425953 92.180 -142.9063
19.566721 92.190 -143.2534
19.708510 92.201 -143.5932
19.851326 92.212 -143.9272
19.995177 92.224 -144.2570
20.140070 92.237 -144.5841
20.286013 92.250 -144.9099
20.433014 92.263 -145.2353
20.581080 92.277 -145.5606
20.730219 92.290 -145.8860
20.880439 92.304 -146.2115
21.031747 92.317 -146.5365
21.184152 92.329 -146.8608
21.337661 92.342 -147.1842
21.492282 92.354 -147.5064
21.648024 92.366 -147.8276
21.804895 92.378 -148.1481
21.962902 92.389 -148.4679
22.122054 92.400 -148.7872
22.282360 92.410 -149.1059
22.443827 92.419 -149.4232
22.606464 92.427 -149.7381
22.770280 92.434 -150.0491
22.935283 92.441 -150.3544
23.101481 92.446 -150.6523
23.268884 92.451 -150.9413
23.437500 92.456 -151.2207
23.607338 92.462 -151.4906
23.778406 92.468 -151.7525
23.950714 92.476 -152.0091
24.124271 92.485 -152.2642
24.299086 92.497 -152.5222
24.475167 92.510 -152.7881
24.652524 92.525 -153.0661
24.831166 92.540 -153.3597
25.011103 92.555 -153.6708
25.192344 92.569 -153.9996
25.374898 92.582 -154.3443
25.558775 92.592 -154.7016
25.743984 92.599 -155.0669
25.930536 92.603 -155.4350
26.118439 92.604 -155.8006
26.307704 92.603 -156.1594
26.498341 92.600 -156.5081
26.690359 92.596 -156.8450
26.883768 92.592 -157.1701
27.078579 92.587 -157.4846
27.274801 92.583 -157.7908
27.472446 92.580 -158.0913
27.671522 92.578 -158.3885
27.872042 92.576 -158.6842
28.074014 92.574 -158.9790
28.277450 92.573 -159.2729
28.482360 92.571 -159.5647
28.688755 92.570 -159.8531
28.896645 92.569 -160.1370
29.106042 92.569 -160.4160
29.316957 92.569 -160.6908
29.529400 92.571 -160.9631
29.743382 92.574 -161.2356
29.958915 92.579 -161.5113
30.176009 92.584 -161.7933
30.394677 92.590 -162.0836
30.614929 92.596 -162.3828
30.836778 92.601 -162.6901
31.060234 92.605 -163.0031
31.285309 92.607 -163.3185
31.512015 92.607 -163.6323
31.740364 92.606 -163.9412
31.970368 92.604 -164.2427
32.202039 92.600 -164.5355
32.435388 92.597 -164.8199
32.670428 92.593 -165.0969
32.907171 92.589 -165.3683
33.145630 92.586 -165.6358
33.385817 92.582 -165.9005
33.627745 92.578 -166.1629
33.871425 92.574 -166.4229
34.116871 92.570 -166.6799
34.364096 92.565 -166.9337
34.613113 92.560 -167.1842
34.863934 92.556 -167.4322
35.116572 92.551 -167.6788
35.371041 92.547 -167.9255
35.627354 92.543 -168.1735
35.885525 92.539 -168.4239
36.145566 92.535 -168.6770
36.407492 92.531 -168.9324
36.671316 92.527 -169.1896
36.937051 92.522 -169.4474
37.204712 92.517 -169.7048
37.474313 92.511 -169.9613
37.745867 92.506 -170.2165
38.019389 92.500 -170.4707
38.294893 92.495 -170.7245
38.572394 92.490 -170.9791
38.851905 92.485 -171.2351
39.133442 92.480 -171.4927
39.417019 92.474 -171.7513
39.702651 92.468 -172.0094
39.990353 92.461 -172.2648
40.280140 92.454 -172.5153
40.572026 92.446 -172.7593
40.866028 92.438 -172.9965
41.162160 92.431 -173.2278
41.460438 92.424 -173.4553
41.760877 92.417 -173.6810
42.063494 92.411 -173.9068
42.368303 92.405 -174.1332
42.675322 92.398 -174.3598
42.984565 92.391 -174.5859
43.296048 92.383 -174.8106
43.609789 92.375 -175.0338
43.925804 92.367 -175.2558
44.244108 92.359 -175.4774
44.564719 92.351 -175.6993
44.887654 92.342 -175.9214
45.212928 92.332 -176.1431
45.540560 92.322 -176.3639
45.870565 92.313 -176.5836
46.202962 92.303 -176.8029
46.537768 92.293 -177.0233
46.875000 92.283 -177.2466
47.214676 92.273 -177.4739
47.556813 92.263 -177.7052
47.901429 92.252 -177.9392
48.248542 92.240 -178.1733
48.598171 92.227 -178.4048
48.950334 92.213 -178.6318
49.305048 92.199 -178.8532
49.662333 92.185 -179.0695
50.022206 92.171 -179.2820
50.384688 92.158 -179.4924
50.749796 92.145 -179.7021
51.117550 92.133 -179.9119
51.487969 92.120 179.8782
51.861072 92.107 179.6682
52.236879 92.094 179.4586
52.615409 92.080 179.2498
52.996681 92.067 179.0423
53.380717 92.053 178.8365
53.767536 92.039 178.6324
54.157158 92.025 178.4300
54.549603 92.011 178.2291
54.944892 91.997 178.0294
55.343045 91.982 177.8309
55.744084 91.967 177.6335
56.148028 91.953 177.4375
56.554900 91.937 177.2432
56.964720 91.922 177.0510
57.377510 91.906 176.8613
57.793291 91.890 176.6741
58.212085 91.874 176.4895
58.633914 91.858 176.3065
59.058799 91.842 176.1242
59.486764 91.826 175.9419
59.917829 91.810 175.7592
60.352019 91.793 175.5763
60.789354 91.775 175.3937
61.229859 91.758 175.2113
61.673556 91.740 175.0286
62.120468 91.722 174.8452
62.570618 91.704 174.6614
63.024031 91.685 174.4783
63.480729 91.666 174.2974
63.940736 91.647 174.1191
64.404077 91.629 173.9430
64.870776 91.611 173.7677
65.340856 91.593 173.5921
65.814343 91.576 173.4160
66.291261 91.558 173.2403
66.771635 91.540 173.0668
67.255489 91.522 172.8975
67.742850 91.505 172.7334
68.233743 91.487 172.5748
68.728193 91.469 172.4215
69.226226 91.451 172.2734
69.727867 91.435 172.1286
70.233144 91.419 171.9821
70.742083 91.403 171.8256
71.254709 91.388 171.6526
71.771050 91.369 171.4641
72.291132 91.347 171.2704
72.814984 91.320 171.0854
73.342631 91.292 170.9197
73.874102 91.263 170.7752
74.409424 91.235 170.6466
74.948626 91.208 170.5249
75.491734 91.184 170.4022
76.038779 91.161 170.2732
76.589787 91.139 170.1368
77.144788 91.116 169.9950
77.703811 91.094 169.8513
78.266885 91.071 169.7089
78.834039 91.048 169.5694
79.405303 91.026 169.4321
79.980706 91.004 169.2947
80.560280 90.982 169.1549
81.144053 90.959 169.0129
81.732056 90.936 168.8716
82.324320 90.912 168.7339
82.920876 90.888 168.6008
83.521755 90.864 168.4709
84.126988 90.839 168.3433
84.736607 90.815 168.2179
85.350643 90.790 168.0946
85.969129 90.765 167.9728
86.592097 90.740 167.8520
87.219579 90.714 167.7324
87.851608 90.689 167.6152
88.488217 90.663 167.5009
89.129439 90.637 167.3888
89.775308 90.611 167.2780
90.425856 90.586 167.1678
91.081119 90.560 167.0579
91.741131 90.533 166.9491
92.405925 90.506 166.8425
93.075536 90.479 166.7393
93.750000 90.451 166.6399
94.429351 90.423 166.5437
95.113625 90.394 166.4496
95.802858 90.366 166.3564
96.497085 90.337 166.2645
97.196342 90.307 166.1751
97.900667 90.277 166.0900
98.610096 90.247 166.0097
99.324665 90.217 165.9331
100.044413 90.188 165.8579
100.769376 90.160 165.7820
101.499592 90.132 165.7042
102.235100 90.104 165.6251
102.975938 90.076 165.5457
103.722144 90.048 165.4673
104.473757 90.020 165.3907
105.230817 89.992 165.3160
105.993363 89.964 165.2430
106.761435 89.936 165.1712
107.535072 89.907 165.1011
108.314315 89.877 165.0338
109.099206 89.846 164.9697
109.889783 89.815 164.9086
110.686090 89.784 164.8495
111.488167 89.752 164.7912
112.296056 89.720 164.7318
113.109800 89.688 164.6694
113.929440 89.656 164.6030
114.755020 89.624 164.5332
115.586582 89.590 164.4636
116.424170 89.555 164.3995
117.267827 89.520 164.3442
118.117598 89.485 164.2968
118.973527 89.451 164.2539
119.835658 89.416 164.2136
120.704037 89.380 164.1789
121.578708 89.343 164.1560
122.459718 89.305 164.1509
123.347111 89.267 164.1679
124.240935 89.229 164.2067
125.141236 89.191 164.2630
126.048061 89.153 164.3314
126.961458 89.114 164.4066
127.881473 89.076 164.4846
128.808154 89.037 164.5605
129.741551 88.999 164.6273
130.681712 88.961 164.6797
131.628686 88.923 164.7202
132.582521 88.883 164.7606
133.543269 88.842 164.8163
134.510979 88.799 164.9009
135.485701 88.755 165.0223
136.467486 88.712 165.1812
137.456386 88.670 165.3693
138.452451 88.630 165.5750
139.455735 88.592 165.7903
140.466288 88.559 166.0167
141.484165 88.532 166.2639
142.509418 88.514 166.5430
143.542100 88.509 166.8553
144.582265 88.519 167.1813
145.629968 88.543 167.4865
146.685262 88.575 167.7399
147.748204 88.612 167.9229
148.818849 88.647 168.0274
149.897251 88.678 168.0529
150.983469 88.702 168.0082
152.077557 88.719 167.9099
153.179574 88.730 167.7772
154.289576 88.735 167.6272
155.407622 88.736 167.4722
156.533770 88.733 167.3193
157.668078 88.725 167.1705
158.810606 88.714 167.0254
159.961413 88.699 166.8839
161.120559 88.681 166.7495
162.288105 88.659 166.6270
163.464112 88.636 166.5201
164.648640 88.611 166.4299
165.841752 88.585 166.3546
167.043510 88.557 166.2921
168.253976 88.528 166.2408
169.473213 88.498 166.1989
170.701286 88.468 166.1636
171.938258 88.438 166.1333
173.184194 88.408 166.1086
174.439158 88.378 166.0917
175.703216 88.348 166.0839
176.976434 88.319 166.0844
178.258878 88.290 166.0907
179.550615 88.263 166.1010
180.851713 88.236 166.1147
182.162239 88.210 166.1318
183.482262 88.185 166.1523
184.811850 88.161 166.1761
186.151073 88.137 166.2034
187.500000 88.112 166.2343
188.858702 88.088 166.2676
190.227250 88.063 166.3002
191.605715 88.038 166.3292
192.994169 88.013 166.3539
194.392685 87.986 166.3756
195.801334 87.959 166.3963
197.220191 87.931 166.4170
198.649330 87.903 166.4377
200.088825 87.875 166.4587
201.538751 87.846 166.4815
202.999184 87.818 166.5089
204.470200 87.790 166.5433
205.951875 87.761 166.5871
207.444287 87.731 166.6407
208.947514 87.701 166.7028
210.461634 87.670 166.7709
211.986726 87.638 166.8418
213.522869 87.607 166.9120
215.070144 87.577 166.9804
216.628631 87.547 167.0477
218.198411 87.518 167.1170
219.779567 87.490 167.1918
221.372180 87.462 167.2736
222.976334 87.435 167.3606
224.592112 87.408 167.4492
226.219600 87.380 167.5382
227.858880 87.352 167.6299
229.510039 87.323 167.7275
231.173164 87.295 167.8317
232.848340 87.267 167.9396
234.535655 87.239 168.0484
236.235197 87.213 168.1574
237.947054 87.187 168.2692
239.671317 87.161 168.3879
241.408074 87.134 168.5168
243.157416 87.106 168.6570
244.919435 87.076 168.8076
246.694223 87.046 168.9668
248.481871 87.015 169.1349
250.282473 86.985 169.3149
252.096123 86.955 169.5109
253.922915 86.927 169.7264
255.762945 86.901 169.9619
257.616309 86.878 170.2133
259.483103 86.858 170.4723
261.363424 86.841 170.7295
263.257372 86.829 170.9771
265.165043 86.820 171.2114
267.086538 86.816 171.4326
269.021957 86.815 171.6406
270.971401 86.815 171.8320
272.934972 86.816 172.0029
274.912771 86.816 172.1544
276.904902 86.816 172.2923
278.911469 86.816 172.4211
280.932577 86.815 172.5395
282.968330 86.812 172.6409
285.018835 86.807 172.7177
287.084199 86.801 172.7676
289.164530 86.792 172.7955
291.259935 86.780 172.8123
293.370525 86.767 172.8293
295.496408 86.750 172.8530
297.637697 86.733 172.8858
299.794503 86.714 172.9287
301.966937 86.695 172.9831
304.155114 86.676 173.0508
306.359147 86.657 173.1339
308.579152 86.638 173.2336
310.815244 86.619 173.3492
313.067539 86.600 173.4769
315.336156 86.581 173.6111
317.621211 86.562 173.7468
319.922826 86.542 173.8818
322.241118 86.522 174.0154
324.576210 86.502 174.1483
326.928223 86.482 174.2817
329.297280 86.463 174.4177
331.683504 86.444 174.5580
334.087019 86.425 174.7032
336.507952 86.407 174.8526
338.946427 86.388 175.0059
341.402572 86.370 175.1626
343.876516 86.353 175.3226
346.368387 86.335 175.4854
348.878315 86.318 175.6506
351.406431 86.301 175.8174
353.952867 86.285 175.9854
356.517756 86.269 176.1541
359.101230 86.253 176.3237
361.703426 86.238 176.4951
364.324478 86.222 176.6689
366.964523 86.207 176.8453
369.623699 86.192 177.0239
372.302145 86.176 177.2039
375.000000 86.161 177.3846
377.717405 86.146 177.5659
380.454501 86.131 177.7481
383.211431 86.117 177.9315
385.988339 86.103 178.1164
388.785369 86.089 178.3026
391.602668 86.075 178.4905
394.440383 86.062 178.6803
397.298660 86.050 178.8719
400.177650 86.037 179.0648
403.077502 86.025 179.2589
405.998368 86.013 179.4543
408.940400 86.001 179.6508
411.903750 85.989 179.8479
414.888575 85.977 -179.9545
417.895028 85.966 -179.7561
420.923268 85.955 -179.5560
423.973452 85.944 -179.3536
427.045738 85.933 -179.1489
430.140287 85.923 -178.9421
433.257261 85.913 -178.7333
436.396822 85.903 -178.5229
439.559133 85.893 -178.3113
442.744360 85.883 -178.0994
445.952668 85.873 -177.8878
449.184225 85.864 -177.6767
452.439199 85.855 -177.4650
455.717760 85.847 -177.2513
459.020079 85.838 -177.0352
462.346327 85.830 -176.8170
465.696680 85.822 -176.5975
469.071310 85.815 -176.3769
472.470394 85.807 -176.1549
475.894109 85.799 -175.9309
479.342634 85.791 -175.7042
482.816148 85.783 -175.4744
486.314833 85.776 -175.2415
489.838871 85.769 -175.0063
493.388445 85.762 -174.7695
496.963741 85.757 -174.5321
500.564945 85.752 -174.2953
504.192245 85.747 -174.0602
507.845830 85.743 -173.8279
511.525890 85.739 -173.5985
515.232618 85.735 -173.3714
518.966206 85.732 -173.1454
522.726849 85.730 -172.9195
526.514743 85.728 -172.6933
530.330086 85.727 -172.4673
534.173076 85.725 -172.2431
538.043915 85.724 -172.0230
541.942803 85.722 -171.8093
545.869944 85.718 -171.6037
549.825542 85.712 -171.4066
553.809805 85.704 -171.2166
557.822939 85.693 -171.0296
561.865154 85.679 -170.8387
565.936660 85.660 -170.6339
570.037671 85.637 -170.4028
574.168399 85.612 -170.1334
578.329060 85.587 -169.8178
582.519870 85.564 -169.4567
586.741049 85.545 -169.0605
590.992817 85.533 -168.6450
595.275394 85.528 -168.2258
599.589005 85.528 -167.8137
603.933874 85.531 -167.4139
608.310228 85.538 -167.0273
612.718295 85.546 -166.6526
617.158304 85.554 -166.2880
621.630488 85.563 -165.9316
626.135079 85.571 -165.5807
630.672311 85.581 -165.2326
635.242423 85.591 -164.8852
639.845651 85.601 -164.5379
644.482237 85.613 -164.1915
649.152421 85.626 -163.8476
653.856447 85.639 -163.5079
658.594560 85.653 -163.1738
663.367008 85.666 -162.8457
668.174039 85.680 -162.5235
673.015903 85.694 -162.2060
677.892854 85.708 -161.8911
682.805145 85.722 -161.5767
687.753032 85.735 -161.2612
692.736774 85.749 -160.9435
697.756631 85.762 -160.6232
702.812863 85.776 -160.3002
707.905735 85.789 -159.9743
713.035511 85.803 -159.6453
718.202461 85.817 -159.3125
723.406852 85.832 -158.9756
728.648956 85.847 -158.6346
733.929047 85.863 -158.2897
739.247399 85.880 -157.9411
744.604290 85.897 -157.5888
750.000000 85.915 -157.2326
755.434809 85.934 -156.8727
760.909001 85.954 -156.5094
766.422861 85.974 -156.1432
771.976677 85.995 -155.7745
777.570739 86.018 -155.4033
783.205337 86.041 -155.0299
788.880766 86.065 -154.6545
794.597321 86.091 -154.2771
800.355301 86.117 -153.8979
806.155005 86.144 -153.5166
811.996736 86.173 -153.1331
817.880799 86.202 -152.7476
823.807501 86.233 -152.3606
829.777150 86.265 -151.9728
835.790057 86.298 -151.5847
841.846536 86.332 -151.1964
847.946903 86.367 -150.8082
854.091476 86.404 -150.4201
860.280575 86.442 -150.0319
866.514523 86.482 -149.6435
872.793644 86.523 -149.2552
879.118267 86.565 -148.8675
885.488720 86.609 -148.4811
891.905336 86.654 -148.0966
898.368450 86.701 -147.7145
904.878398 86.749 -147.3352
911.435520 86.798 -146.9589
918.040157 86.849 -146.5860
924.692655 86.901 -146.2168
931.393359 86.954 -145.8517
938.142619 87.009 -145.4910
944.940787 87.066 -145.1346
951.788218 87.123 -144.7829
958.685268 87.182 -144.4363
965.632296 87.243 -144.0953
972.629666 87.305 -143.7605
979.677741 87.367 -143.4325
986.776890 87.432 -143.1114
993.927482 87.497 -142.7979
1001.129891 87.563 -142.4925
1008.384491 87.631 -142.1953
1015.691660 87.699 -141.9064
1023.051781 87.769 -141.6256
1030.465236 87.840 -141.3528
1037.932411 87.911 -141.0884
1045.453698 87.983 -140.8325
1053.029486 88.056 -140.5856
1060.660172 88.130 -140.3481
1068.346153 88.204 -140.1201
1076.087829 88.279 -139.9017
1083.885605 88.354 -139.6929
1091.739887 88.430 -139.4932
1099.651084 88.506 -139.3024
1107.619609 88.582 -139.1201
1115.645878 88.659 -138.9462
1123.730308 88.736 -138.7810
1131.873321 88.813 -138.6245
1140.075341 88.890 -138.4766
1148.336797 88.968 -138.3370
1156.658119 89.045 -138.2055
1165.039741 89.123 -138.0819
1173.482099 89.200 -137.9657
1181.985634 89.278 -137.8569
1190.550789 89.355 -137.7550
1199.178011 89.433 -137.6596
1207.867749 89.510 -137.5704
1216.620457 89.587 -137.4872
1225.436590 89.664 -137.4098
1234.316609 89.741 -137.3383
1243.260976 89.818 -137.2727
1252.270157 89.895 -137.2129
1261.344623 89.973 -137.1585
1270.484846 90.050 -137.1094
1279.691303 90.127 -137.0652
1288.964474 90.204 -137.0256
1298.304842 90.281 -136.9905
1307.712894 90.358 -136.9597
1317.189120 90.435 -136.9331
1326.734016 90.512 -136.9108
1336.348077 90.589 -136.8928
1346.031806 90.667 -136.8789
1355.785708 90.744 -136.8693
1365.610290 90.822 -136.8640
1375.506065 90.900 -136.8627
1385.473549 90.978 -136.8653
1395.513261 91.056 -136.8718
1405.625726 91.135 -136.8821
1415.811469 91.214 -136.8963
1426.071023 91.293 -136.9146
1436.404921 91.373 -136.9373
1446.813703 91.453 -136.9646
1457.297912 91.534 -136.9967
1467.858093 91.615 -137.0338
1478.494798 91.696 -137.0760
1489.208581 91.778 -137.1232
1500.000000 91.861 -137.1758
1510.869618 91.944 -137.2336
1521.818002 92.028 -137.2971
1532.845723 92.112 -137.3663
1543.953355 92.198 -137.4417
1555.141477 92.283 -137.5237
1566.410674 92.370 -137.6129
1577.761531 92.457 -137.7099
1589.194642 92.545 -137.8150
1600.710601 92.634 -137.9287
1612.310010 92.724 -138.0513
1623.993473 92.814 -138.1829
1635.761599 92.905 -138.3239
1647.615002 92.997 -138.4748
1659.554299 93.090 -138.6362
1671.580114 93.183 -138.8088
1683.693072 93.278 -138.9935
1695.893807 93.373 -139.1908
1708.182952 93.468 -139.4014
1720.561150 93.565 -139.6258
1733.029045 93.662 -139.8644
1745.587288 93.759 -140.1178
1758.236533 93.858 -140.3867
1770.977440 93.956 -140.6717
1783.810673 94.055 -140.9734
1796.736900 94.155 -141.2928
1809.756796 94.255 -141.6305
1822.871040 94.355 -141.9875
1836.080315 94.455 -142.3647
1849.385310 94.555 -142.7628
1862.786718 94.655 -143.1825
1876.285239 94.755 -143.6244
1889.881575 94.854 -144.0892
1903.576436 94.953 -144.5773
1917.370535 95.051 -145.0891
1931.264593 95.148 -145.6251
1945.259332 95.243 -146.1857
1959.355483 95.337 -146.7713
1973.553781 95.430 -147.3824
1987.854965 95.521 -148.0191
2002.259781 95.609 -148.6817
2016.768981 95.695 -149.3701
2031.383320 95.779 -150.0843
2046.103561 95.860 -150.8239
2060.930471 95.937 -151.5885
2075.864823 96.011 -152.3775
2090.907395 96.081 -153.1900
2106.058972 96.147 -154.0253
2121.320344 96.208 -154.8821
2136.692305 96.264 -155.7593
2152.175658 96.316 -156.6556
2167.771210 96.362 -157.5694
2183.479774 96.402 -158.4986
2199.302169 96.437 -159.4409
2215.239219 96.465 -160.3934
2231.291755 96.486 -161.3529
2247.460615 96.501 -162.3161
2263.746641 96.508 -163.2793
2280.150683 96.508 -164.2384
2296.673595 96.501 -165.1887
2313.316238 96.487 -166.1255
2330.079481 96.465 -167.0430
2346.964198 96.436 -167.9354
2363.971268 96.401 -168.7961
2381.101578 96.360 -169.6185
2398.356022 96.314 -170.3960
2415.735498 96.265 -171.1232
2433.240913 96.213 -171.7961
2450.873180 96.161 -172.4138
2468.633217 96.111 -172.9792
2486.521951 96.066 -173.5002
2504.540314 96.027 -173.9896
2522.689246 95.995 -174.4650
2540.969692 95.970 -174.9468
2559.382606 95.952 -175.4551
2577.928947 95.939 -176.0066
2596.609683 95.927 -176.6121
2615.425787 95.912 -177.2741
2634.378241 95.893 -177.9878
2653.468031 95.867 -178.7418
2672.696154 95.831 -179.5213
2692.063613 95.785 179.6899
2711.571415 95.729 178.9070
2731.220579 95.663 178.1430
2751.012130 95.589 177.4083
2770.947098 95.508 176.7103
2791.026522 95.420 176.0537
2811.251451 95.328 175.4412
2831.622938 95.232 174.8737
2852.142045 95.133 174.3510
2872.809842 95.032 173.8719
2893.627406 94.930 173.4347
2914.595823 94.827 173.0374
2935.716186 94.724 172.6778
2956.989596 94.621 172.3536
2978.417161 94.518 172.0627
3000.000000 94.417 171.8031
3021.739237 94.317 171.5726
3043.636005 94.218 171.3691
3065.691446 94.120 171.1906
3087.906710 94.024 171.0351
3110.282955 93.929 170.9006
3132.821347 93.835 170.7854
3155.523062 93.744 170.6876
3178.389283 93.653 170.6057
3201.421202 93.565 170.5379
3224.620020 93.477 170.4832
3247.986946 93.391 170.4403
3271.523198 93.306 170.4086
3295.230004 93.222 170.3876
3319.108599 93.139 170.3769
3343.160228 93.056 170.3765
3367.386145 92.973 170.3869
3391.787613 92.891 170.4084
3416.365904 92.809 170.4423
3441.122300 92.727 170.4899
3466.058091 92.644 170.5533
3491.174576 92.562 170.6348
3516.473066 92.479 170.7371
3541.954880 92.397 170.8621
3567.621345 92.316 171.0105
3593.473800 92.237 171.1818
3619.513592 92.159 171.3735
3645.742080 92.082 171.5829
3672.160630 92.007 171.8077
3698.770620 91.932 172.0490
3725.573436 91.856 172.3143
3752.570477 91.778 172.6192
3779.763150 91.700 172.9878
3807.152872 91.625 173.4465
3834.741071 91.558 174.0115
3862.529185 91.509 174.6710
3890.518664 91.484 175.3740
3918.710966 91.486 176.0412
3947.107561 91.509 176.5977
3975.709929 91.546 177.0031
4004.519563 91.585 177.2582
4033.537962 91.620 177.3915
4062.766641 91.647 177.4405
4092.207123 91.665 177.4390
4121.860942 91.675 177.4123
4151.729646 91.678 177.3764
4181.814790 91.676 177.3402
4212.117944 91.671 177.3077
4242.640687 91.664 177.2795
4273.384610 91.655 177.2542
4304.351317 91.646 177.2292
4335.542421 91.636 177.2014
4366.959549 91.627 177.1668
4398.604338 91.618 177.1221
4430.478438 91.609 177.0638
4462.583511 91.601 176.9893
4494.921231 91.591 176.8965
4527.493283 91.581 176.7841
4560.301365 91.569 176.6512
4593.347189 91.555 176.4980
4626.632476 91.539 176.3248
4660.158962 91.521 176.1327
4693.928395 91.498 175.9230
4727.942535 91.473 175.6973
4762.203156 91.443 175.4579
4796.712043 91.409 175.2073
4831.470996 91.371 174.9483
4866.481826 91.327 174.6842
4901.746360 91.279 174.4185
4937.266434 91.225 174.1552
4973.043902 91.167 173.8983
5009.080628 91.103 173.6523
5045.378492 91.034 173.4211
5081.939384 90.961 173.2084
5118.765212 90.883 173.0171
5155.857894 90.801 172.8499
5193.219366 90.716 172.7088
5230.851574 90.628 172.5952
5268.756481 90.538 172.5099
5306.936062 90.446 172.4535
5345.392309 90.351 172.4260
5384.127225 90.255 172.4279
5423.142830 90.158 172.4595
5462.441159 90.059 172.5215
5502.024259 89.959 172.6147
5541.894195 89.859 172.7401
5582.053045 89.757 172.8988
5622.502902 89.656 173.0918
5663.245876 89.555 173.3203
5704.284090 89.454 173.5848
5745.619684 89.354 173.8860
5787.254813 89.255 174.2238
5829.191647 89.158 174.5978
5871.432373 89.063 175.0076
5913.979192 88.970 175.4522
5956.834323 88.879 175.9306
6000.000000 88.792 176.4418
6043.478473 88.708 176.9847
6087.272010 88.627 177.5583
6131.382892 88.550 178.1622
6175.813420 88.476 178.7958
6220.565910 88.406 179.4594
6265.642695 88.340 -179.8468
6311.046124 88.279 -179.1219
6356.778566 88.222 -178.3648
6402.842404 88.171 -177.5743
6449.240040 88.125 -176.7492
6495.973891 88.085 -175.8887
6543.046396 88.053 -174.9920
6590.460007 88.030 -174.0591
6638.217197 88.015 -173.0908
6686.320456 88.011 -172.0890
6734.772290 88.019 -171.0565
6783.575226 88.040 -169.9980
6832.731809 88.076 -168.9195
6882.244600 88.127 -167.8287
6932.116181 88.195 -166.7349
6982.349153 88.281 -165.6486
7032.946133 88.386 -164.5820
7083.909760 88.511 -163.5482
7135.242690 88.657 -162.5617
7186.947600 88.823 -161.6379
7239.027185 89.012 -160.7936
7291.484160 89.221 -160.0464
7344.321260 89.453 -159.4159
7397.541239 89.706 -158.9240
7451.146872 89.981 -158.5955
7505.140954 90.277 -158.4593
7559.526299 90.591 -158.5474
7614.305743 90.922 -158.8950
7669.482141 91.264 -159.5386
7725.058371 91.613 -160.5141
7781.037328 91.960 -161.8528
7837.421932 92.295 -163.5774
7894.215122 92.608 -165.6977
7951.419859 92.886 -168.2070
8009.039125 93.118 -171.0799
8067.075924 93.290 -174.2713
8125.533282 93.393 -177.7172
8184.414245 93.419 178.6632
8243.721885 93.363 174.9630
8303.459292 93.222 171.2812
8363.629581 92.998 167.7169
8424.235888 92.697 164.3613
8485.281374 92.327 161.2932
8546.769221 91.897 158.5742
8608.702634 91.419 156.2471
8671.084842 90.905 154.3364
8733.919097 90.366 152.8497
8797.208675 89.813 151.7800
8860.956876 89.256 151.1085
8925.167022 88.702 150.8082
8989.842461 88.158 150.8470
9054.986566 87.629 151.1906
9120.602731 87.119 151.8052
9186.694378 86.629 152.6587
9253.264952 86.160 153.7217
9320.317925 85.714 154.9682
9387.856790 85.290 156.3761
9455.885071 84.887 157.9276
9524.406312 84.505 159.6092
9593.424086 84.145 161.4104
9662.941992 83.806 163.3230
9732.963653 83.488 165.3391
9803.492719 83.193 167.4497
9874.532869 82.920 169.6441
9946.087805 82.670 171.9100
10018.161257 82.443 174.2357
10090.756983 82.238 176.6114
10163.878768 82.054 179.0305
10237.530423 81.893 -178.5102
10311.715789 81.753 -176.0114
10386.438732 81.635 -173.4726
10461.703149 81.540 -170.8938
10537.512962 81.470 -168.2775
10613.872125 81.426 -165.6287
10690.784618 81.411 -162.9550
10768.254450 81.425 -160.2660
10846.285661 81.473 -157.5747
10924.882318 81.556 -154.9007
11004.048518 81.676 -152.2730
11083.788390 81.833 -149.7260
11164.106090 82.029 -147.2907
11245.005805 82.261 -144.9890
11326.491752 82.531 -142.8386
11408.568180 82.840 -140.8621
11491.239368 83.189 -139.0910
11574.509626 83.578 -137.5675
11658.383294 84.007 -136.3436
11742.864745 84.474 -135.4790
11827.958384 84.974 -135.0375
11913.668646 85.497 -135.0825
12000.000000 86.034 -135.6713
12086.956947 86.567 -136.8483
12174.544019 87.080 -138.6377
12262.765784 87.554 -141.0382
12351.626840 87.967 -144.0164
12441.131819 88.300 -147.5032
12531.285389 88.537 -151.3936
12622.092249 88.665 -155.5513
12713.557132 88.676 -159.8179
12805.684808 88.570 -164.0264
12898.480079 88.354 -168.0165
12991.947783 88.039 -171.6484
13086.092792 87.641 -174.8123
13180.920015 87.181 -177.4331
13276.434395 86.678 -179.4713
13372.640911 86.152 179.0820
13469.544580 85.621 178.2095
13567.150452 85.102 177.8762
13665.463617 84.606 178.0350
13764.489200 84.147 178.6326
13864.232362 83.732 179.6129
13964.698305 83.370 -179.0823
14065.892266 83.068 -177.5130
14167.819519 82.833 -175.7441
14270.485380 82.670 -173.8476
14373.895200 82.584 -171.9057
14478.054370 82.578 -170.0116
14582.968320 82.652 -168.2685
14688.642520 82.804 -166.7879
14795.082478 83.029 -165.6849
14902.293745 83.317 -165.0735
15010.281908 83.653 -165.0579
15119.052599 84.018 -165.7244
15228.611486 84.387 -167.1305
15338.964283 84.734 -169.2961
15450.116741 85.031 -172.1949
15562.074656 85.248 -175.7500
15674.843864 85.363 -179.8342
15788.430244 85.354 175.7227
15902.839718 85.213 171.1193
16018.078250 84.938 166.5617
16134.151848 84.537 162.2413
16251.066563 84.028 158.3129
16368.828491 83.436 154.8787
16487.443769 82.789 151.9788
16606.918584 82.117 149.5873
16727.259161 81.450 147.6152
16848.471777 80.816 145.9179
16970.562748 80.232 144.3106
17093.538442 79.709 142.5911
17217.405268 79.241 140.5675
17342.169684 78.814 138.0880
17467.838194 78.399 135.0651
17594.417350 77.964 131.4913
17721.913751 77.472 127.4430
17850.334044 76.893 123.0721
17979.684923 76.204 118.5860
18109.973131 75.392 114.2205
18241.205462 74.458 110.2104
18373.388756 73.412 106.7659
18506.529905 72.272 104.0549
18640.635849 71.061 102.1956
18775.713581 69.807 101.2512
18911.770141 68.538 101.2292
19048.812624 67.283 102.0813
19186.848172 66.070 103.7066
19325.883983 64.921 105.9569
19465.927305 63.862 108.6385
19606.985439 62.917 111.5045
19749.065738 62.128 114.2383
19892.175609 61.546 116.4454
20036.322514 61.235 117.7010
