* Measurement data measured by REW V5.31.3
* Source: Headset (3- CX31993 HIFI AUDIO), MICROPHONE (Master Volume), R, volume: 0.400
* Format: 256k Log Swept Sine, 1 sweep at -11.9 dBFS with no timing reference
* Dated: 04 11, 25 4:05:22 PM
* REW Settings:
*  C-weighting compensation: Off
*  Target level: 75.0 dB
* Note: ; 
* Measurement: Tangzu Wan'er 2 L
* Smoothing: 1/12 octave
* Frequency Step: 96 ppo
* Start Frequency: 0.36621094 Hz
*
* Freq(Hz) SPL(dB) Phase(degrees)
0.366211 41.914 20.4762
0.368865 41.940 20.5346
0.371538 41.978 20.6216
0.374230 42.025 20.7298
0.376942 42.078 20.8529
0.379673 42.134 20.9863
0.382424 42.193 21.1272
0.385196 42.254 21.2736
0.387987 42.315 21.4245
0.390798 42.378 21.5792
0.393630 42.441 21.7374
0.396483 42.504 21.8989
0.399356 42.568 22.0635
0.402250 42.632 22.2312
0.405165 42.697 22.4019
0.408101 42.762 22.5755
0.411058 42.828 22.7519
0.414037 42.895 22.9312
0.417037 42.961 23.1131
0.420059 43.029 23.2977
0.423103 43.096 23.4849
0.426169 43.165 23.6746
0.429257 43.233 23.8668
0.432368 43.302 24.0612
0.435501 43.372 24.2580
0.438656 43.442 24.4568
0.441835 43.513 24.6578
0.445037 43.584 24.8607
0.448262 43.656 25.0655
0.451510 43.728 25.2720
0.454782 43.801 25.4802
0.458077 43.875 25.6899
0.461397 43.948 25.9011
0.464740 44.023 26.1135
0.468108 44.098 26.3271
0.471500 44.173 26.5418
0.474917 44.249 26.7573
0.478358 44.326 26.9736
0.481825 44.403 27.1906
0.485316 44.481 27.4080
0.488833 44.559 27.6257
0.492375 44.638 27.8437
0.495943 44.717 28.0617
0.499537 44.797 28.2796
0.503157 44.878 28.4971
0.506803 44.959 28.7143
0.510475 45.041 28.9308
0.514175 45.123 29.1466
0.517900 45.206 29.3614
0.521653 45.290 29.5751
0.525434 45.374 29.7875
0.529241 45.458 29.9984
0.533076 45.544 30.2078
0.536939 45.630 30.4153
0.540830 45.716 30.6208
0.544749 45.804 30.8241
0.548696 45.891 31.0251
0.552673 45.980 31.2236
0.556677 46.069 31.4194
0.560711 46.159 31.6123
0.564774 46.249 31.8021
0.568867 46.340 31.9887
0.572989 46.432 32.1719
0.577141 46.525 32.3514
0.581324 46.618 32.5273
0.585536 46.712 32.6992
0.589779 46.806 32.8670
0.594053 46.901 33.0305
0.598358 46.997 33.1896
0.602694 47.093 33.3441
0.607061 47.191 33.4939
0.611460 47.289 33.6388
0.615891 47.387 33.7786
0.620354 47.487 33.9132
0.624849 47.587 34.0425
0.629377 47.688 34.1663
0.633938 47.789 34.2845
0.638532 47.891 34.3969
0.643159 47.994 34.5035
0.647819 48.098 34.6041
0.652514 48.203 34.6986
0.657242 48.308 34.7869
0.662005 48.414 34.8689
0.666802 48.521 34.9445
0.671634 48.628 35.0136
0.676501 48.737 35.0761
0.681403 48.846 35.1320
0.686341 48.956 35.1811
0.691314 49.067 35.2235
0.696324 49.178 35.2592
0.701370 49.290 35.2881
0.706452 49.404 35.3103
0.711571 49.518 35.3262
0.716728 49.632 35.3362
0.721921 49.748 35.3408
0.727153 49.865 35.3412
0.732422 49.982 35.3386
0.737729 50.101 35.3347
0.743075 50.220 35.3309
0.748460 50.340 35.3283
0.753883 50.462 35.3276
0.759346 50.585 35.3292
0.764849 50.709 35.3330
0.770391 50.834 35.3389
0.775974 50.960 35.3466
0.781597 51.088 35.3559
0.787261 51.216 35.3663
0.792966 51.346 35.3776
0.798712 51.477 35.3892
0.804500 51.609 35.4010
0.810329 51.742 35.4124
0.816201 51.876 35.4232
0.822116 52.011 35.4330
0.828073 52.148 35.4415
0.834074 52.285 35.4483
0.840118 52.424 35.4531
0.846206 52.563 35.4556
0.852338 52.704 35.4555
0.858514 52.846 35.4525
0.864735 52.988 35.4463
0.871001 53.132 35.4367
0.877313 53.276 35.4232
0.883670 53.422 35.4057
0.890074 53.568 35.3839
0.896524 53.715 35.3576
0.903020 53.863 35.3264
0.909564 54.012 35.2903
0.916155 54.161 35.2488
0.922794 54.311 35.2018
0.929481 54.462 35.1491
0.936216 54.614 35.0904
0.943000 54.766 35.0256
0.949834 54.919 34.9544
0.956717 55.072 34.8767
0.963649 55.226 34.7921
0.970632 55.381 34.7007
0.977666 55.535 34.6021
0.984750 55.691 34.4963
0.991886 55.846 34.3830
0.999074 56.002 34.2620
1.006314 56.158 34.1333
1.013606 56.314 33.9967
1.020951 56.470 33.8519
1.028349 56.627 33.6990
1.035801 56.783 33.5377
1.043307 56.940 33.3681
1.050867 57.096 33.1900
1.058482 57.252 33.0034
1.066152 57.407 32.8086
1.073878 57.563 32.6058
1.081660 57.718 32.3956
1.089498 57.873 32.1790
1.097393 58.028 31.9572
1.105345 58.182 31.7317
1.113355 58.336 31.5041
1.121423 58.490 31.2757
1.129549 58.645 31.0473
1.137734 58.799 30.8193
1.145979 58.953 30.5920
1.154283 59.107 30.3653
1.162647 59.261 30.1392
1.171072 59.415 29.9134
1.179558 59.569 29.6876
1.188106 59.723 29.4617
1.196715 59.877 29.2354
1.205387 60.031 29.0083
1.214122 60.185 28.7803
1.222920 60.339 28.5510
1.231782 60.493 28.3203
1.240708 60.647 28.0878
1.249699 60.801 27.8532
1.258754 60.955 27.6164
1.267876 61.109 27.3770
1.277063 61.263 27.1348
1.286318 61.417 26.8896
1.295639 61.571 26.6411
1.305027 61.725 26.3891
1.314484 61.880 26.1333
1.324009 62.034 25.8734
1.333604 62.188 25.6093
1.343268 62.343 25.3406
1.353002 62.497 25.0672
1.362806 62.652 24.7889
1.372681 62.807 24.5052
1.382628 62.962 24.2162
1.392647 63.117 23.9215
1.402739 63.272 23.6210
1.412904 63.427 23.3146
1.423142 63.582 23.0023
1.433455 63.738 22.6842
1.443843 63.893 22.3606
1.454305 64.049 22.0323
1.464844 64.204 21.7001
1.475459 64.359 21.3652
1.486150 64.515 21.0287
1.496920 64.669 20.6915
1.507767 64.824 20.3541
1.518693 64.978 20.0168
1.529698 65.132 19.6795
1.540783 65.285 19.3423
1.551948 65.438 19.0047
1.563194 65.590 18.6667
1.574521 65.743 18.3278
1.585931 65.894 17.9878
1.597423 66.046 17.6463
1.608999 66.197 17.3031
1.620658 66.348 16.9577
1.632402 66.498 16.6098
1.644232 66.649 16.2592
1.656146 66.798 15.9054
1.668147 66.948 15.5482
1.680235 67.098 15.1872
1.692411 67.247 14.8220
1.704675 67.396 14.4524
1.717028 67.545 14.0779
1.729470 67.694 13.6983
1.742003 67.843 13.3133
1.754626 67.992 12.9226
1.767341 68.140 12.5258
1.780147 68.289 12.1228
1.793047 68.438 11.7136
1.806040 68.586 11.2981
1.819128 68.735 10.8767
1.832310 68.883 10.4498
1.845587 69.031 10.0181
1.858961 69.178 9.5824
1.872432 69.325 9.1434
1.886001 69.472 8.7015
1.899667 69.618 8.2571
1.913433 69.763 7.8106
1.927299 69.908 7.3620
1.941265 70.052 6.9116
1.955332 70.196 6.4594
1.969501 70.339 6.0055
1.983773 70.481 5.5497
1.998148 70.623 5.0922
2.012627 70.765 4.6329
2.027212 70.906 4.1717
2.041902 71.047 3.7084
2.056698 71.187 3.2431
2.071602 71.327 2.7755
2.086614 71.467 2.3056
2.101734 71.606 1.8331
2.116964 71.746 1.3578
2.132304 71.885 0.8796
2.147756 72.023 0.3983
2.163320 72.162 -0.0864
2.178996 72.300 -0.5746
2.194786 72.438 -1.0663
2.210690 72.575 -1.5616
2.226710 72.712 -2.0604
2.242845 72.848 -2.5625
2.259098 72.983 -3.0676
2.275468 73.118 -3.5755
2.291957 73.252 -4.0858
2.308566 73.386 -4.5983
2.325295 73.518 -5.1127
2.342145 73.650 -5.6288
2.359117 73.782 -6.1464
2.376212 73.912 -6.6654
2.393431 74.043 -7.1855
2.410775 74.172 -7.7067
2.428244 74.301 -8.2289
2.445840 74.430 -8.7520
2.463564 74.558 -9.2761
2.481416 74.686 -9.8011
2.499397 74.813 -10.3273
2.517509 74.941 -10.8547
2.535752 75.067 -11.3836
2.554127 75.193 -11.9144
2.572635 75.319 -12.4474
2.591277 75.444 -12.9830
2.610055 75.568 -13.5212
2.628968 75.692 -14.0622
2.648019 75.815 -14.6057
2.667208 75.937 -15.1514
2.686535 76.058 -15.6992
2.706003 76.178 -16.2485
2.725612 76.298 -16.7990
2.745363 76.417 -17.3504
2.765257 76.535 -17.9023
2.785295 76.653 -18.4545
2.805478 76.770 -19.0066
2.825808 76.887 -19.5585
2.846285 77.003 -20.1100
2.866910 77.119 -20.6612
2.887685 77.235 -21.2121
2.908611 77.349 -21.7630
2.929688 77.464 -22.3143
2.950917 77.577 -22.8665
2.972301 77.690 -23.4201
2.993839 77.803 -23.9753
3.015534 77.914 -24.5320
3.037386 78.025 -25.0903
3.059396 78.135 -25.6497
3.081565 78.244 -26.2099
3.103896 78.352 -26.7706
3.126388 78.460 -27.3312
3.149043 78.567 -27.8915
3.171862 78.674 -28.4510
3.194847 78.780 -29.0096
3.217998 78.886 -29.5668
3.241317 78.991 -30.1228
3.264805 79.096 -30.6776
3.288463 79.201 -31.2314
3.312293 79.304 -31.7847
3.336295 79.408 -32.3380
3.360471 79.510 -32.8915
3.384822 79.612 -33.4455
3.409350 79.713 -33.9998
3.434056 79.813 -34.5544
3.458940 79.913 -35.1089
3.484005 80.012 -35.6632
3.509252 80.111 -36.2167
3.534681 80.209 -36.7693
3.560295 80.307 -37.3206
3.586094 80.405 -37.8706
3.612081 80.502 -38.4190
3.638255 80.598 -38.9660
3.664620 80.694 -39.5118
3.691175 80.790 -40.0568
3.717923 80.885 -40.6012
3.744864 80.980 -41.1452
3.772001 81.074 -41.6891
3.799335 81.168 -42.2326
3.826866 81.261 -42.7757
3.854597 81.353 -43.3183
3.882529 81.446 -43.8602
3.910664 81.537 -44.4011
3.939002 81.629 -44.9409
3.967546 81.720 -45.4796
3.996296 81.811 -46.0171
4.025255 81.901 -46.5536
4.054423 81.991 -47.0894
4.083804 82.081 -47.6245
4.113396 82.170 -48.1593
4.143204 82.259 -48.6937
4.173227 82.348 -49.2278
4.203468 82.436 -49.7616
4.233928 82.524 -50.2951
4.264609 82.611 -50.8280
4.295512 82.698 -51.3604
4.326639 82.784 -51.8923
4.357992 82.871 -52.4238
4.389572 82.957 -52.9548
4.421380 83.043 -53.4857
4.453419 83.128 -54.0165
4.485691 83.213 -54.5474
4.518196 83.297 -55.0784
4.550936 83.382 -55.6095
4.583914 83.465 -56.1406
4.617131 83.549 -56.6717
4.650589 83.632 -57.2027
4.684289 83.714 -57.7336
4.718233 83.797 -58.2645
4.752424 83.879 -58.7953
4.786862 83.960 -59.3264
4.821549 84.041 -59.8578
4.856488 84.122 -60.3897
4.891680 84.202 -60.9220
4.927127 84.282 -61.4546
4.962831 84.361 -61.9875
4.998794 84.440 -62.5203
5.035017 84.518 -63.0532
5.071503 84.596 -63.5860
5.108253 84.674 -64.1187
5.145270 84.751 -64.6516
5.182555 84.827 -65.1848
5.220110 84.903 -65.7183
5.257937 84.978 -66.2522
5.296038 85.053 -66.7863
5.334415 85.128 -67.3203
5.373071 85.202 -67.8542
5.412006 85.275 -68.3877
5.451224 85.348 -68.9207
5.490725 85.420 -69.4533
5.530514 85.492 -69.9856
5.570590 85.563 -70.5178
5.610957 85.634 -71.0498
5.651616 85.704 -71.5816
5.692570 85.773 -72.1129
5.733821 85.842 -72.6436
5.775370 85.911 -73.1735
5.817221 85.979 -73.7025
5.859375 86.046 -74.2305
5.901834 86.113 -74.7576
5.944602 86.179 -75.2840
5.987679 86.245 -75.8097
6.031068 86.310 -76.3345
6.074771 86.375 -76.8584
6.118792 86.439 -77.3812
6.163131 86.503 -77.9028
6.207792 86.566 -78.4232
6.252776 86.629 -78.9423
6.298086 86.691 -79.4603
6.343725 86.753 -79.9772
6.389694 86.814 -80.4930
6.435996 86.875 -81.0077
6.482634 86.935 -81.5211
6.529610 86.995 -82.0333
6.576926 87.055 -82.5442
6.624585 87.114 -83.0539
6.672590 87.172 -83.5624
6.720942 87.231 -84.0697
6.769645 87.288 -84.5759
6.818700 87.346 -85.0810
6.868111 87.403 -85.5850
6.917881 87.459 -86.0878
6.968010 87.515 -86.5894
7.018504 87.571 -87.0899
7.069362 87.626 -87.5894
7.120590 87.681 -88.0879
7.172189 87.736 -88.5853
7.224161 87.790 -89.0816
7.276511 87.844 -89.5769
7.329239 87.897 -90.0710
7.382350 87.950 -90.5642
7.435845 88.003 -91.0563
7.489729 88.055 -91.5474
7.544002 88.107 -92.0375
7.598669 88.158 -92.5265
7.653732 88.209 -93.0145
7.709194 88.259 -93.5013
7.765058 88.310 -93.9871
7.821327 88.359 -94.4718
7.878004 88.409 -94.9555
7.935091 88.458 -95.4381
7.992592 88.507 -95.9196
8.050510 88.555 -96.4001
8.108847 88.603 -96.8795
8.167607 88.650 -97.3578
8.226793 88.698 -97.8352
8.286408 88.744 -98.3115
8.346454 88.791 -98.7869
8.406936 88.837 -99.2613
8.467856 88.883 -99.7348
8.529218 88.928 -100.2074
8.591024 88.974 -100.6791
8.653278 89.018 -101.1501
8.715983 89.063 -101.6202
8.779143 89.107 -102.0896
8.842760 89.151 -102.5584
8.906839 89.194 -103.0264
8.971381 89.237 -103.4938
9.036392 89.280 -103.9605
9.101873 89.322 -104.4265
9.167829 89.364 -104.8920
9.234263 89.405 -105.3567
9.301178 89.447 -105.8208
9.368578 89.487 -106.2842
9.436467 89.528 -106.7469
9.504847 89.567 -107.2087
9.573723 89.607 -107.6697
9.643099 89.646 -108.1297
9.712976 89.684 -108.5887
9.783361 89.722 -109.0467
9.854255 89.760 -109.5034
9.925663 89.797 -109.9589
9.997588 89.834 -110.4130
10.070035 89.871 -110.8658
10.143007 89.906 -111.3170
10.216507 89.942 -111.7666
10.290540 89.977 -112.2146
10.365109 90.012 -112.6609
10.440219 90.046 -113.1055
10.515873 90.081 -113.5483
10.592076 90.114 -113.9894
10.668830 90.148 -114.4288
10.746141 90.181 -114.8664
10.824012 90.214 -115.3023
10.902447 90.246 -115.7365
10.981451 90.279 -116.1692
11.061027 90.311 -116.6003
11.141180 90.342 -117.0299
11.221913 90.374 -117.4581
11.303232 90.405 -117.8849
11.385140 90.436 -118.3104
11.467641 90.467 -118.7347
11.550741 90.497 -119.1577
11.634442 90.528 -119.5797
11.718750 90.558 -120.0004
11.803669 90.587 -120.4201
11.889203 90.617 -120.8387
11.975357 90.646 -121.2562
12.062136 90.675 -121.6727
12.149543 90.703 -122.0880
12.237583 90.731 -122.5022
12.326262 90.759 -122.9153
12.415583 90.787 -123.3271
12.505552 90.814 -123.7378
12.596172 90.841 -124.1472
12.687449 90.867 -124.5554
12.779387 90.894 -124.9622
12.871992 90.919 -125.3676
12.965268 90.945 -125.7716
13.059220 90.970 -126.1742
13.153852 90.995 -126.5752
13.249170 91.020 -126.9747
13.345179 91.044 -127.3725
13.441884 91.068 -127.7687
13.539289 91.091 -128.1633
13.637401 91.114 -128.5560
13.736223 91.137 -128.9471
13.835761 91.160 -129.3363
13.936021 91.182 -129.7238
14.037007 91.204 -130.1096
14.138725 91.226 -130.4936
14.241180 91.247 -130.8760
14.344377 91.268 -131.2567
14.448323 91.289 -131.6360
14.553021 91.310 -132.0137
14.658478 91.330 -132.3901
14.764700 91.350 -132.7652
14.871691 91.370 -133.1391
14.979457 91.390 -133.5118
15.088005 91.409 -133.8834
15.197339 91.428 -134.2538
15.307465 91.447 -134.6230
15.418389 91.465 -134.9910
15.530117 91.483 -135.3576
15.642655 91.501 -135.7229
15.756008 91.518 -136.0867
15.870182 91.535 -136.4489
15.985184 91.552 -136.8096
16.101019 91.568 -137.1688
16.217694 91.584 -137.5264
16.335214 91.600 -137.8827
16.453586 91.616 -138.2379
16.572815 91.632 -138.5920
16.692909 91.647 -138.9455
16.813872 91.662 -139.2984
16.935713 91.677 -139.6509
17.058436 91.692 -140.0032
17.182048 91.706 -140.3553
17.306556 91.720 -140.7071
17.431967 91.733 -141.0583
17.558286 91.746 -141.4086
17.685521 91.759 -141.7575
17.813677 91.771 -142.1046
17.942762 91.783 -142.4495
18.072783 91.794 -142.7916
18.203746 91.805 -143.1308
18.335658 91.816 -143.4669
18.468526 91.827 -143.8004
18.602356 91.839 -144.1315
18.737156 91.850 -144.4611
18.872934 91.862 -144.7900
19.009695 91.874 -145.1192
19.147447 91.886 -145.4498
19.286197 91.898 -145.7824
19.425953 91.911 -146.1176
19.566721 91.922 -146.4555
19.708510 91.934 -146.7956
19.851326 91.945 -147.1370
19.995177 91.954 -147.4784
20.140070 91.963 -147.8182
20.286013 91.972 -148.1546
20.433014 91.979 -148.4861
20.581080 91.986 -148.8116
20.730219 91.993 -149.1304
20.880439 92.000 -149.4429
21.031747 92.008 -149.7500
21.184152 92.016 -150.0533
21.337661 92.025 -150.3550
21.492282 92.035 -150.6572
21.648024 92.046 -150.9620
21.804895 92.057 -151.2706
21.962902 92.067 -151.5833
22.122054 92.077 -151.8992
22.282360 92.086 -152.2163
22.443827 92.093 -152.5318
22.606464 92.100 -152.8425
22.770280 92.105 -153.1453
22.935283 92.110 -153.4381
23.101481 92.116 -153.7204
23.268884 92.122 -153.9934
23.437500 92.130 -154.2604
23.607338 92.140 -154.5266
23.778406 92.152 -154.7981
23.950714 92.166 -155.0810
24.124271 92.180 -155.3805
24.299086 92.194 -155.6995
24.475167 92.206 -156.0376
24.652524 92.215 -156.3915
24.831166 92.220 -156.7541
25.011103 92.220 -157.1163
25.192344 92.215 -157.4675
25.374898 92.206 -157.7977
25.558775 92.193 -158.0989
25.743984 92.180 -158.3666
25.930536 92.168 -158.6007
26.118439 92.158 -158.8059
26.307704 92.152 -158.9911
26.498341 92.151 -159.1674
26.690359 92.154 -159.3468
26.883768 92.161 -159.5398
27.078579 92.171 -159.7534
27.274801 92.181 -159.9903
27.472446 92.190 -160.2491
27.671522 92.197 -160.5245
27.872042 92.202 -160.8092
28.074014 92.204 -161.0957
28.277450 92.205 -161.3781
28.482360 92.204 -161.6528
28.688755 92.204 -161.9197
28.896645 92.204 -162.1816
29.106042 92.205 -162.4428
29.316957 92.207 -162.7082
29.529400 92.210 -162.9813
29.743382 92.212 -163.2637
29.958915 92.214 -163.5542
30.176009 92.213 -163.8491
30.394677 92.211 -164.1437
30.614929 92.207 -164.4326
30.836778 92.202 -164.7118
31.060234 92.196 -164.9787
31.285309 92.191 -165.2331
31.512015 92.187 -165.4767
31.740364 92.183 -165.7126
31.970368 92.182 -165.9447
32.202039 92.181 -166.1764
32.435388 92.182 -166.4107
32.670428 92.184 -166.6496
32.907171 92.185 -166.8937
33.145630 92.187 -167.1430
33.385817 92.187 -167.3963
33.627745 92.187 -167.6517
33.871425 92.185 -167.9069
34.116871 92.182 -168.1594
34.364096 92.178 -168.4066
34.613113 92.173 -168.6466
34.863934 92.168 -168.8785
35.116572 92.162 -169.1025
35.371041 92.157 -169.3201
35.627354 92.152 -169.5333
35.885525 92.147 -169.7448
36.145566 92.143 -169.9565
36.407492 92.139 -170.1696
36.671316 92.134 -170.3843
36.937051 92.130 -170.5999
37.204712 92.124 -170.8153
37.474313 92.119 -171.0298
37.745867 92.114 -171.2431
38.019389 92.108 -171.4555
38.294893 92.103 -171.6681
38.572394 92.099 -171.8819
38.851905 92.094 -172.0976
39.133442 92.090 -172.3156
39.417019 92.085 -172.5353
39.702651 92.080 -172.7562
39.990353 92.076 -172.9775
40.280140 92.071 -173.1990
40.572026 92.067 -173.4211
40.866028 92.063 -173.6441
41.162160 92.059 -173.8689
41.460438 92.055 -174.0955
41.760877 92.050 -174.3236
42.063494 92.045 -174.5519
42.368303 92.039 -174.7785
42.675322 92.032 -175.0018
42.984565 92.025 -175.2202
43.296048 92.017 -175.4329
43.609789 92.010 -175.6402
43.925804 92.002 -175.8431
44.244108 91.995 -176.0430
44.564719 91.988 -176.2414
44.887654 91.981 -176.4400
45.212928 91.974 -176.6397
45.540560 91.966 -176.8416
45.870565 91.958 -177.0462
46.202962 91.950 -177.2534
46.537768 91.941 -177.4625
46.875000 91.931 -177.6722
47.214676 91.920 -177.8805
47.556813 91.908 -178.0857
47.901429 91.896 -178.2868
48.248542 91.884 -178.4839
48.598171 91.872 -178.6788
48.950334 91.861 -178.8740
49.305048 91.850 -179.0716
49.662333 91.839 -179.2725
50.022206 91.828 -179.4762
50.384688 91.816 -179.6808
50.749796 91.804 -179.8840
51.117550 91.792 179.9154
51.487969 91.780 179.7175
51.861072 91.767 179.5217
52.236879 91.755 179.3269
52.615409 91.743 179.1326
52.996681 91.731 178.9389
53.380717 91.719 178.7462
53.767536 91.706 178.5547
54.157158 91.694 178.3646
54.549603 91.681 178.1756
54.944892 91.668 177.9877
55.343045 91.655 177.8008
55.744084 91.642 177.6146
56.148028 91.628 177.4284
56.554900 91.614 177.2421
56.964720 91.600 177.0560
57.377510 91.585 176.8720
57.793291 91.569 176.6924
58.212085 91.553 176.5191
58.633914 91.536 176.3524
59.058799 91.521 176.1902
59.486764 91.506 176.0293
59.917829 91.491 175.8668
60.352019 91.476 175.7015
60.789354 91.460 175.5345
61.229859 91.444 175.3683
61.673556 91.427 175.2049
62.120468 91.410 175.0448
62.570618 91.393 174.8871
63.024031 91.377 174.7300
63.480729 91.360 174.5721
63.940736 91.344 174.4131
64.404077 91.327 174.2532
64.870776 91.311 174.0932
65.340856 91.294 173.9336
65.814343 91.278 173.7746
66.291261 91.262 173.6163
66.771635 91.247 173.4578
67.255489 91.231 173.2985
67.742850 91.216 173.1378
68.233743 91.200 172.9762
68.728193 91.183 172.8156
69.226226 91.166 172.6586
69.727867 91.148 172.5066
70.233144 91.130 172.3597
70.742083 91.112 172.2167
71.254709 91.093 172.0767
71.771050 91.073 171.9403
72.291132 91.053 171.8091
72.814984 91.033 171.6835
73.342631 91.013 171.5610
73.874102 90.994 171.4372
74.409424 90.975 171.3079
74.948626 90.957 171.1715
75.491734 90.938 171.0284
76.038779 90.919 170.8799
76.589787 90.899 170.7278
77.144788 90.878 170.5736
77.703811 90.856 170.4200
78.266885 90.834 170.2699
78.834039 90.811 170.1258
79.405303 90.788 169.9884
79.980706 90.766 169.8566
80.560280 90.744 169.7280
81.144053 90.723 169.6011
81.732056 90.701 169.4761
82.324320 90.680 169.3542
82.920876 90.658 169.2361
83.521755 90.637 169.1206
84.126988 90.616 169.0056
84.736607 90.595 168.8900
85.350643 90.574 168.7736
85.969129 90.552 168.6573
86.592097 90.531 168.5414
87.219579 90.509 168.4254
87.851608 90.488 168.3087
88.488217 90.466 168.1910
89.129439 90.444 168.0730
89.775308 90.421 167.9557
90.425856 90.399 167.8402
91.081119 90.376 167.7269
91.741131 90.352 167.6159
92.405925 90.329 167.5081
93.075536 90.305 167.4048
93.750000 90.281 167.3065
94.429351 90.257 167.2119
95.113625 90.233 167.1190
95.802858 90.209 167.0261
96.497085 90.185 166.9330
97.196342 90.160 166.8405
97.900667 90.135 166.7494
98.610096 90.110 166.6596
99.324665 90.085 166.5709
100.044413 90.059 166.4834
100.769376 90.034 166.3978
101.499592 90.009 166.3151
102.235100 89.983 166.2352
102.975938 89.958 166.1573
103.722144 89.933 166.0801
104.473757 89.908 166.0031
105.230817 89.882 165.9259
105.993363 89.856 165.8490
106.761435 89.830 165.7728
107.535072 89.803 165.6975
108.314315 89.777 165.6233
109.099206 89.750 165.5506
109.889783 89.723 165.4802
110.686090 89.696 165.4134
111.488167 89.668 165.3513
112.296056 89.641 165.2939
113.109800 89.613 165.2409
113.929440 89.586 165.1908
114.755020 89.557 165.1424
115.586582 89.528 165.0952
116.424170 89.498 165.0488
117.267827 89.468 165.0020
118.117598 89.437 164.9538
118.973527 89.407 164.9045
119.835658 89.378 164.8551
120.704037 89.349 164.8051
121.578708 89.322 164.7531
122.459718 89.297 164.6976
123.347111 89.272 164.6390
124.240935 89.246 164.5800
125.141236 89.221 164.5257
126.048061 89.194 164.4802
126.961458 89.167 164.4440
127.881473 89.139 164.4144
128.808154 89.110 164.3875
129.741551 89.080 164.3609
130.681712 89.049 164.3337
131.628686 89.018 164.3066
132.582521 88.986 164.2806
133.543269 88.954 164.2562
134.510979 88.922 164.2350
135.485701 88.889 164.2198
136.467486 88.857 164.2130
137.456386 88.825 164.2150
138.452451 88.793 164.2241
139.455735 88.761 164.2374
140.466288 88.730 164.2523
141.484165 88.697 164.2665
142.509418 88.664 164.2790
143.542100 88.631 164.2903
144.582265 88.596 164.3015
145.629968 88.560 164.3138
146.685262 88.524 164.3290
147.748204 88.488 164.3495
148.818849 88.451 164.3781
149.897251 88.414 164.4178
150.983469 88.377 164.4721
152.077557 88.341 164.5439
153.179574 88.304 164.6351
154.289576 88.268 164.7461
155.407622 88.233 164.8767
156.533770 88.200 165.0261
157.668078 88.167 165.1931
158.810606 88.137 165.3753
159.961413 88.109 165.5690
161.120559 88.084 165.7702
162.288105 88.063 165.9744
163.464112 88.047 166.1764
164.648640 88.035 166.3705
165.841752 88.028 166.5505
167.043510 88.025 166.7103
168.253976 88.025 166.8441
169.473213 88.028 166.9468
170.701286 88.031 167.0156
171.938258 88.033 167.0507
173.184194 88.034 167.0558
174.439158 88.033 167.0372
175.703216 88.030 167.0021
176.976434 88.023 166.9579
178.258878 88.013 166.9113
179.550615 88.000 166.8678
180.851713 87.984 166.8312
182.162239 87.966 166.8030
183.482262 87.946 166.7828
184.811850 87.925 166.7693
186.151073 87.904 166.7624
187.500000 87.882 166.7620
188.858702 87.860 166.7684
190.227250 87.837 166.7803
191.605715 87.814 166.7966
192.994169 87.792 166.8163
194.392685 87.770 166.8387
195.801334 87.749 166.8627
197.220191 87.728 166.8883
198.649330 87.706 166.9150
200.088825 87.684 166.9423
201.538751 87.661 166.9689
202.999184 87.638 166.9940
204.470200 87.613 167.0174
205.951875 87.589 167.0399
207.444287 87.564 167.0629
208.947514 87.539 167.0883
210.461634 87.514 167.1172
211.986726 87.488 167.1506
213.522869 87.463 167.1889
215.070144 87.436 167.2329
216.628631 87.409 167.2836
218.198411 87.382 167.3422
219.779567 87.355 167.4083
221.372180 87.328 167.4811
222.976334 87.301 167.5593
224.592112 87.274 167.6413
226.219600 87.247 167.7269
227.858880 87.220 167.8168
229.510039 87.193 167.9108
231.173164 87.166 168.0065
232.848340 87.140 168.0999
234.535655 87.113 168.1875
236.235197 87.087 168.2673
237.947054 87.059 168.3401
239.671317 87.032 168.4086
241.408074 87.004 168.4779
243.157416 86.976 168.5529
244.919435 86.947 168.6384
246.694223 86.920 168.7388
248.481871 86.892 168.8555
250.282473 86.866 168.9855
252.096123 86.840 169.1227
253.922915 86.815 169.2629
255.762945 86.790 169.4037
257.616309 86.766 169.5441
259.483103 86.741 169.6839
261.363424 86.716 169.8240
263.257372 86.691 169.9658
265.165043 86.666 170.1115
267.086538 86.643 170.2633
269.021957 86.620 170.4229
270.971401 86.599 170.5913
272.934972 86.578 170.7686
274.912771 86.556 170.9530
276.904902 86.534 171.1407
278.911469 86.512 171.3275
280.932577 86.490 171.5133
282.968330 86.468 171.7035
285.018835 86.447 171.9035
287.084199 86.426 172.1146
289.164530 86.405 172.3356
291.259935 86.384 172.5654
293.370525 86.366 172.8045
295.496408 86.350 173.0537
297.637697 86.338 173.3113
299.794503 86.330 173.5705
301.966937 86.325 173.8221
304.155114 86.324 174.0578
306.359147 86.325 174.2723
308.579152 86.327 174.4619
310.815244 86.331 174.6240
313.067539 86.336 174.7581
315.336156 86.339 174.8664
317.621211 86.341 174.9538
319.922826 86.340 175.0261
322.241118 86.336 175.0893
324.576210 86.329 175.1501
326.928223 86.319 175.2142
329.297280 86.307 175.2855
331.683504 86.293 175.3654
334.087019 86.278 175.4531
336.507952 86.262 175.5474
338.946427 86.245 175.6480
341.402572 86.228 175.7558
343.876516 86.210 175.8725
346.368387 86.192 175.9986
348.878315 86.174 176.1332
351.406431 86.157 176.2747
353.952867 86.139 176.4214
356.517756 86.122 176.5718
359.101230 86.105 176.7253
361.703426 86.088 176.8819
364.324478 86.072 177.0420
366.964523 86.056 177.2056
369.623699 86.040 177.3725
372.302145 86.025 177.5423
375.000000 86.009 177.7139
377.717405 85.994 177.8865
380.454501 85.979 178.0593
383.211431 85.963 178.2326
385.988339 85.948 178.4075
388.785369 85.933 178.5851
391.602668 85.919 178.7664
394.440383 85.905 178.9524
397.298660 85.891 179.1431
400.177650 85.878 179.3375
403.077502 85.865 179.5338
405.998368 85.853 179.7309
408.940400 85.842 179.9281
411.903750 85.831 -179.8752
414.888575 85.820 -179.6795
417.895028 85.809 -179.4845
420.923268 85.798 -179.2887
423.973452 85.786 -179.0896
427.045738 85.774 -178.8850
430.140287 85.762 -178.6742
433.257261 85.751 -178.4585
436.396822 85.741 -178.2396
439.559133 85.731 -178.0193
442.744360 85.722 -177.7995
445.952668 85.714 -177.5820
449.184225 85.705 -177.3678
452.439199 85.697 -177.1562
455.717760 85.688 -176.9455
459.020079 85.679 -176.7328
462.346327 85.671 -176.5158
465.696680 85.662 -176.2930
469.071310 85.655 -176.0643
472.470394 85.649 -175.8307
475.894109 85.643 -175.5942
479.342634 85.638 -175.3570
482.816148 85.633 -175.1216
486.314833 85.628 -174.8898
489.838871 85.623 -174.6620
493.388445 85.617 -174.4368
496.963741 85.612 -174.2117
500.564945 85.607 -173.9840
504.192245 85.603 -173.7514
507.845830 85.599 -173.5125
511.525890 85.596 -173.2669
515.232618 85.593 -173.0156
518.966206 85.589 -172.7601
522.726849 85.586 -172.5024
526.514743 85.582 -172.2441
530.330086 85.580 -171.9863
534.173076 85.578 -171.7293
538.043915 85.576 -171.4728
541.942803 85.576 -171.2159
545.869944 85.576 -170.9577
549.825542 85.576 -170.6974
553.809805 85.576 -170.4349
557.822939 85.575 -170.1706
561.865154 85.574 -169.9055
565.936660 85.573 -169.6414
570.037671 85.571 -169.3794
574.168399 85.569 -169.1196
578.329060 85.568 -168.8607
582.519870 85.566 -168.6014
586.741049 85.565 -168.3409
590.992817 85.564 -168.0790
595.275394 85.563 -167.8163
599.589005 85.562 -167.5525
603.933874 85.562 -167.2864
608.310228 85.563 -167.0159
612.718295 85.564 -166.7397
617.158304 85.566 -166.4571
621.630488 85.568 -166.1692
626.135079 85.572 -165.8780
630.672311 85.576 -165.5863
635.242423 85.582 -165.2961
639.845651 85.588 -165.0083
644.482237 85.594 -164.7226
649.152421 85.601 -164.4375
653.856447 85.608 -164.1508
658.594560 85.615 -163.8603
663.367008 85.621 -163.5639
668.174039 85.628 -163.2602
673.015903 85.634 -162.9485
677.892854 85.641 -162.6292
682.805145 85.648 -162.3041
687.753032 85.655 -161.9765
692.736774 85.663 -161.6495
697.756631 85.672 -161.3251
702.812863 85.682 -161.0035
707.905735 85.693 -160.6829
713.035511 85.705 -160.3613
718.202461 85.718 -160.0365
723.406852 85.732 -159.7069
728.648956 85.746 -159.3717
733.929047 85.761 -159.0304
739.247399 85.777 -158.6832
744.604290 85.792 -158.3304
750.000000 85.808 -157.9727
755.434809 85.825 -157.6114
760.909001 85.842 -157.2478
766.422861 85.859 -156.8823
771.976677 85.878 -156.5148
777.570739 85.897 -156.1449
783.205337 85.917 -155.7726
788.880766 85.939 -155.3977
794.597321 85.962 -155.0200
800.355301 85.985 -154.6392
806.155005 86.010 -154.2552
811.996736 86.036 -153.8683
817.880799 86.063 -153.4791
823.807501 86.092 -153.0880
829.777150 86.122 -152.6957
835.790057 86.153 -152.3026
841.846536 86.185 -151.9092
847.946903 86.218 -151.5154
854.091476 86.253 -151.1211
860.280575 86.290 -150.7264
866.514523 86.327 -150.3316
872.793644 86.367 -149.9370
879.118267 86.407 -149.5432
885.488720 86.449 -149.1510
891.905336 86.493 -148.7608
898.368450 86.538 -148.3731
904.878398 86.584 -147.9881
911.435520 86.632 -147.6059
918.040157 86.682 -147.2262
924.692655 86.733 -146.8493
931.393359 86.785 -146.4757
938.142619 86.839 -146.1060
944.940787 86.895 -145.7408
951.788218 86.952 -145.3810
958.685268 87.010 -145.0273
965.632296 87.070 -144.6803
972.629666 87.131 -144.3402
979.677741 87.193 -144.0072
986.776890 87.257 -143.6808
993.927482 87.322 -143.3611
1001.129891 87.388 -143.0483
1008.384491 87.455 -142.7431
1015.691660 87.524 -142.4461
1023.051781 87.593 -142.1578
1030.465236 87.663 -141.8785
1037.932411 87.735 -141.6084
1045.453698 87.807 -141.3476
1053.029486 87.880 -141.0961
1060.660172 87.954 -140.8539
1068.346153 88.028 -140.6214
1076.087829 88.103 -140.3984
1083.885605 88.179 -140.1852
1091.739887 88.255 -139.9817
1099.651084 88.331 -139.7878
1107.619609 88.408 -139.6034
1115.645878 88.486 -139.4285
1123.730308 88.563 -139.2628
1131.873321 88.641 -139.1060
1140.075341 88.719 -138.9582
1148.336797 88.797 -138.8190
1156.658119 88.875 -138.6883
1165.039741 88.953 -138.5658
1173.482099 89.031 -138.4514
1181.985634 89.109 -138.3447
1190.550789 89.187 -138.2454
1199.178011 89.265 -138.1533
1207.867749 89.343 -138.0679
1216.620457 89.421 -137.9893
1225.436590 89.499 -137.9172
1234.316609 89.576 -137.8514
1243.260976 89.654 -137.7916
1252.270157 89.731 -137.7376
1261.344623 89.808 -137.6889
1270.484846 89.885 -137.6455
1279.691303 89.962 -137.6072
1288.964474 90.039 -137.5737
1298.304842 90.116 -137.5447
1307.712894 90.193 -137.5200
1317.189120 90.270 -137.4993
1326.734016 90.347 -137.4824
1336.348077 90.424 -137.4695
1346.031806 90.502 -137.4604
1355.785708 90.579 -137.4554
1365.610290 90.657 -137.4543
1375.506065 90.734 -137.4573
1385.473549 90.812 -137.4642
1395.513261 90.890 -137.4751
1405.625726 90.969 -137.4900
1415.811469 91.048 -137.5089
1426.071023 91.127 -137.5321
1436.404921 91.206 -137.5596
1446.813703 91.286 -137.5916
1457.297912 91.367 -137.6283
1467.858093 91.447 -137.6699
1478.494798 91.529 -137.7165
1489.208581 91.611 -137.7685
1500.000000 91.694 -137.8260
1510.869618 91.777 -137.8892
1521.818002 91.861 -137.9584
1532.845723 91.946 -138.0337
1543.953355 92.031 -138.1157
1555.141477 92.118 -138.2048
1566.410674 92.204 -138.3015
1577.761531 92.292 -138.4064
1589.194642 92.380 -138.5201
1600.710601 92.470 -138.6429
1612.310010 92.560 -138.7753
1623.993473 92.651 -138.9176
1635.761599 92.742 -139.0702
1647.615002 92.834 -139.2335
1659.554299 92.927 -139.4079
1671.580114 93.021 -139.5942
1683.693072 93.115 -139.7930
1695.893807 93.210 -140.0052
1708.182952 93.306 -140.2316
1720.561150 93.402 -140.4727
1733.029045 93.499 -140.7293
1745.587288 93.597 -141.0017
1758.236533 93.694 -141.2905
1770.977440 93.793 -141.5961
1783.810673 93.891 -141.9189
1796.736900 93.990 -142.2596
1809.756796 94.088 -142.6188
1822.871040 94.187 -142.9973
1836.080315 94.286 -143.3959
1849.385310 94.384 -143.8156
1862.786718 94.483 -144.2571
1876.285239 94.581 -144.7213
1889.881575 94.678 -145.2089
1903.576436 94.775 -145.7206
1917.370535 94.871 -146.2572
1931.264593 94.966 -146.8192
1945.259332 95.059 -147.4072
1959.355483 95.150 -148.0216
1973.553781 95.240 -148.6626
1987.854965 95.327 -149.3304
2002.259781 95.412 -150.0246
2016.768981 95.493 -150.7449
2031.383320 95.572 -151.4905
2046.103561 95.647 -152.2609
2060.930471 95.718 -153.0551
2075.864823 95.786 -153.8721
2090.907395 95.848 -154.7108
2106.058972 95.907 -155.5699
2121.320344 95.960 -156.4477
2136.692305 96.007 -157.3428
2152.175658 96.050 -158.2531
2167.771210 96.086 -159.1767
2183.479774 96.117 -160.1110
2199.302169 96.141 -161.0532
2215.239219 96.158 -162.0001
2231.291755 96.169 -162.9481
2247.460615 96.173 -163.8932
2263.746641 96.169 -164.8310
2280.150683 96.159 -165.7567
2296.673595 96.142 -166.6652
2313.316238 96.117 -167.5510
2330.079481 96.087 -168.4081
2346.964198 96.051 -169.2309
2363.971268 96.010 -170.0137
2381.101578 95.966 -170.7521
2398.356022 95.920 -171.4429
2415.735498 95.873 -172.0857
2433.240913 95.828 -172.6835
2450.873180 95.786 -173.2439
2468.633217 95.749 -173.7786
2486.521951 95.718 -174.3032
2504.540314 95.692 -174.8350
2522.689246 95.671 -175.3908
2540.969692 95.652 -175.9837
2559.382606 95.633 -176.6214
2577.928947 95.612 -177.3044
2596.609683 95.585 -178.0272
2615.425787 95.550 -178.7791
2634.378241 95.507 -179.5467
2653.468031 95.455 179.6842
2672.696154 95.393 178.9269
2692.063613 95.323 178.1925
2711.571415 95.245 177.4896
2731.220579 95.160 176.8245
2751.012130 95.070 176.2012
2770.947098 94.976 175.6220
2791.026522 94.878 175.0878
2811.251451 94.778 174.5984
2831.622938 94.676 174.1527
2852.142045 94.573 173.7492
2872.809842 94.470 173.3861
2893.627406 94.366 173.0616
2914.595823 94.263 172.7735
2935.716186 94.161 172.5198
2956.989596 94.060 172.2985
2978.417161 93.960 172.1072
3000.000000 93.862 171.9438
3021.739237 93.766 171.8058
3043.636005 93.672 171.6910
3065.691446 93.580 171.5975
3087.906710 93.490 171.5230
3110.282955 93.402 171.4658
3132.821347 93.317 171.4242
3155.523062 93.232 171.3965
3178.389283 93.150 171.3816
3201.421202 93.069 171.3780
3224.620020 92.989 171.3848
3247.986946 92.911 171.4010
3271.523198 92.833 171.4259
3295.230004 92.757 171.4590
3319.108599 92.682 171.4998
3343.160228 92.607 171.5482
3367.386145 92.532 171.6041
3391.787613 92.458 171.6683
3416.365904 92.384 171.7419
3441.122300 92.310 171.8269
3466.058091 92.236 171.9261
3491.174576 92.162 172.0429
3516.473066 92.087 172.1805
3541.954880 92.013 172.3416
3567.621345 91.941 172.5275
3593.473800 91.869 172.7383
3619.513592 91.801 172.9731
3645.742080 91.734 173.2308
3672.160630 91.670 173.5118
3698.770620 91.609 173.8184
3725.573436 91.552 174.1541
3752.570477 91.501 174.5196
3779.763150 91.456 174.9082
3807.152872 91.420 175.3041
3834.741071 91.393 175.6883
3862.529185 91.372 176.0472
3890.518664 91.357 176.3759
3918.710966 91.345 176.6757
3947.107561 91.335 176.9505
3975.709929 91.327 177.2037
4004.519563 91.321 177.4377
4033.537962 91.316 177.6535
4062.766641 91.313 177.8515
4092.207123 91.311 178.0316
4121.860942 91.310 178.1937
4151.729646 91.310 178.3376
4181.814790 91.312 178.4634
4212.117944 91.313 178.5710
4242.640687 91.316 178.6604
4273.384610 91.318 178.7314
4304.351317 91.322 178.7834
4335.542421 91.325 178.8162
4366.959549 91.328 178.8288
4398.604338 91.331 178.8208
4430.478438 91.333 178.7916
4462.583511 91.335 178.7410
4494.921231 91.335 178.6687
4527.493283 91.334 178.5750
4560.301365 91.332 178.4601
4593.347189 91.327 178.3248
4626.632476 91.321 178.1697
4660.158962 91.311 177.9954
4693.928395 91.299 177.8027
4727.942535 91.284 177.5923
4762.203156 91.266 177.3653
4796.712043 91.243 177.1232
4831.470996 91.216 176.8680
4866.481826 91.185 176.6025
4901.746360 91.149 176.3301
4937.266434 91.107 176.0549
4973.043902 91.061 175.7810
5009.080628 91.009 175.5129
5045.378492 90.951 175.2547
5081.939384 90.889 175.0101
5118.765212 90.823 174.7827
5155.857894 90.752 174.5751
5193.219366 90.677 174.3896
5230.851574 90.598 174.2280
5268.756481 90.517 174.0913
5306.936062 90.433 173.9805
5345.392309 90.346 173.8966
5384.127225 90.257 173.8404
5423.142830 90.166 173.8128
5462.441159 90.072 173.8149
5502.024259 89.977 173.8482
5541.894195 89.881 173.9139
5582.053045 89.783 174.0137
5622.502902 89.684 174.1488
5663.245876 89.585 174.3206
5704.284090 89.485 174.5303
5745.619684 89.386 174.7791
5787.254813 89.287 175.0677
5829.191647 89.189 175.3967
5871.432373 89.093 175.7664
5913.979192 88.998 176.1769
5956.834323 88.905 176.6282
6000.000000 88.816 177.1200
6043.478473 88.729 177.6521
6087.272010 88.647 178.2238
6131.382892 88.568 178.8342
6175.813420 88.495 179.4820
6220.565910 88.426 -179.8339
6265.642695 88.364 -179.1151
6311.046124 88.307 -178.3629
6356.778566 88.257 -177.5789
6402.842404 88.214 -176.7647
6449.240040 88.178 -175.9218
6495.973891 88.150 -175.0515
6543.046396 88.132 -174.1549
6590.460007 88.122 -173.2332
6638.217197 88.123 -172.2883
6686.320456 88.134 -171.3226
6734.772290 88.158 -170.3395
6783.575226 88.194 -169.3434
6832.731809 88.245 -168.3397
6882.244600 88.310 -167.3349
6932.116181 88.392 -166.3371
6982.349153 88.492 -165.3557
7032.946133 88.609 -164.4025
7083.909760 88.747 -163.4914
7135.242690 88.904 -162.6381
7186.947600 89.083 -161.8613
7239.027185 89.282 -161.1816
7291.484160 89.502 -160.6211
7344.321260 89.741 -160.2030
7397.541239 89.999 -159.9510
7451.146872 90.273 -159.8891
7505.140954 90.561 -160.0410
7559.526299 90.859 -160.4300
7614.305743 91.165 -161.0785
7669.482141 91.472 -162.0077
7725.058371 91.776 -163.2367
7781.037328 92.071 -164.7807
7837.421932 92.347 -166.6483
7894.215122 92.598 -168.8392
7951.419859 92.812 -171.3421
8009.039125 92.982 -174.1322
8067.075924 93.097 -177.1700
8125.533282 93.150 179.6000
8184.414245 93.133 176.2464
8243.721885 93.044 172.8483
8303.459292 92.881 169.4893
8363.629581 92.646 166.2525
8424.235888 92.343 163.2147
8485.281374 91.978 160.4426
8546.769221 91.561 157.9893
8608.702634 91.101 155.8932
8671.084842 90.609 154.1775
8733.919097 90.093 152.8508
8797.208675 89.564 151.9094
8860.956876 89.031 151.3394
8925.167022 88.499 151.1191
8989.842461 87.977 151.2221
9054.986566 87.467 151.6193
9120.602731 86.974 152.2814
9186.694378 86.500 153.1808
9253.264952 86.047 154.2925
9320.317925 85.614 155.5942
9387.856790 85.204 157.0663
9455.885071 84.816 158.6910
9524.406312 84.451 160.4514
9593.424086 84.110 162.3308
9662.941992 83.792 164.3141
9732.963653 83.499 166.3873
9803.492719 83.230 168.5374
9874.532869 82.985 170.7526
9946.087805 82.763 173.0212
10018.161257 82.565 175.3315
10090.756983 82.390 177.6714
10163.878768 82.237 -179.9717
10237.530423 82.105 -177.6085
10311.715789 81.992 -175.2445
10386.438732 81.897 -172.8749
10461.703149 81.816 -170.4779
10537.512962 81.752 -168.0159
10613.872125 81.710 -165.4492
10690.784618 81.697 -162.7654
10768.254450 81.724 -160.0007
10846.285661 81.795 -157.2276
10924.882318 81.911 -154.5183
11004.048518 82.069 -151.9198
11083.788390 82.265 -149.4544
11164.106090 82.500 -147.1326
11245.005805 82.772 -144.9653
11326.491752 83.084 -142.9713
11408.568180 83.437 -141.1801
11491.239368 83.832 -139.6325
11574.509626 84.269 -138.3799
11658.383294 84.746 -137.4829
11742.864745 85.260 -137.0076
11827.958384 85.801 -137.0221
11913.668646 86.359 -137.5903
12000.000000 86.919 -138.7650
12086.956947 87.462 -140.5802
12174.544019 87.968 -143.0440
12262.765784 88.416 -146.1312
12351.626840 88.784 -149.7782
12441.131819 89.052 -153.8820
12531.285389 89.207 -158.3027
12622.092249 89.238 -162.8735
12713.557132 89.143 -167.4139
12805.684808 88.928 -171.7474
12898.480079 88.605 -175.7175
12991.947783 88.192 -179.1998
13086.092792 87.709 177.8906
13180.920015 87.180 175.5984
13276.434395 86.627 173.9306
13372.640911 86.070 172.8618
13469.544580 85.528 172.3417
13567.150452 85.016 172.3031
13665.463617 84.544 172.6687
13764.489200 84.121 173.3579
13864.232362 83.752 174.2915
13964.698305 83.440 175.3946
14065.892266 83.186 176.5980
14167.819519 82.989 177.8367
14270.485380 82.848 179.0479
14373.895200 82.762 -179.8310
14478.054370 82.726 -178.8642
14582.968320 82.736 -178.1166
14688.642520 82.787 -177.6534
14795.082478 82.871 -177.5369
14902.293745 82.977 -177.8239
15010.281908 83.093 -178.5611
15119.052599 83.205 -179.7799
15228.611486 83.295 178.5085
15338.964283 83.345 176.3191
15450.116741 83.338 173.6966
15562.074656 83.255 170.7183
15674.843864 83.081 167.4926
15788.430244 82.805 164.1554
15902.839718 82.421 160.8616
16018.078250 81.929 157.7744
16134.151848 81.333 155.0521
16251.066563 80.647 152.8361
16368.828491 79.888 151.2402
16487.443769 79.078 150.3419
16606.918584 78.243 150.1756
16727.259161 77.410 150.7283
16848.471777 76.609 151.9346
16970.562748 75.869 153.6733
17093.538442 75.217 155.7661
17217.405268 74.676 157.9839
17342.169684 74.256 160.0645
17467.838194 73.959 161.7432
17594.417350 73.769 162.7905
17721.913751 73.658 163.0430
17850.334044 73.590 162.4215
17979.684923 73.525 160.9328
18109.973131 73.426 158.6590
18241.205462 73.261 155.7402
18373.388756 73.008 152.3549
18506.529905 72.651 148.7017
18640.635849 72.185 144.9825
18775.713581 71.608 141.3890
18911.770141 70.930 138.0917
19048.812624 70.161 135.2308
19186.848172 69.318 132.9103
19325.883983 68.420 131.1927
19465.927305 67.495 130.0943
19606.985439 66.586 129.5737
19749.065738 65.758 129.5161
19892.175609 65.106 129.7203
20036.322514 64.742 129.9255
