* Measurement data measured by REW V5.31.3
* Source: Headset (CX31993 HIFI AUDIO), MICROPHONE (Master Volume), R, volume: 0.250
* Format: 256k Log Swept Sine, 1 sweep at -12.0 dBFS with no timing reference
* Dated: 01 11, 25 3:28:07 PM
* REW Settings:
*  C-weighting compensation: Off
*  Target level: 75.0 dB
* Note: ; 
* Measurement: Thieaudio Oracle mk3 R
* Smoothing: 1/12 octave
* Frequency Step: 96 ppo
* Start Frequency: 0.36621094 Hz
*
* Freq(Hz) SPL(dB) Phase(degrees)
0.366211 57.922 -44.1206
0.368865 57.927 -44.2138
0.371538 57.933 -44.3531
0.374230 57.941 -44.5272
0.376942 57.950 -44.7265
0.379673 57.960 -44.9441
0.382424 57.970 -45.1752
0.385196 57.981 -45.4170
0.387987 57.991 -45.6679
0.390798 58.002 -45.9270
0.393630 58.013 -46.1939
0.396483 58.024 -46.4685
0.399356 58.035 -46.7506
0.402250 58.046 -47.0403
0.405165 58.058 -47.3377
0.408101 58.069 -47.6428
0.411058 58.080 -47.9557
0.414037 58.092 -48.2766
0.417037 58.103 -48.6055
0.420059 58.115 -48.9424
0.423103 58.127 -49.2876
0.426169 58.139 -49.6410
0.429257 58.150 -50.0028
0.432368 58.162 -50.3731
0.435501 58.175 -50.7519
0.438656 58.187 -51.1394
0.441835 58.199 -51.5355
0.445037 58.211 -51.9405
0.448262 58.224 -52.3543
0.451510 58.236 -52.7770
0.454782 58.249 -53.2088
0.458077 58.262 -53.6496
0.461397 58.274 -54.0996
0.464740 58.287 -54.5588
0.468108 58.300 -55.0272
0.471500 58.313 -55.5050
0.474917 58.327 -55.9921
0.478358 58.340 -56.4886
0.481825 58.353 -56.9946
0.485316 58.367 -57.5101
0.488833 58.380 -58.0350
0.492375 58.394 -58.5696
0.495943 58.408 -59.1136
0.499537 58.421 -59.6673
0.503157 58.435 -60.2305
0.506803 58.449 -60.8033
0.510475 58.464 -61.3857
0.514175 58.478 -61.9776
0.517900 58.492 -62.5791
0.521653 58.507 -63.1901
0.525434 58.521 -63.8106
0.529241 58.536 -64.4405
0.533076 58.551 -65.0799
0.536939 58.566 -65.7286
0.540830 58.581 -66.3866
0.544749 58.596 -67.0539
0.548696 58.611 -67.7303
0.552673 58.626 -68.4157
0.556677 58.642 -69.1102
0.560711 58.657 -69.8136
0.564774 58.673 -70.5257
0.568867 58.689 -71.2466
0.572989 58.705 -71.9760
0.577141 58.721 -72.7138
0.581324 58.737 -73.4600
0.585536 58.753 -74.2143
0.589779 58.769 -74.9768
0.594053 58.786 -75.7471
0.598358 58.803 -76.5251
0.602694 58.819 -77.3108
0.607061 58.836 -78.1040
0.611460 58.853 -78.9044
0.615891 58.870 -79.7119
0.620354 58.887 -80.5265
0.624849 58.905 -81.3478
0.629377 58.922 -82.1757
0.633938 58.940 -83.0101
0.638532 58.957 -83.8508
0.643159 58.975 -84.6976
0.647819 58.993 -85.5503
0.652514 59.011 -86.4089
0.657242 59.030 -87.2731
0.662005 59.048 -88.1427
0.666802 59.066 -89.0176
0.671634 59.085 -89.8977
0.676501 59.104 -90.7828
0.681403 59.123 -91.6728
0.686341 59.142 -92.5675
0.691314 59.161 -93.4667
0.696324 59.181 -94.3705
0.701370 59.201 -95.2786
0.706452 59.222 -96.1909
0.711571 59.245 -97.1074
0.716728 59.269 -98.0280
0.721921 59.297 -98.9524
0.727153 59.329 -99.8806
0.732422 59.367 -100.8122
0.737729 59.412 -101.7469
0.743075 59.463 -102.6841
0.748460 59.520 -103.6233
0.753883 59.582 -104.5638
0.759346 59.647 -105.5048
0.764849 59.717 -106.4457
0.770391 59.789 -107.3856
0.775974 59.864 -108.3241
0.781597 59.941 -109.2602
0.787261 60.022 -110.1936
0.792966 60.104 -111.1234
0.798712 60.190 -112.0492
0.804500 60.277 -112.9705
0.810329 60.368 -113.8868
0.816201 60.460 -114.7976
0.822116 60.555 -115.7024
0.828073 60.653 -116.6010
0.834074 60.752 -117.4929
0.840118 60.854 -118.3779
0.846206 60.959 -119.2557
0.852338 61.065 -120.1261
0.858514 61.174 -120.9889
0.864735 61.284 -121.8439
0.871001 61.397 -122.6911
0.877313 61.512 -123.5304
0.883670 61.629 -124.3616
0.890074 61.748 -125.1848
0.896524 61.868 -126.0000
0.903020 61.990 -126.8073
0.909564 62.114 -127.6066
0.916155 62.240 -128.3981
0.922794 62.367 -129.1820
0.929481 62.496 -129.9583
0.936216 62.626 -130.7272
0.943000 62.757 -131.4889
0.949834 62.890 -132.2435
0.956717 63.023 -132.9914
0.963649 63.158 -133.7328
0.970632 63.293 -134.4677
0.977666 63.430 -135.1967
0.984750 63.567 -135.9198
0.991886 63.704 -136.6374
0.999074 63.842 -137.3498
1.006314 63.980 -138.0573
1.013606 64.118 -138.7602
1.020951 64.256 -139.4588
1.028349 64.394 -140.1534
1.035801 64.532 -140.8444
1.043307 64.669 -141.5320
1.050867 64.806 -142.2166
1.058482 64.942 -142.8986
1.066152 65.077 -143.5780
1.073878 65.211 -144.2552
1.081660 65.344 -144.9303
1.089498 65.476 -145.6031
1.097393 65.608 -146.2735
1.105345 65.739 -146.9410
1.113355 65.870 -147.6051
1.121423 66.002 -148.2655
1.129549 66.134 -148.9217
1.137734 66.267 -149.5734
1.145979 66.400 -150.2205
1.154283 66.534 -150.8629
1.162647 66.669 -151.5004
1.171072 66.805 -152.1331
1.179558 66.941 -152.7610
1.188106 67.078 -153.3840
1.196715 67.216 -154.0023
1.205387 67.354 -154.6158
1.214122 67.493 -155.2247
1.222920 67.633 -155.8289
1.231782 67.773 -156.4287
1.240708 67.914 -157.0240
1.249699 68.055 -157.6151
1.258754 68.197 -158.2019
1.267876 68.339 -158.7847
1.277063 68.482 -159.3636
1.286318 68.625 -159.9386
1.295639 68.768 -160.5100
1.305027 68.911 -161.0779
1.314484 69.055 -161.6425
1.324009 69.200 -162.2039
1.333604 69.344 -162.7623
1.343268 69.488 -163.3179
1.353002 69.633 -163.8708
1.362806 69.777 -164.4213
1.372681 69.922 -164.9695
1.382628 70.067 -165.5156
1.392647 70.211 -166.0598
1.402739 70.355 -166.6022
1.412904 70.499 -167.1431
1.423142 70.643 -167.6824
1.433455 70.786 -168.2204
1.443843 70.929 -168.7569
1.454305 71.072 -169.2917
1.464844 71.215 -169.8247
1.475459 71.356 -170.3552
1.486150 71.498 -170.8830
1.496920 71.639 -171.4078
1.507767 71.780 -171.9294
1.518693 71.920 -172.4476
1.529698 72.060 -172.9627
1.540783 72.200 -173.4748
1.551948 72.340 -173.9840
1.563194 72.479 -174.4906
1.574521 72.618 -174.9949
1.585931 72.756 -175.4971
1.597423 72.894 -175.9976
1.608999 73.032 -176.4965
1.620658 73.170 -176.9942
1.632402 73.307 -177.4911
1.644232 73.444 -177.9874
1.656146 73.581 -178.4835
1.668147 73.718 -178.9796
1.680235 73.855 -179.4762
1.692411 73.991 -179.9735
1.704675 74.127 179.5280
1.717028 74.263 179.0281
1.729470 74.399 178.5265
1.742003 74.535 178.0226
1.754626 74.671 177.5163
1.767341 74.806 177.0072
1.780147 74.942 176.4950
1.793047 75.077 175.9795
1.806040 75.213 175.4605
1.819128 75.348 174.9381
1.832310 75.483 174.4123
1.845587 75.618 173.8835
1.858961 75.752 173.3521
1.872432 75.886 172.8185
1.886001 76.020 172.2831
1.899667 76.153 171.7462
1.913433 76.285 171.2080
1.927299 76.417 170.6689
1.941265 76.548 170.1290
1.955332 76.679 169.5884
1.969501 76.809 169.0473
1.983773 76.939 168.5057
1.998148 77.068 167.9637
2.012627 77.197 167.4214
2.027212 77.325 166.8787
2.041902 77.453 166.3355
2.056698 77.581 165.7920
2.071602 77.708 165.2479
2.086614 77.835 164.7031
2.101734 77.961 164.1576
2.116964 78.088 163.6111
2.132304 78.214 163.0635
2.147756 78.339 162.5145
2.163320 78.465 161.9639
2.178996 78.590 161.4111
2.194786 78.715 160.8561
2.210690 78.839 160.2984
2.226710 78.963 159.7379
2.242845 79.086 159.1744
2.259098 79.208 158.6083
2.275468 79.330 158.0396
2.291957 79.451 157.4687
2.308566 79.571 156.8958
2.325295 79.691 156.3214
2.342145 79.810 155.7457
2.359117 79.928 155.1690
2.376212 80.045 154.5916
2.393431 80.162 154.0136
2.410775 80.279 153.4353
2.428244 80.395 152.8569
2.445840 80.510 152.2784
2.463564 80.625 151.6999
2.481416 80.739 151.1213
2.499397 80.853 150.5427
2.517509 80.966 149.9636
2.535752 81.079 149.3838
2.554127 81.191 148.8026
2.572635 81.302 148.2195
2.591277 81.413 147.6339
2.610055 81.523 147.0452
2.628968 81.632 146.4534
2.648019 81.740 145.8587
2.667208 81.848 145.2614
2.686535 81.954 144.6617
2.706003 82.060 144.0604
2.725612 82.165 143.4579
2.745363 82.269 142.8547
2.765257 82.372 142.2513
2.785295 82.474 141.6481
2.805478 82.576 141.0457
2.825808 82.677 140.4442
2.846285 82.778 139.8439
2.866910 82.877 139.2448
2.887685 82.976 138.6469
2.908611 83.075 138.0496
2.929688 83.172 137.4522
2.950917 83.269 136.8539
2.972301 83.365 136.2539
2.993839 83.460 135.6518
3.015534 83.554 135.0475
3.037386 83.647 134.4412
3.059396 83.739 133.8334
3.081565 83.830 133.2247
3.103896 83.920 132.6158
3.126388 84.009 132.0074
3.149043 84.097 131.4003
3.171862 84.185 130.7950
3.194847 84.272 130.1923
3.217998 84.358 129.5924
3.241317 84.443 128.9957
3.264805 84.528 128.4020
3.288463 84.612 127.8109
3.312293 84.695 127.2216
3.336295 84.778 126.6334
3.360471 84.859 126.0456
3.384822 84.939 125.4579
3.409350 85.019 124.8704
3.434056 85.097 124.2834
3.458940 85.175 123.6972
3.484005 85.251 123.1127
3.509252 85.327 122.5302
3.534681 85.403 121.9507
3.560295 85.477 121.3745
3.586094 85.552 120.8023
3.612081 85.625 120.2342
3.638255 85.698 119.6704
3.664620 85.771 119.1105
3.691175 85.843 118.5541
3.717923 85.914 118.0006
3.744864 85.984 117.4496
3.772001 86.054 116.9008
3.799335 86.123 116.3543
3.826866 86.191 115.8103
3.854597 86.259 115.2689
3.882529 86.327 114.7307
3.910664 86.394 114.1958
3.939002 86.461 113.6648
3.967546 86.527 113.1379
3.996296 86.594 112.6154
4.025255 86.660 112.0973
4.054423 86.726 111.5835
4.083804 86.792 111.0736
4.113396 86.857 110.5675
4.143204 86.922 110.0647
4.173227 86.987 109.5650
4.203468 87.052 109.0680
4.233928 87.117 108.5735
4.264609 87.181 108.0814
4.295512 87.246 107.5914
4.326639 87.311 107.1036
4.357992 87.376 106.6180
4.389572 87.441 106.1346
4.421380 87.507 105.6534
4.453419 87.572 105.1745
4.485691 87.638 104.6976
4.518196 87.704 104.2224
4.550936 87.770 103.7484
4.583914 87.836 103.2750
4.617131 87.903 102.8018
4.650589 87.969 102.3280
4.684289 88.036 101.8533
4.718233 88.103 101.3773
4.752424 88.171 100.8998
4.786862 88.238 100.4209
4.821549 88.306 99.9405
4.856488 88.374 99.4586
4.891680 88.443 98.9750
4.927127 88.511 98.4894
4.962831 88.580 98.0012
4.998794 88.648 97.5098
5.035017 88.717 97.0148
5.071503 88.786 96.5156
5.108253 88.854 96.0119
5.145270 88.922 95.5034
5.182555 88.991 94.9901
5.220110 89.059 94.4720
5.257937 89.127 93.9492
5.296038 89.194 93.4218
5.334415 89.262 92.8898
5.373071 89.328 92.3532
5.412006 89.394 91.8118
5.451224 89.460 91.2654
5.490725 89.525 90.7137
5.530514 89.589 90.1564
5.570590 89.652 89.5936
5.610957 89.714 89.0254
5.651616 89.776 88.4524
5.692570 89.837 87.8752
5.733821 89.896 87.2944
5.775370 89.954 86.7104
5.817221 90.011 86.1236
5.859375 90.067 85.5339
5.901834 90.122 84.9412
5.944602 90.175 84.3454
5.987679 90.226 83.7470
6.031068 90.277 83.1466
6.074771 90.326 82.5453
6.118792 90.373 81.9442
6.163131 90.419 81.3439
6.207792 90.463 80.7452
6.252776 90.506 80.1481
6.298086 90.547 79.5526
6.343725 90.587 78.9590
6.389694 90.625 78.3679
6.435996 90.662 77.7800
6.482634 90.697 77.1966
6.529610 90.731 76.6186
6.576926 90.764 76.0466
6.624585 90.795 75.4811
6.672590 90.825 74.9221
6.720942 90.854 74.3698
6.769645 90.882 73.8244
6.818700 90.909 73.2865
6.868111 90.935 72.7567
6.917881 90.960 72.2355
6.968010 90.985 71.7234
7.018504 91.009 71.2205
7.069362 91.032 70.7267
7.120590 91.055 70.2418
7.172189 91.078 69.7657
7.224161 91.101 69.2983
7.276511 91.124 68.8395
7.329239 91.147 68.3891
7.382350 91.170 67.9472
7.435845 91.193 67.5133
7.489729 91.217 67.0870
7.544002 91.241 66.6676
7.598669 91.266 66.2543
7.653732 91.291 65.8465
7.709194 91.317 65.4437
7.765058 91.344 65.0455
7.821327 91.371 64.6513
7.878004 91.399 64.2605
7.935091 91.428 63.8723
7.992592 91.457 63.4857
8.050510 91.487 63.1002
8.108847 91.518 62.7151
8.167607 91.550 62.3301
8.226793 91.581 61.9448
8.286408 91.614 61.5587
8.346454 91.647 61.1713
8.406936 91.680 60.7822
8.467856 91.713 60.3909
8.529218 91.747 59.9975
8.591024 91.781 59.6017
8.653278 91.814 59.2034
8.715983 91.848 58.8028
8.779143 91.882 58.3996
8.842760 91.916 57.9938
8.906839 91.949 57.5856
8.971381 91.982 57.1750
9.036392 92.015 56.7621
9.101873 92.048 56.3472
9.167829 92.080 55.9304
9.234263 92.112 55.5116
9.301178 92.144 55.0910
9.368578 92.175 54.6688
9.436467 92.206 54.2449
9.504847 92.236 53.8195
9.573723 92.266 53.3926
9.643099 92.296 52.9643
9.712976 92.325 52.5344
9.783361 92.353 52.1031
9.854255 92.381 51.6702
9.925663 92.408 51.2359
9.997588 92.435 50.8000
10.070035 92.461 50.3626
10.143007 92.486 49.9238
10.216507 92.510 49.4837
10.290540 92.534 49.0424
10.365109 92.557 48.6002
10.440219 92.579 48.1572
10.515873 92.599 47.7140
10.592076 92.619 47.2709
10.668830 92.637 46.8286
10.746141 92.655 46.3874
10.824012 92.671 45.9481
10.902447 92.686 45.5116
10.981451 92.699 45.0785
11.061027 92.712 44.6498
11.141180 92.723 44.2261
11.221913 92.733 43.8084
11.303232 92.742 43.3974
11.385140 92.750 42.9940
11.467641 92.757 42.5987
11.550741 92.764 42.2120
11.634442 92.770 41.8344
11.718750 92.776 41.4661
11.803669 92.782 41.1071
11.889203 92.788 40.7573
11.975357 92.794 40.4162
12.062136 92.801 40.0833
12.149543 92.808 39.7577
12.237583 92.816 39.4385
12.326262 92.826 39.1245
12.415583 92.836 38.8142
12.505552 92.847 38.5063
12.596172 92.860 38.1993
12.687449 92.873 37.8918
12.779387 92.888 37.5822
12.871992 92.903 37.2693
12.965268 92.919 36.9520
13.059220 92.936 36.6292
13.153852 92.953 36.3004
13.249170 92.970 35.9652
13.345179 92.986 35.6234
13.441884 93.003 35.2754
13.539289 93.019 34.9218
13.637401 93.034 34.5634
13.736223 93.048 34.2013
13.835761 93.061 33.8369
13.936021 93.072 33.4717
14.037007 93.083 33.1072
14.138725 93.093 32.7449
14.241180 93.101 32.3865
14.344377 93.109 32.0331
14.448323 93.116 31.6860
14.553021 93.122 31.3457
14.658478 93.129 31.0128
14.764700 93.135 30.6873
14.871691 93.142 30.3687
14.979457 93.150 30.0562
15.088005 93.159 29.7485
15.197339 93.169 29.4441
15.307465 93.180 29.1412
15.418389 93.192 28.8379
15.530117 93.205 28.5321
15.642655 93.220 28.2220
15.756008 93.235 27.9059
15.870182 93.251 27.5822
15.985184 93.267 27.2499
16.101019 93.284 26.9086
16.217694 93.300 26.5580
16.335214 93.315 26.1985
16.453586 93.329 25.8312
16.572815 93.342 25.4573
16.692909 93.353 25.0786
16.813872 93.363 24.6969
16.935713 93.371 24.3147
17.058436 93.377 23.9342
17.182048 93.381 23.5577
17.306556 93.383 23.1875
17.431967 93.383 22.8257
17.558286 93.383 22.4741
17.685521 93.381 22.1340
17.813677 93.379 21.8065
17.942762 93.377 21.4922
18.072783 93.374 21.1909
18.203746 93.372 20.9022
18.335658 93.371 20.6248
18.468526 93.372 20.3568
18.602356 93.374 20.0959
18.737156 93.377 19.8393
18.872934 93.383 19.5836
19.009695 93.390 19.3256
19.147447 93.399 19.0616
19.286197 93.409 18.7889
19.425953 93.420 18.5049
19.566721 93.431 18.2079
19.708510 93.441 17.8977
19.851326 93.450 17.5748
19.995177 93.457 17.2416
20.140070 93.462 16.9013
20.286013 93.464 16.5583
20.433014 93.463 16.2179
20.581080 93.459 15.8851
20.730219 93.453 15.5650
20.880439 93.445 15.2612
21.031747 93.437 14.9761
21.184152 93.429 14.7097
21.337661 93.422 14.4601
21.492282 93.417 14.2228
21.648024 93.415 13.9919
21.804895 93.416 13.7603
21.962902 93.419 13.5205
22.122054 93.425 13.2661
22.282360 93.432 12.9928
22.443827 93.438 12.6989
22.606464 93.442 12.3856
22.770280 93.444 12.0576
22.935283 93.443 11.7214
23.101481 93.437 11.3856
23.268884 93.428 11.0588
23.437500 93.416 10.7486
23.607338 93.402 10.4601
23.778406 93.388 10.1952
23.950714 93.376 9.9517
24.124271 93.367 9.7240
24.299086 93.360 9.5039
24.475167 93.358 9.2820
24.652524 93.358 9.0496
24.831166 93.361 8.8002
25.011103 93.363 8.5311
25.192344 93.365 8.2437
25.374898 93.364 7.9431
25.558775 93.360 7.6375
25.743984 93.354 7.3358
25.930536 93.344 7.0463
26.118439 93.334 6.7744
26.307704 93.324 6.5215
26.498341 93.316 6.2848
26.690359 93.311 6.0571
26.883768 93.309 5.8293
27.078579 93.309 5.5920
27.274801 93.312 5.3378
27.472446 93.314 5.0630
27.671522 93.315 4.7694
27.872042 93.313 4.4631
28.074014 93.307 4.1537
28.277450 93.298 3.8527
28.482360 93.285 3.5700
28.688755 93.270 3.3127
28.896645 93.256 3.0830
29.106042 93.244 2.8776
29.316957 93.236 2.6886
29.529400 93.231 2.5052
29.743382 93.231 2.3158
29.958915 93.234 2.1108
30.176009 93.238 1.8843
30.394677 93.243 1.6348
30.614929 93.245 1.3652
30.836778 93.245 1.0814
31.060234 93.242 0.7913
31.285309 93.236 0.5021
31.512015 93.228 0.2195
31.740364 93.219 -0.0530
31.970368 93.208 -0.3151
32.202039 93.198 -0.5682
32.435388 93.187 -0.8159
32.670428 93.178 -1.0616
32.907171 93.168 -1.3086
33.145630 93.158 -1.5590
33.385817 93.148 -1.8135
33.627745 93.136 -2.0708
33.871425 93.122 -2.3282
34.116871 93.107 -2.5817
34.364096 93.089 -2.8263
34.613113 93.070 -3.0573
34.863934 93.050 -3.2709
35.116572 93.031 -3.4653
35.371041 93.013 -3.6418
35.627354 92.997 -3.8051
35.885525 92.985 -3.9628
36.145566 92.976 -4.1248
36.407492 92.971 -4.3010
36.671316 92.967 -4.4993
36.937051 92.964 -4.7236
37.204712 92.960 -4.9729
37.474313 92.952 -5.2408
37.745867 92.940 -5.5175
38.019389 92.925 -5.7913
38.294893 92.907 -6.0521
38.572394 92.886 -6.2936
38.851905 92.866 -6.5146
39.133442 92.847 -6.7192
39.417019 92.831 -6.9146
39.702651 92.817 -7.1094
39.990353 92.805 -7.3104
40.280140 92.794 -7.5215
40.572026 92.784 -7.7428
40.866028 92.772 -7.9719
41.162160 92.761 -8.2058
41.460438 92.749 -8.4420
41.760877 92.736 -8.6797
42.063494 92.724 -8.9191
42.368303 92.711 -9.1606
42.675322 92.697 -9.4042
42.984565 92.683 -9.6488
43.296048 92.669 -9.8932
43.609789 92.654 -10.1371
43.925804 92.639 -10.3812
44.244108 92.623 -10.6270
44.564719 92.607 -10.8751
44.887654 92.589 -11.1241
45.212928 92.570 -11.3701
45.540560 92.550 -11.6086
45.870565 92.529 -11.8369
46.202962 92.508 -12.0558
46.537768 92.488 -12.2702
46.875000 92.469 -12.4866
47.214676 92.450 -12.7093
47.556813 92.430 -12.9372
47.901429 92.408 -13.1641
48.248542 92.384 -13.3815
48.598171 92.359 -13.5837
48.950334 92.335 -13.7714
49.305048 92.314 -13.9510
49.662333 92.294 -14.1326
50.022206 92.276 -14.3243
50.384688 92.259 -14.5294
50.749796 92.241 -14.7462
51.117550 92.221 -14.9702
51.487969 92.200 -15.1965
51.861072 92.177 -15.4222
52.236879 92.154 -15.6453
52.615409 92.129 -15.8651
52.996681 92.105 -16.0812
53.380717 92.080 -16.2937
53.767536 92.054 -16.5039
54.157158 92.029 -16.7133
54.549603 92.004 -16.9222
54.944892 91.978 -17.1302
55.343045 91.951 -17.3354
55.744084 91.924 -17.5361
56.148028 91.896 -17.7320
56.554900 91.869 -17.9240
56.964720 91.842 -18.1136
57.377510 91.815 -18.3022
57.793291 91.788 -18.4901
58.212085 91.760 -18.6765
58.633914 91.733 -18.8607
59.058799 91.705 -19.0417
59.486764 91.677 -19.2191
59.917829 91.649 -19.3929
60.352019 91.622 -19.5641
60.789354 91.595 -19.7340
61.229859 91.568 -19.9043
61.673556 91.542 -20.0762
62.120468 91.516 -20.2507
62.570618 91.490 -20.4285
63.024031 91.464 -20.6088
63.480729 91.437 -20.7904
63.940736 91.409 -20.9714
64.404077 91.381 -21.1505
64.870776 91.352 -21.3277
65.340856 91.323 -21.5034
65.814343 91.293 -21.6769
66.291261 91.262 -21.8467
66.771635 91.230 -22.0112
67.255489 91.198 -22.1708
67.742850 91.166 -22.3287
68.233743 91.133 -22.4886
68.728193 91.100 -22.6517
69.226226 91.066 -22.8153
69.727867 91.031 -22.9756
70.233144 90.995 -23.1309
70.742083 90.960 -23.2831
71.254709 90.926 -23.4369
71.771050 90.892 -23.5950
72.291132 90.858 -23.7555
72.814984 90.823 -23.9122
73.342631 90.788 -24.0601
73.874102 90.755 -24.1987
74.409424 90.723 -24.3335
74.948626 90.693 -24.4709
75.491734 90.663 -24.6141
76.038779 90.632 -24.7599
76.589787 90.599 -24.9021
77.144788 90.565 -25.0352
77.703811 90.531 -25.1578
78.266885 90.496 -25.2726
78.834039 90.460 -25.3838
79.405303 90.424 -25.4944
79.980706 90.387 -25.6044
80.560280 90.348 -25.7111
81.144053 90.309 -25.8113
81.732056 90.270 -25.9052
82.324320 90.232 -25.9971
82.920876 90.194 -26.0934
83.521755 90.157 -26.1982
84.126988 90.119 -26.3096
84.736607 90.080 -26.4214
85.350643 90.040 -26.5280
85.969129 90.000 -26.6276
86.592097 89.960 -26.7212
87.219579 89.920 -26.8110
87.851608 89.881 -26.8993
88.488217 89.842 -26.9882
89.129439 89.803 -27.0792
89.775308 89.764 -27.1724
90.425856 89.724 -27.2665
91.081119 89.684 -27.3597
91.741131 89.643 -27.4484
92.405925 89.601 -27.5292
93.075536 89.559 -27.6006
93.750000 89.518 -27.6648
94.429351 89.478 -27.7252
95.113625 89.438 -27.7845
95.802858 89.398 -27.8447
96.497085 89.358 -27.9065
97.196342 89.317 -27.9673
97.900667 89.274 -28.0226
98.610096 89.230 -28.0696
99.324665 89.187 -28.1082
100.044413 89.143 -28.1400
100.769376 89.099 -28.1685
101.499592 89.056 -28.1976
102.235100 89.013 -28.2303
102.975938 88.969 -28.2646
103.722144 88.925 -28.2961
104.473757 88.880 -28.3216
105.230817 88.836 -28.3378
105.993363 88.792 -28.3430
106.761435 88.751 -28.3400
107.535072 88.711 -28.3347
108.314315 88.672 -28.3320
109.099206 88.635 -28.3342
109.889783 88.598 -28.3437
110.686090 88.560 -28.3601
111.488167 88.522 -28.3807
112.296056 88.482 -28.4026
113.109800 88.441 -28.4244
113.929440 88.398 -28.4443
114.755020 88.356 -28.4594
115.586582 88.313 -28.4675
116.424170 88.271 -28.4683
117.267827 88.229 -28.4622
118.117598 88.189 -28.4498
118.973527 88.149 -28.4321
119.835658 88.110 -28.4116
120.704037 88.072 -28.3917
121.578708 88.033 -28.3751
122.459718 87.993 -28.3611
123.347111 87.952 -28.3474
124.240935 87.912 -28.3336
125.141236 87.872 -28.3207
126.048061 87.834 -28.3077
126.961458 87.797 -28.2889
127.881473 87.762 -28.2549
128.808154 87.727 -28.1981
129.741551 87.695 -28.1168
130.681712 87.665 -28.0116
131.628686 87.635 -27.8803
132.582521 87.607 -27.7179
133.543269 87.580 -27.5238
134.510979 87.553 -27.3047
135.485701 87.526 -27.0680
136.467486 87.494 -26.8151
137.456386 87.455 -26.5426
138.452451 87.407 -26.2544
139.455735 87.347 -25.9711
140.466288 87.277 -25.7230
141.484165 87.196 -25.5346
142.509418 87.107 -25.4180
143.542100 87.017 -25.3761
144.582265 86.933 -25.3994
145.629968 86.860 -25.4583
146.685262 86.804 -25.5073
147.748204 86.765 -25.5066
148.818849 86.743 -25.4435
149.897251 86.729 -25.3334
150.983469 86.714 -25.1985
152.077557 86.688 -25.0480
153.179574 86.649 -24.8755
154.289576 86.601 -24.6749
155.407622 86.552 -24.4568
156.533770 86.510 -24.2484
157.668078 86.478 -24.0753
158.810606 86.452 -23.9390
159.961413 86.426 -23.8114
161.120559 86.396 -23.6520
162.288105 86.364 -23.4335
163.464112 86.334 -23.1617
164.648640 86.309 -22.8758
165.841752 86.294 -22.6274
167.043510 86.285 -22.4517
168.253976 86.275 -22.3485
169.473213 86.260 -22.2839
170.701286 86.237 -22.2091
171.938258 86.208 -22.0895
173.184194 86.180 -21.9278
174.439158 86.160 -21.7668
175.703216 86.149 -21.6692
176.976434 86.147 -21.6846
178.258878 86.147 -21.8276
179.550615 86.145 -22.0775
180.851713 86.138 -22.3927
182.162239 86.126 -22.7249
183.482262 86.115 -23.0255
184.811850 86.107 -23.2465
186.151073 86.105 -23.3418
187.500000 86.108 -23.2726
188.858702 86.111 -23.0157
190.227250 86.108 -22.5745
191.605715 86.093 -21.9871
192.994169 86.062 -21.3260
194.392685 86.015 -20.6782
195.801334 85.956 -20.1130
197.220191 85.891 -19.6629
198.649330 85.830 -19.3290
200.088825 85.780 -19.0941
201.538751 85.742 -18.9269
202.999184 85.712 -18.7870
204.470200 85.688 -18.6401
205.951875 85.668 -18.4733
207.444287 85.649 -18.2919
208.947514 85.631 -18.0995
210.461634 85.613 -17.8904
211.986726 85.595 -17.6608
213.522869 85.576 -17.4182
215.070144 85.554 -17.1776
216.628631 85.531 -16.9545
218.198411 85.507 -16.7593
219.779567 85.485 -16.5920
221.372180 85.466 -16.4412
222.976334 85.451 -16.2896
224.592112 85.438 -16.1207
226.219600 85.426 -15.9263
227.858880 85.412 -15.7117
229.510039 85.396 -15.4927
231.173164 85.378 -15.2874
232.848340 85.361 -15.1042
234.535655 85.345 -14.9384
236.235197 85.333 -14.7744
237.947054 85.323 -14.5980
239.671317 85.313 -14.4058
241.408074 85.303 -14.2051
243.157416 85.291 -14.0072
244.919435 85.279 -13.8195
246.694223 85.267 -13.6422
248.481871 85.255 -13.4716
250.282473 85.244 -13.3036
252.096123 85.233 -13.1360
253.922915 85.222 -12.9686
255.762945 85.210 -12.8025
257.616309 85.198 -12.6395
259.483103 85.185 -12.4817
261.363424 85.171 -12.3287
263.257372 85.158 -12.1785
265.165043 85.146 -12.0280
267.086538 85.134 -11.8764
269.021957 85.122 -11.7252
270.971401 85.110 -11.5753
272.934972 85.099 -11.4250
274.912771 85.089 -11.2700
276.904902 85.079 -11.1073
278.911469 85.069 -10.9369
280.932577 85.060 -10.7624
282.968330 85.051 -10.5884
285.018835 85.041 -10.4174
287.084199 85.032 -10.2490
289.164530 85.023 -10.0812
291.259935 85.014 -9.9122
293.370525 85.005 -9.7413
295.496408 84.996 -9.5692
297.637697 84.987 -9.3979
299.794503 84.978 -9.2285
301.966937 84.969 -9.0608
304.155114 84.960 -8.8939
306.359147 84.951 -8.7269
308.579152 84.943 -8.5596
310.815244 84.934 -8.3923
313.067539 84.926 -8.2256
315.336156 84.918 -8.0593
317.621211 84.910 -7.8938
319.922826 84.902 -7.7288
322.241118 84.894 -7.5641
324.576210 84.886 -7.4003
326.928223 84.878 -7.2375
329.297280 84.870 -7.0753
331.683504 84.863 -6.9135
334.087019 84.856 -6.7512
336.507952 84.849 -6.5874
338.946427 84.842 -6.4214
341.402572 84.835 -6.2546
343.876516 84.829 -6.0882
346.368387 84.823 -5.9212
348.878315 84.816 -5.7516
351.406431 84.810 -5.5798
353.952867 84.804 -5.4077
356.517756 84.797 -5.2359
359.101230 84.791 -5.0623
361.703426 84.785 -4.8850
364.324478 84.780 -4.7058
366.964523 84.776 -4.5291
369.623699 84.773 -4.3585
372.302145 84.770 -4.1940
375.000000 84.766 -4.0298
377.717405 84.762 -3.8561
380.454501 84.758 -3.6656
383.211431 84.756 -3.4576
385.988339 84.756 -3.2368
388.785369 84.760 -3.0093
391.602668 84.767 -2.7807
394.440383 84.776 -2.5573
397.298660 84.788 -2.3463
400.177650 84.802 -2.1563
403.077502 84.815 -1.9935
405.998368 84.827 -1.8543
408.940400 84.833 -1.7211
411.903750 84.831 -1.5637
414.888575 84.818 -1.3514
417.895028 84.792 -1.0831
420.923268 84.756 -0.8120
423.973452 84.716 -0.6210
427.045738 84.680 -0.5558
430.140287 84.655 -0.5916
433.257261 84.642 -0.6645
436.396822 84.639 -0.7186
439.559133 84.640 -0.7264
442.744360 84.642 -0.6871
445.952668 84.642 -0.6107
449.184225 84.639 -0.5066
452.439199 84.634 -0.3835
455.717760 84.627 -0.2488
459.020079 84.618 -0.1054
462.346327 84.608 0.0466
465.696680 84.596 0.2064
469.071310 84.584 0.3715
472.470394 84.571 0.5384
475.894109 84.557 0.7053
479.342634 84.541 0.8761
482.816148 84.522 1.0605
486.314833 84.501 1.2712
489.838871 84.480 1.5200
493.388445 84.461 1.8127
496.963741 84.447 2.1426
500.564945 84.442 2.4875
504.192245 84.446 2.8148
507.845830 84.457 3.0952
511.525890 84.471 3.3184
515.232618 84.486 3.4949
518.966206 84.497 3.6439
522.726849 84.505 3.7812
526.514743 84.509 3.9169
530.330086 84.510 4.0568
534.173076 84.510 4.2052
538.043915 84.508 4.3643
541.942803 84.506 4.5326
545.869944 84.502 4.7065
549.825542 84.498 4.8836
553.809805 84.493 5.0646
557.822939 84.488 5.2506
561.865154 84.482 5.4410
565.936660 84.477 5.6354
570.037671 84.472 5.8327
574.168399 84.467 6.0323
578.329060 84.463 6.2335
582.519870 84.460 6.4357
586.741049 84.456 6.6382
590.992817 84.453 6.8412
595.275394 84.450 7.0453
599.589005 84.448 7.2509
603.933874 84.445 7.4584
608.310228 84.443 7.6680
612.718295 84.441 7.8799
617.158304 84.439 8.0938
621.630488 84.437 8.3098
626.135079 84.435 8.5282
630.672311 84.433 8.7495
635.242423 84.431 8.9738
639.845651 84.429 9.2010
644.482237 84.426 9.4308
649.152421 84.424 9.6626
653.856447 84.422 9.8964
658.594560 84.420 10.1321
663.367008 84.419 10.3703
668.174039 84.417 10.6112
673.015903 84.416 10.8551
677.892854 84.415 11.1019
682.805145 84.414 11.3519
687.753032 84.414 11.6052
692.736774 84.414 11.8616
697.756631 84.414 12.1211
702.812863 84.414 12.3834
707.905735 84.415 12.6480
713.035511 84.417 12.9150
718.202461 84.418 13.1844
723.406852 84.420 13.4565
728.648956 84.423 13.7316
733.929047 84.426 14.0097
739.247399 84.429 14.2909
744.604290 84.433 14.5747
750.000000 84.437 14.8611
755.434809 84.441 15.1500
760.909001 84.446 15.4417
766.422861 84.452 15.7367
771.976677 84.458 16.0354
777.570739 84.464 16.3378
783.205337 84.471 16.6436
788.880766 84.479 16.9524
794.597321 84.488 17.2642
800.355301 84.497 17.5790
806.155005 84.507 17.8974
811.996736 84.518 18.2196
817.880799 84.530 18.5452
823.807501 84.542 18.8735
829.777150 84.556 19.2039
835.790057 84.571 19.5361
841.846536 84.588 19.8710
847.946903 84.605 20.2087
854.091476 84.624 20.5492
860.280575 84.644 20.8913
866.514523 84.666 21.2338
872.793644 84.689 21.5754
879.118267 84.714 21.9153
885.488720 84.740 22.2532
891.905336 84.768 22.5895
898.368450 84.798 22.9250
904.878398 84.828 23.2604
911.435520 84.860 23.5953
918.040157 84.893 23.9290
924.692655 84.927 24.2599
931.393359 84.961 24.5865
938.142619 84.996 24.9071
944.940787 85.033 25.2213
951.788218 85.071 25.5297
958.685268 85.110 25.8334
965.632296 85.150 26.1324
972.629666 85.192 26.4259
979.677741 85.235 26.7126
986.776890 85.278 26.9918
993.927482 85.323 27.2626
1001.129891 85.368 27.5249
1008.384491 85.414 27.7784
1015.691660 85.461 28.0232
1023.051781 85.509 28.2591
1030.465236 85.557 28.4859
1037.932411 85.606 28.7035
1045.453698 85.655 28.9118
1053.029486 85.704 29.1109
1060.660172 85.754 29.3007
1068.346153 85.804 29.4811
1076.087829 85.855 29.6519
1083.885605 85.905 29.8129
1091.739887 85.956 29.9644
1099.651084 86.007 30.1067
1107.619609 86.057 30.2401
1115.645878 86.108 30.3650
1123.730308 86.158 30.4815
1131.873321 86.208 30.5899
1140.075341 86.258 30.6906
1148.336797 86.306 30.7837
1156.658119 86.355 30.8698
1165.039741 86.402 30.9494
1173.482099 86.449 31.0235
1181.985634 86.495 31.0924
1190.550789 86.540 31.1566
1199.178011 86.585 31.2159
1207.867749 86.629 31.2705
1216.620457 86.672 31.3206
1225.436590 86.714 31.3669
1234.316609 86.756 31.4101
1243.260976 86.797 31.4513
1252.270157 86.838 31.4911
1261.344623 86.878 31.5297
1270.484846 86.917 31.5670
1279.691303 86.955 31.6031
1288.964474 86.993 31.6379
1298.304842 87.031 31.6720
1307.712894 87.068 31.7061
1317.189120 87.105 31.7408
1326.734016 87.141 31.7769
1336.348077 87.177 31.8145
1346.031806 87.212 31.8540
1355.785708 87.247 31.8953
1365.610290 87.281 31.9385
1375.506065 87.315 31.9838
1385.473549 87.349 32.0314
1395.513261 87.382 32.0815
1405.625726 87.415 32.1341
1415.811469 87.449 32.1890
1426.071023 87.482 32.2462
1436.404921 87.515 32.3055
1446.813703 87.549 32.3668
1457.297912 87.582 32.4300
1467.858093 87.616 32.4954
1478.494798 87.650 32.5629
1489.208581 87.685 32.6326
1500.000000 87.720 32.7042
1510.869618 87.755 32.7775
1521.818002 87.792 32.8522
1532.845723 87.829 32.9280
1543.953355 87.867 33.0048
1555.141477 87.906 33.0824
1566.410674 87.946 33.1608
1577.761531 87.987 33.2398
1589.194642 88.028 33.3191
1600.710601 88.071 33.3983
1612.310010 88.114 33.4770
1623.993473 88.159 33.5550
1635.761599 88.204 33.6319
1647.615002 88.250 33.7074
1659.554299 88.297 33.7811
1671.580114 88.345 33.8525
1683.693072 88.393 33.9215
1695.893807 88.443 33.9876
1708.182952 88.493 34.0505
1720.561150 88.544 34.1096
1733.029045 88.597 34.1645
1745.587288 88.650 34.2145
1758.236533 88.704 34.2596
1770.977440 88.759 34.2996
1783.810673 88.815 34.3344
1796.736900 88.872 34.3637
1809.756796 88.930 34.3871
1822.871040 88.989 34.4041
1836.080315 89.049 34.4141
1849.385310 89.110 34.4167
1862.786718 89.172 34.4118
1876.285239 89.235 34.3991
1889.881575 89.298 34.3784
1903.576436 89.363 34.3489
1917.370535 89.429 34.3100
1931.264593 89.496 34.2609
1945.259332 89.563 34.2008
1959.355483 89.632 34.1292
1973.553781 89.701 34.0455
1987.854965 89.771 33.9495
2002.259781 89.842 33.8409
2016.768981 89.913 33.7190
2031.383320 89.985 33.5835
2046.103561 90.057 33.4337
2060.930471 90.129 33.2693
2075.864823 90.202 33.0900
2090.907395 90.274 32.8957
2106.058972 90.346 32.6862
2121.320344 90.418 32.4612
2136.692305 90.490 32.2204
2152.175658 90.562 31.9636
2167.771210 90.633 31.6904
2183.479774 90.703 31.4006
2199.302169 90.773 31.0938
2215.239219 90.843 30.7699
2231.291755 90.911 30.4288
2247.460615 90.979 30.0704
2263.746641 91.045 29.6945
2280.150683 91.110 29.3009
2296.673595 91.174 28.8895
2313.316238 91.235 28.4607
2330.079481 91.294 28.0150
2346.964198 91.351 27.5532
2363.971268 91.405 27.0764
2381.101578 91.456 26.5851
2398.356022 91.505 26.0801
2415.735498 91.550 25.5626
2433.240913 91.591 25.0342
2450.873180 91.629 24.4973
2468.633217 91.663 23.9549
2486.521951 91.693 23.4102
2504.540314 91.718 22.8667
2522.689246 91.740 22.3284
2540.969692 91.758 21.7990
2559.382606 91.774 21.2820
2577.928947 91.787 20.7795
2596.609683 91.799 20.2917
2615.425787 91.811 19.8162
2634.378241 91.822 19.3479
2653.468031 91.835 18.8793
2672.696154 91.847 18.4015
2692.063613 91.859 17.9056
2711.571415 91.870 17.3844
2731.220579 91.878 16.8339
2751.012130 91.881 16.2546
2770.947098 91.878 15.6520
2791.026522 91.866 15.0355
2811.251451 91.845 14.4175
2831.622938 91.815 13.8101
2852.142045 91.777 13.2244
2872.809842 91.730 12.6694
2893.627406 91.677 12.1516
2914.595823 91.617 11.6748
2935.716186 91.553 11.2415
2956.989596 91.485 10.8522
2978.417161 91.414 10.5070
3000.000000 91.341 10.2050
3021.739237 91.266 9.9459
3043.636005 91.189 9.7287
3065.691446 91.113 9.5528
3087.906710 91.036 9.4173
3110.282955 90.959 9.3213
3132.821347 90.883 9.2638
3155.523062 90.809 9.2439
3178.389283 90.735 9.2603
3201.421202 90.663 9.3116
3224.620020 90.594 9.3968
3247.986946 90.527 9.5143
3271.523198 90.462 9.6631
3295.230004 90.401 9.8418
3319.108599 90.344 10.0486
3343.160228 90.291 10.2815
3367.386145 90.243 10.5377
3391.787613 90.199 10.8143
3416.365904 90.159 11.1078
3441.122300 90.125 11.4147
3466.058091 90.095 11.7316
3491.174576 90.070 12.0552
3516.473066 90.049 12.3826
3541.954880 90.033 12.7115
3567.621345 90.020 13.0404
3593.473800 90.011 13.3684
3619.513592 90.006 13.6946
3645.742080 90.004 14.0186
3672.160630 90.006 14.3402
3698.770620 90.011 14.6593
3725.573436 90.020 14.9759
3752.570477 90.033 15.2898
3779.763150 90.049 15.6000
3807.152872 90.069 15.9045
3834.741071 90.094 16.2001
3862.529185 90.124 16.4821
3890.518664 90.158 16.7447
3918.710966 90.196 16.9819
3947.107561 90.238 17.1880
3975.709929 90.283 17.3583
4004.519563 90.329 17.4899
4033.537962 90.376 17.5822
4062.766641 90.421 17.6375
4092.207123 90.465 17.6616
4121.860942 90.507 17.6626
4151.729646 90.546 17.6497
4181.814790 90.583 17.6302
4212.117944 90.620 17.6089
4242.640687 90.658 17.5864
4273.384610 90.698 17.5602
4304.351317 90.741 17.5236
4335.542421 90.789 17.4666
4366.959549 90.840 17.3770
4398.604338 90.894 17.2422
4430.478438 90.951 17.0512
4462.583511 91.009 16.7965
4494.921231 91.065 16.4734
4527.493283 91.118 16.0797
4560.301365 91.167 15.6142
4593.347189 91.210 15.0776
4626.632476 91.243 14.4733
4660.158962 91.266 13.8077
4693.928395 91.275 13.0925
4727.942535 91.269 12.3441
4762.203156 91.247 11.5842
4796.712043 91.206 10.8394
4831.470996 91.149 10.1390
4866.481826 91.075 9.5137
4901.746360 90.988 8.9919
4937.266434 90.893 8.5977
4973.043902 90.793 8.3481
5009.080628 90.696 8.2507
5045.378492 90.607 8.3021
5081.939384 90.534 8.4870
5118.765212 90.482 8.7787
5155.857894 90.454 9.1415
5193.219366 90.455 9.5337
5230.851574 90.484 9.9116
5268.756481 90.541 10.2332
5306.936062 90.624 10.4615
5345.392309 90.729 10.5660
5384.127225 90.853 10.5238
5423.142830 90.992 10.3185
5462.441159 91.141 9.9402
5502.024259 91.296 9.3834
5541.894195 91.454 8.6470
5582.053045 91.611 7.7327
5622.502902 91.764 6.6459
5663.245876 91.911 5.3942
5704.284090 92.047 3.9872
5745.619684 92.172 2.4367
5787.254813 92.283 0.7562
5829.191647 92.378 -1.0388
5871.432373 92.456 -2.9312
5913.979192 92.516 -4.9026
5956.834323 92.559 -6.9349
6000.000000 92.584 -9.0108
6043.478473 92.592 -11.1144
6087.272010 92.583 -13.2318
6131.382892 92.560 -15.3511
6175.813420 92.523 -17.4614
6220.565910 92.472 -19.5530
6265.642695 92.410 -21.6164
6311.046124 92.338 -23.6425
6356.778566 92.256 -25.6228
6402.842404 92.167 -27.5494
6449.240040 92.072 -29.4155
6495.973891 91.972 -31.2157
6543.046396 91.871 -32.9464
6590.460007 91.769 -34.6058
6638.217197 91.670 -36.1945
6686.320456 91.574 -37.7150
6734.772290 91.485 -39.1718
6783.575226 91.403 -40.5713
6832.731809 91.332 -41.9224
6882.244600 91.273 -43.2369
6932.116181 91.226 -44.5300
6982.349153 91.194 -45.8195
7032.946133 91.176 -47.1266
7083.909760 91.171 -48.4738
7135.242690 91.178 -49.8834
7186.947600 91.193 -51.3745
7239.027185 91.214 -52.9614
7291.484160 91.236 -54.6525
7344.321260 91.254 -56.4504
7397.541239 91.264 -58.3528
7451.146872 91.261 -60.3517
7505.140954 91.242 -62.4333
7559.526299 91.203 -64.5786
7614.305743 91.140 -66.7638
7669.482141 91.053 -68.9620
7725.058371 90.941 -71.1459
7781.037328 90.805 -73.2912
7837.421932 90.649 -75.3812
7894.215122 90.474 -77.4098
7951.419859 90.284 -79.3804
8009.039125 90.078 -81.3013
8067.075924 89.854 -83.1800
8125.533282 89.611 -85.0156
8184.414245 89.343 -86.7944
8243.721885 89.048 -88.4900
8303.459292 88.723 -90.0654
8363.629581 88.369 -91.4792
8424.235888 87.988 -92.6895
8485.281374 87.582 -93.6588
8546.769221 87.158 -94.3578
8608.702634 86.722 -94.7667
8671.084842 86.279 -94.8753
8733.919097 85.837 -94.6823
8797.208675 85.401 -94.1930
8860.956876 84.977 -93.4181
8925.167022 84.570 -92.3726
8989.842461 84.185 -91.0750
9054.986566 83.826 -89.5477
9120.602731 83.495 -87.8156
9186.694378 83.195 -85.9051
9253.264952 82.927 -83.8416
9320.317925 82.691 -81.6473
9387.856790 82.488 -79.3415
9455.885071 82.317 -76.9392
9524.406312 82.177 -74.4530
9593.424086 82.069 -71.8939
9662.941992 81.993 -69.2717
9732.963653 81.947 -66.5957
9803.492719 81.933 -63.8751
9874.532869 81.949 -61.1190
9946.087805 81.997 -58.3370
10018.161257 82.076 -55.5400
10090.756983 82.186 -52.7398
10163.878768 82.327 -49.9506
10237.530423 82.499 -47.1887
10311.715789 82.702 -44.4743
10386.438732 82.933 -41.8304
10461.703149 83.192 -39.2832
10537.512962 83.476 -36.8604
10613.872125 83.780 -34.5879
10690.784618 84.100 -32.4875
10768.254450 84.429 -30.5743
10846.285661 84.763 -28.8560
10924.882318 85.095 -27.3340
11004.048518 85.420 -26.0034
11083.788390 85.730 -24.8527
11164.106090 86.022 -23.8627
11245.005805 86.290 -23.0057
11326.491752 86.530 -22.2466
11408.568180 86.739 -21.5430
11491.239368 86.917 -20.8483
11574.509626 87.064 -20.1145
11658.383294 87.183 -19.2965
11742.864745 87.278 -18.3558
11827.958384 87.356 -17.2654
11913.668646 87.423 -16.0142
12000.000000 87.487 -14.6107
12086.956947 87.552 -13.0835
12174.544019 87.624 -11.4789
12262.765784 87.703 -9.8531
12351.626840 87.786 -8.2625
12441.131819 87.868 -6.7507
12531.285389 87.941 -5.3402
12622.092249 87.997 -4.0261
12713.557132 88.028 -2.7769
12805.684808 88.031 -1.5403
12898.480079 88.002 -0.2524
12991.947783 87.946 1.1521
13086.092792 87.867 2.7297
13180.920015 87.774 4.5208
13276.434395 87.676 6.5434
13372.640911 87.587 8.7913
13469.544580 87.515 11.2326
13567.150452 87.472 13.8120
13665.463617 87.465 16.4526
13764.489200 87.502 19.0602
13864.232362 87.583 21.5269
13964.698305 87.709 23.7366
14065.892266 87.873 25.5728
14167.819519 88.065 26.9273
14270.485380 88.269 27.7118
14373.895200 88.464 27.8699
14478.054370 88.628 27.3884
14582.968320 88.734 26.3053
14688.642520 88.759 24.7123
14795.082478 88.682 22.7516
14902.293745 88.489 20.6055
15010.281908 88.174 18.4802
15119.052599 87.737 16.5859
15228.611486 87.188 15.1179
15338.964283 86.544 14.2407
15450.116741 85.827 14.0790
15562.074656 85.058 14.7133
15674.843864 84.264 16.1805
15788.430244 83.468 18.4774
15902.839718 82.692 21.5666
16018.078250 81.954 25.3843
16134.151848 81.271 29.8489
16251.066563 80.653 34.8695
16368.828491 80.109 40.3523
16487.443769 79.643 46.2052
16606.918584 79.256 52.3394
16727.259161 78.948 58.6692
16848.471777 78.718 65.1114
16970.562748 78.562 71.5853
17093.538442 78.474 78.0127
17217.405268 78.449 84.3180
17342.169684 78.478 90.4300
17467.838194 78.554 96.2834
17594.417350 78.666 101.8203
17721.913751 78.803 106.9883
17850.334044 78.955 111.7379
17979.684923 79.108 116.0192
18109.973131 79.249 119.7818
18241.205462 79.363 122.9800
18373.388756 79.430 125.5835
18506.529905 79.429 127.5921
18640.635849 79.335 129.0519
18775.713581 79.124 130.0681
18911.770141 78.771 130.8094
19048.812624 78.261 131.4995
19186.848172 77.586 132.3933
19325.883983 76.752 133.7419
19465.927305 75.780 135.7441
19606.985439 74.719 138.4706
19749.065738 73.661 141.7336
19892.175609 72.759 144.9153
20036.322514 72.223 146.9713
