* Measurement data measured by REW V5.31.3
* Source: Headset (CX31993 HIFI AUDIO), MICROPHONE (Master Volume), R, volume: 0.400
* Format: 256k Log Swept Sine, 1 sweep at -11.9 dBFS with no timing reference
* Dated: 07 7, 25 10:20:43 AM
* REW Settings:
*  C-weighting compensation: Off
*  Target level: 75.0 dB
* Note: ; 
* Measurement: Truthear PURE L
* Smoothing: 1/12 octave
* Frequency Step: 96 ppo
* Start Frequency: 0.36621094 Hz
*
* Freq(Hz) SPL(dB) Phase(degrees)
0.366211 50.800 -39.8482
0.368865 50.797 -39.9027
0.371538 50.794 -39.9844
0.374230 50.789 -40.0868
0.376942 50.785 -40.2046
0.379673 50.779 -40.3337
0.382424 50.774 -40.4716
0.385196 50.768 -40.6167
0.387987 50.763 -40.7680
0.390798 50.757 -40.9251
0.393630 50.751 -41.0877
0.396483 50.745 -41.2557
0.399356 50.740 -41.4292
0.402250 50.734 -41.6080
0.405165 50.728 -41.7923
0.408101 50.722 -41.9821
0.411058 50.716 -42.1775
0.414037 50.709 -42.3785
0.417037 50.703 -42.5851
0.420059 50.697 -42.7974
0.423103 50.691 -43.0155
0.426169 50.685 -43.2395
0.429257 50.678 -43.4693
0.432368 50.672 -43.7050
0.435501 50.665 -43.9467
0.438656 50.659 -44.1944
0.441835 50.652 -44.4482
0.445037 50.646 -44.7081
0.448262 50.639 -44.9742
0.451510 50.633 -45.2465
0.454782 50.626 -45.5250
0.458077 50.619 -45.8099
0.461397 50.612 -46.1010
0.464740 50.606 -46.3985
0.468108 50.599 -46.7025
0.471500 50.592 -47.0129
0.474917 50.585 -47.3297
0.478358 50.578 -47.6531
0.481825 50.570 -47.9829
0.485316 50.563 -48.3194
0.488833 50.556 -48.6624
0.492375 50.549 -49.0121
0.495943 50.542 -49.3683
0.499537 50.534 -49.7312
0.503157 50.527 -50.1008
0.506803 50.519 -50.4770
0.510475 50.512 -50.8600
0.514175 50.504 -51.2496
0.517900 50.497 -51.6459
0.521653 50.489 -52.0489
0.525434 50.481 -52.4586
0.529241 50.473 -52.8750
0.533076 50.465 -53.2981
0.536939 50.458 -53.7279
0.540830 50.450 -54.1643
0.544749 50.442 -54.6074
0.548696 50.433 -55.0572
0.552673 50.425 -55.5136
0.556677 50.417 -55.9766
0.560711 50.409 -56.4461
0.564774 50.400 -56.9223
0.568867 50.392 -57.4049
0.572989 50.384 -57.8941
0.577141 50.375 -58.3898
0.581324 50.367 -58.8919
0.585536 50.358 -59.4003
0.589779 50.349 -59.9152
0.594053 50.340 -60.4364
0.598358 50.332 -60.9639
0.602694 50.323 -61.4977
0.607061 50.314 -62.0377
0.611460 50.305 -62.5839
0.615891 50.296 -63.1362
0.620354 50.287 -63.6946
0.624849 50.277 -64.2592
0.629377 50.268 -64.8298
0.633938 50.259 -65.4064
0.638532 50.249 -65.9890
0.643159 50.240 -66.5775
0.647819 50.230 -67.1721
0.652514 50.221 -67.7725
0.657242 50.211 -68.3789
0.662005 50.201 -68.9912
0.666802 50.191 -69.6094
0.671634 50.181 -70.2336
0.676501 50.172 -70.8637
0.681403 50.161 -71.4998
0.686341 50.151 -72.1419
0.691314 50.141 -72.7902
0.696324 50.131 -73.4447
0.701370 50.121 -74.1055
0.706452 50.111 -74.7729
0.711571 50.101 -75.4472
0.716728 50.092 -76.1289
0.721921 50.084 -76.8188
0.727153 50.077 -77.5179
0.732422 50.071 -78.2274
0.737729 50.067 -78.9491
0.743075 50.065 -79.6842
0.748460 50.064 -80.4341
0.753883 50.065 -81.1995
0.759346 50.065 -81.9810
0.764849 50.066 -82.7789
0.770391 50.068 -83.5932
0.775974 50.069 -84.4240
0.781597 50.071 -85.2711
0.787261 50.073 -86.1344
0.792966 50.074 -87.0138
0.798712 50.077 -87.9089
0.804500 50.079 -88.8196
0.810329 50.082 -89.7456
0.816201 50.084 -90.6866
0.822116 50.088 -91.6423
0.828073 50.091 -92.6124
0.834074 50.095 -93.5964
0.840118 50.099 -94.5941
0.846206 50.104 -95.6050
0.852338 50.109 -96.6288
0.858514 50.115 -97.6650
0.864735 50.121 -98.7132
0.871001 50.128 -99.7730
0.877313 50.135 -100.8441
0.883670 50.144 -101.9258
0.890074 50.153 -103.0178
0.896524 50.162 -104.1197
0.903020 50.173 -105.2310
0.909564 50.184 -106.3514
0.916155 50.197 -107.4804
0.922794 50.210 -108.6176
0.929481 50.225 -109.7627
0.936216 50.240 -110.9153
0.943000 50.257 -112.0751
0.949834 50.275 -113.2419
0.956717 50.295 -114.4152
0.963649 50.316 -115.5949
0.970632 50.338 -116.7809
0.977666 50.362 -117.9728
0.984750 50.387 -119.1707
0.991886 50.415 -120.3744
0.999074 50.444 -121.5838
1.006314 50.475 -122.7990
1.013606 50.507 -124.0201
1.020951 50.542 -125.2471
1.028349 50.579 -126.4801
1.035801 50.619 -127.7194
1.043307 50.660 -128.9653
1.050867 50.705 -130.2179
1.058482 50.751 -131.4778
1.066152 50.801 -132.7452
1.073878 50.853 -134.0206
1.081660 50.908 -135.3046
1.089498 50.966 -136.5974
1.097393 51.028 -137.8995
1.105345 51.092 -139.2109
1.113355 51.161 -140.5315
1.121423 51.232 -141.8608
1.129549 51.307 -143.1980
1.137734 51.386 -144.5423
1.145979 51.468 -145.8928
1.154283 51.554 -147.2484
1.162647 51.643 -148.6081
1.171072 51.736 -149.9708
1.179558 51.832 -151.3356
1.188106 51.932 -152.7015
1.196715 52.034 -154.0674
1.205387 52.140 -155.4325
1.214122 52.249 -156.7958
1.222920 52.362 -158.1564
1.231782 52.477 -159.5136
1.240708 52.595 -160.8666
1.249699 52.716 -162.2146
1.258754 52.839 -163.5570
1.267876 52.966 -164.8932
1.277063 53.094 -166.2226
1.286318 53.225 -167.5447
1.295639 53.359 -168.8591
1.305027 53.495 -170.1654
1.314484 53.632 -171.4632
1.324009 53.772 -172.7523
1.333604 53.913 -174.0324
1.343268 54.056 -175.3035
1.353002 54.201 -176.5652
1.362806 54.347 -177.8177
1.372681 54.494 -179.0608
1.382628 54.642 179.7055
1.392647 54.790 178.4811
1.402739 54.940 177.2661
1.412904 55.090 176.0604
1.423142 55.240 174.8642
1.433455 55.391 173.6777
1.443843 55.542 172.5015
1.454305 55.694 171.3362
1.464844 55.846 170.1833
1.475459 56.000 169.0441
1.486150 56.156 167.9200
1.496920 56.314 166.8119
1.507767 56.473 165.7204
1.518693 56.636 164.6455
1.529698 56.800 163.5868
1.540783 56.967 162.5438
1.551948 57.136 161.5157
1.563194 57.308 160.5015
1.574521 57.481 159.5003
1.585931 57.657 158.5110
1.597423 57.835 157.5326
1.608999 58.014 156.5640
1.620658 58.195 155.6041
1.632402 58.378 154.6519
1.644232 58.562 153.7061
1.656146 58.748 152.7659
1.668147 58.934 151.8300
1.680235 59.122 150.8975
1.692411 59.311 149.9674
1.704675 59.500 149.0387
1.717028 59.690 148.1103
1.729470 59.881 147.1815
1.742003 60.072 146.2514
1.754626 60.262 145.3192
1.767341 60.453 144.3844
1.780147 60.644 143.4467
1.793047 60.834 142.5062
1.806040 61.024 141.5634
1.819128 61.213 140.6195
1.832310 61.402 139.6765
1.845587 61.592 138.7368
1.858961 61.781 137.8027
1.872432 61.970 136.8758
1.886001 62.160 135.9573
1.899667 62.350 135.0478
1.913433 62.541 134.1470
1.927299 62.732 133.2548
1.941265 62.923 132.3704
1.955332 63.115 131.4933
1.969501 63.307 130.6224
1.983773 63.499 129.7571
1.998148 63.692 128.8963
2.012627 63.885 128.0391
2.027212 64.079 127.1846
2.041902 64.272 126.3318
2.056698 64.466 125.4798
2.071602 64.660 124.6277
2.086614 64.855 123.7744
2.101734 65.049 122.9193
2.116964 65.244 122.0615
2.132304 65.439 121.2006
2.147756 65.634 120.3362
2.163320 65.829 119.4687
2.178996 66.025 118.5986
2.194786 66.220 117.7274
2.210690 66.415 116.8570
2.226710 66.610 115.9893
2.242845 66.805 115.1259
2.259098 67.000 114.2677
2.275468 67.195 113.4150
2.291957 67.390 112.5679
2.308566 67.585 111.7258
2.325295 67.780 110.8879
2.342145 67.975 110.0535
2.359117 68.169 109.2216
2.376212 68.364 108.3911
2.393431 68.558 107.5610
2.410775 68.753 106.7303
2.428244 68.947 105.8979
2.445840 69.142 105.0629
2.463564 69.336 104.2241
2.481416 69.531 103.3807
2.499397 69.725 102.5322
2.517509 69.920 101.6783
2.535752 70.114 100.8190
2.554127 70.308 99.9552
2.572635 70.503 99.0883
2.591277 70.697 98.2198
2.610055 70.890 97.3512
2.628968 71.084 96.4838
2.648019 71.277 95.6180
2.667208 71.470 94.7540
2.686535 71.662 93.8917
2.706003 71.855 93.0306
2.725612 72.047 92.1701
2.745363 72.238 91.3093
2.765257 72.429 90.4475
2.785295 72.620 89.5837
2.805478 72.811 88.7171
2.825808 73.002 87.8466
2.846285 73.192 86.9714
2.866910 73.382 86.0909
2.887685 73.571 85.2047
2.908611 73.761 84.3125
2.929688 73.949 83.4150
2.950917 74.138 82.5131
2.972301 74.326 81.6077
2.993839 74.513 80.7000
3.015534 74.700 79.7909
3.037386 74.886 78.8808
3.059396 75.072 77.9701
3.081565 75.257 77.0588
3.103896 75.442 76.1467
3.126388 75.625 75.2335
3.149043 75.809 74.3186
3.171862 75.992 73.4016
3.194847 76.174 72.4817
3.217998 76.355 71.5583
3.241317 76.536 70.6307
3.264805 76.717 69.6983
3.288463 76.896 68.7609
3.312293 77.075 67.8185
3.336295 77.253 66.8714
3.360471 77.431 65.9203
3.384822 77.607 64.9658
3.409350 77.783 64.0089
3.434056 77.958 63.0500
3.458940 78.131 62.0896
3.484005 78.304 61.1281
3.509252 78.476 60.1657
3.534681 78.648 59.2022
3.560295 78.818 58.2374
3.586094 78.987 57.2709
3.612081 79.156 56.3022
3.638255 79.324 55.3304
3.664620 79.490 54.3551
3.691175 79.656 53.3756
3.717923 79.820 52.3920
3.744864 79.984 51.4044
3.772001 80.146 50.4138
3.799335 80.307 49.4208
3.826866 80.467 48.4265
3.854597 80.626 47.4315
3.882529 80.784 46.4366
3.910664 80.940 45.4422
3.939002 81.096 44.4485
3.967546 81.250 43.4551
3.996296 81.403 42.4617
4.025255 81.556 41.4673
4.054423 81.706 40.4711
4.083804 81.856 39.4724
4.113396 82.004 38.4710
4.143204 82.151 37.4677
4.173227 82.297 36.4630
4.203468 82.441 35.4582
4.233928 82.584 34.4543
4.264609 82.726 33.4522
4.295512 82.867 32.4527
4.326639 83.006 31.4560
4.357992 83.144 30.4619
4.389572 83.281 29.4698
4.421380 83.417 28.4786
4.453419 83.552 27.4877
4.485691 83.685 26.4966
4.518196 83.816 25.5057
4.550936 83.947 24.5156
4.583914 84.076 23.5273
4.617131 84.203 22.5420
4.650589 84.330 21.5605
4.684289 84.456 20.5836
4.718233 84.580 19.6115
4.752424 84.704 18.6438
4.786862 84.826 17.6798
4.821549 84.947 16.7188
4.856488 85.067 15.7602
4.891680 85.185 14.8041
4.927127 85.303 13.8510
4.962831 85.420 12.9015
4.998794 85.535 11.9565
5.035017 85.650 11.0167
5.071503 85.764 10.0824
5.108253 85.877 9.1538
5.145270 85.989 8.2305
5.182555 86.100 7.3120
5.220110 86.211 6.3976
5.257937 86.320 5.4873
5.296038 86.429 4.5809
5.334415 86.538 3.6788
5.373071 86.645 2.7814
5.412006 86.752 1.8887
5.451224 86.859 1.0011
5.490725 86.965 0.1185
5.530514 87.070 -0.7595
5.570590 87.176 -1.6332
5.610957 87.280 -2.5029
5.651616 87.384 -3.3691
5.692570 87.488 -4.2319
5.733821 87.592 -5.0915
5.775370 87.695 -5.9479
5.817221 87.798 -6.8011
5.859375 87.900 -7.6517
5.901834 88.002 -8.4996
5.944602 88.104 -9.3452
5.987679 88.206 -10.1888
6.031068 88.307 -11.0308
6.074771 88.408 -11.8712
6.118792 88.509 -12.7104
6.163131 88.610 -13.5488
6.207792 88.710 -14.3866
6.252776 88.809 -15.2241
6.298086 88.908 -16.0616
6.343725 89.007 -16.8990
6.389694 89.105 -17.7367
6.435996 89.203 -18.5745
6.482634 89.300 -19.4125
6.529610 89.397 -20.2507
6.576926 89.493 -21.0896
6.624585 89.588 -21.9293
6.672590 89.682 -22.7699
6.720942 89.776 -23.6113
6.769645 89.868 -24.4532
6.818700 89.960 -25.2954
6.868111 90.050 -26.1373
6.917881 90.140 -26.9788
6.968010 90.229 -27.8198
7.018504 90.316 -28.6606
7.069362 90.402 -29.5010
7.120590 90.487 -30.3405
7.172189 90.571 -31.1783
7.224161 90.654 -32.0140
7.276511 90.735 -32.8469
7.329239 90.816 -33.6766
7.382350 90.894 -34.5031
7.435845 90.972 -35.3262
7.489729 91.049 -36.1455
7.544002 91.124 -36.9604
7.598669 91.198 -37.7701
7.653732 91.272 -38.5742
7.709194 91.344 -39.3723
7.765058 91.415 -40.1641
7.821327 91.486 -40.9497
7.878004 91.555 -41.7290
7.935091 91.624 -42.5016
7.992592 91.693 -43.2674
8.050510 91.761 -44.0261
8.108847 91.828 -44.7776
8.167607 91.896 -45.5223
8.226793 91.963 -46.2606
8.286408 92.030 -46.9926
8.346454 92.097 -47.7189
8.406936 92.164 -48.4399
8.467856 92.231 -49.1558
8.529218 92.298 -49.8672
8.591024 92.366 -50.5748
8.653278 92.434 -51.2794
8.715983 92.503 -51.9819
8.779143 92.572 -52.6832
8.842760 92.641 -53.3838
8.906839 92.711 -54.0844
8.971381 92.781 -54.7858
9.036392 92.851 -55.4887
9.101873 92.921 -56.1940
9.167829 92.991 -56.9024
9.234263 93.062 -57.6144
9.301178 93.132 -58.3302
9.368578 93.202 -59.0502
9.436467 93.271 -59.7747
9.504847 93.340 -60.5037
9.573723 93.409 -61.2373
9.643099 93.476 -61.9755
9.712976 93.543 -62.7178
9.783361 93.608 -63.4637
9.854255 93.672 -64.2128
9.925663 93.735 -64.9642
9.997588 93.797 -65.7177
10.070035 93.857 -66.4722
10.143007 93.915 -67.2267
10.216507 93.972 -67.9803
10.290540 94.028 -68.7319
10.365109 94.082 -69.4807
10.440219 94.134 -70.2258
10.515873 94.185 -70.9663
10.592076 94.235 -71.7012
10.668830 94.284 -72.4296
10.746141 94.331 -73.1510
10.824012 94.378 -73.8650
10.902447 94.423 -74.5710
10.981451 94.468 -75.2690
11.061027 94.513 -75.9588
11.141180 94.558 -76.6405
11.221913 94.602 -77.3145
11.303232 94.646 -77.9813
11.385140 94.691 -78.6414
11.467641 94.736 -79.2957
11.550741 94.781 -79.9448
11.634442 94.827 -80.5899
11.718750 94.873 -81.2321
11.803669 94.920 -81.8722
11.889203 94.967 -82.5113
11.975357 95.015 -83.1503
12.062136 95.062 -83.7902
12.149543 95.110 -84.4316
12.237583 95.159 -85.0751
12.326262 95.207 -85.7212
12.415583 95.254 -86.3701
12.505552 95.302 -87.0217
12.596172 95.349 -87.6760
12.687449 95.395 -88.3326
12.779387 95.440 -88.9910
12.871992 95.484 -89.6505
12.965268 95.528 -90.3104
13.059220 95.570 -90.9698
13.153852 95.612 -91.6278
13.249170 95.652 -92.2836
13.345179 95.691 -92.9363
13.441884 95.730 -93.5853
13.539289 95.767 -94.2299
13.637401 95.804 -94.8696
13.736223 95.841 -95.5043
13.835761 95.877 -96.1339
13.936021 95.912 -96.7584
14.037007 95.948 -97.3783
14.138725 95.983 -97.9940
14.241180 96.018 -98.6063
14.344377 96.054 -99.2158
14.448323 96.089 -99.8234
14.553021 96.124 -100.4297
14.658478 96.160 -101.0356
14.764700 96.195 -101.6417
14.871691 96.230 -102.2485
14.979457 96.264 -102.8563
15.088005 96.298 -103.4651
15.197339 96.332 -104.0747
15.307465 96.364 -104.6848
15.418389 96.396 -105.2948
15.530117 96.426 -105.9039
15.642655 96.456 -106.5112
15.756008 96.484 -107.1157
15.870182 96.512 -107.7167
15.985184 96.539 -108.3131
16.101019 96.565 -108.9044
16.217694 96.590 -109.4900
16.335214 96.615 -110.0698
16.453586 96.639 -110.6438
16.572815 96.663 -111.2124
16.692909 96.688 -111.7762
16.813872 96.712 -112.3363
16.935713 96.737 -112.8936
17.058436 96.762 -113.4493
17.182048 96.788 -114.0046
17.306556 96.813 -114.5607
17.431967 96.838 -115.1184
17.558286 96.863 -115.6782
17.685521 96.888 -116.2406
17.813677 96.912 -116.8053
17.942762 96.935 -117.3719
18.072783 96.957 -117.9397
18.203746 96.979 -118.5074
18.335658 96.999 -119.0739
18.468526 97.017 -119.6375
18.602356 97.035 -120.1971
18.737156 97.052 -120.7515
18.872934 97.068 -121.2996
19.009695 97.083 -121.8409
19.147447 97.098 -122.3755
19.286197 97.113 -122.9034
19.425953 97.128 -123.4254
19.566721 97.144 -123.9427
19.708510 97.160 -124.4565
19.851326 97.176 -124.9683
19.995177 97.192 -125.4794
20.140070 97.209 -125.9912
20.286013 97.226 -126.5045
20.433014 97.243 -127.0200
20.581080 97.259 -127.5376
20.730219 97.275 -128.0571
20.880439 97.290 -128.5776
21.031747 97.304 -129.0983
21.184152 97.317 -129.6177
21.337661 97.330 -130.1348
21.492282 97.341 -130.6484
21.648024 97.352 -131.1578
21.804895 97.362 -131.6624
21.962902 97.371 -132.1622
22.122054 97.381 -132.6573
22.282360 97.390 -133.1485
22.443827 97.399 -133.6363
22.606464 97.408 -134.1216
22.770280 97.416 -134.6049
22.935283 97.424 -135.0865
23.101481 97.432 -135.5665
23.268884 97.439 -136.0445
23.437500 97.446 -136.5199
23.607338 97.452 -136.9919
23.778406 97.457 -137.4597
23.950714 97.462 -137.9227
24.124271 97.467 -138.3806
24.299086 97.472 -138.8339
24.475167 97.476 -139.2830
24.652524 97.481 -139.7292
24.831166 97.486 -140.1741
25.011103 97.491 -140.6188
25.192344 97.496 -141.0645
25.374898 97.500 -141.5117
25.558775 97.504 -141.9603
25.743984 97.507 -142.4092
25.930536 97.509 -142.8571
26.118439 97.510 -143.3018
26.307704 97.510 -143.7415
26.498341 97.510 -144.1747
26.690359 97.508 -144.6004
26.883768 97.507 -145.0188
27.078579 97.506 -145.4309
27.274801 97.506 -145.8385
27.472446 97.506 -146.2439
27.671522 97.506 -146.6494
27.872042 97.507 -147.0565
28.074014 97.508 -147.4661
28.277450 97.509 -147.8779
28.482360 97.508 -148.2910
28.688755 97.507 -148.7035
28.896645 97.505 -149.1133
29.106042 97.503 -149.5190
29.316957 97.500 -149.9197
29.529400 97.497 -150.3158
29.743382 97.494 -150.7084
29.958915 97.492 -151.0997
30.176009 97.490 -151.4919
30.394677 97.489 -151.8871
30.614929 97.487 -152.2865
30.836778 97.484 -152.6901
31.060234 97.481 -153.0966
31.285309 97.476 -153.5037
31.512015 97.469 -153.9083
31.740364 97.462 -154.3073
31.970368 97.453 -154.6982
32.202039 97.443 -155.0795
32.435388 97.434 -155.4514
32.670428 97.425 -155.8155
32.907171 97.418 -156.1750
33.145630 97.411 -156.5336
33.385817 97.404 -156.8950
33.627745 97.398 -157.2615
33.871425 97.392 -157.6335
34.116871 97.384 -158.0094
34.364096 97.375 -158.3853
34.613113 97.364 -158.7562
34.863934 97.352 -159.1172
35.116572 97.339 -159.4653
35.371041 97.326 -159.7999
35.627354 97.314 -160.1234
35.885525 97.304 -160.4406
36.145566 97.295 -160.7571
36.407492 97.288 -161.0778
36.671316 97.280 -161.4045
36.937051 97.273 -161.7366
37.204712 97.264 -162.0703
37.474313 97.253 -162.4011
37.745867 97.242 -162.7250
38.019389 97.231 -163.0405
38.294893 97.220 -163.3485
38.572394 97.211 -163.6520
38.851905 97.202 -163.9545
39.133442 97.193 -164.2585
39.417019 97.185 -164.5652
39.702651 97.176 -164.8740
39.990353 97.168 -165.1842
40.280140 97.159 -165.4958
40.572026 97.150 -165.8098
40.866028 97.140 -166.1273
41.162160 97.130 -166.4484
41.460438 97.118 -166.7710
41.760877 97.105 -167.0903
42.063494 97.089 -167.4006
42.368303 97.073 -167.6973
42.675322 97.056 -167.9791
42.984565 97.040 -168.2489
43.296048 97.026 -168.5125
43.609789 97.013 -168.7756
43.925804 97.000 -169.0411
44.244108 96.986 -169.3079
44.564719 96.971 -169.5712
44.887654 96.955 -169.8262
45.212928 96.939 -170.0708
45.540560 96.924 -170.3066
45.870565 96.910 -170.5390
46.202962 96.897 -170.7735
46.537768 96.884 -171.0135
46.875000 96.870 -171.2586
47.214676 96.855 -171.5054
47.556813 96.840 -171.7504
47.901429 96.824 -171.9916
48.248542 96.807 -172.2296
48.598171 96.791 -172.4662
48.950334 96.776 -172.7031
49.305048 96.760 -172.9408
49.662333 96.746 -173.1800
50.022206 96.732 -173.4230
50.384688 96.719 -173.6743
50.749796 96.707 -173.9387
51.117550 96.694 -174.2175
51.487969 96.679 -174.5066
51.861072 96.662 -174.7966
52.236879 96.642 -175.0769
52.615409 96.622 -175.3407
52.996681 96.602 -175.5889
53.380717 96.584 -175.8278
53.767536 96.567 -176.0648
54.157158 96.550 -176.3021
54.549603 96.532 -176.5357
54.944892 96.512 -176.7581
55.343045 96.493 -176.9647
55.744084 96.475 -177.1577
56.148028 96.459 -177.3458
56.554900 96.444 -177.5389
56.964720 96.430 -177.7424
57.377510 96.414 -177.9543
57.793291 96.395 -178.1671
58.212085 96.374 -178.3724
58.633914 96.353 -178.5651
59.058799 96.331 -178.7451
59.486764 96.311 -178.9169
59.917829 96.293 -179.0869
60.352019 96.276 -179.2616
60.789354 96.259 -179.4462
61.229859 96.243 -179.6426
61.673556 96.227 -179.8489
62.120468 96.208 179.9411
62.570618 96.187 179.7355
63.024031 96.165 179.5413
63.480729 96.143 179.3621
63.940736 96.122 179.1965
64.404077 96.102 179.0399
64.870776 96.083 178.8856
65.340856 96.065 178.7285
65.814343 96.047 178.5661
66.291261 96.029 178.3995
66.771635 96.009 178.2322
67.255489 95.988 178.0682
67.742850 95.967 177.9098
68.233743 95.945 177.7568
68.728193 95.924 177.6072
69.226226 95.904 177.4578
69.727867 95.884 177.3066
70.233144 95.864 177.1531
70.742083 95.844 176.9982
71.254709 95.824 176.8433
71.771050 95.803 176.6897
72.291132 95.783 176.5379
72.814984 95.763 176.3876
73.342631 95.742 176.2389
73.874102 95.721 176.0930
74.409424 95.699 175.9517
74.948626 95.677 175.8168
75.491734 95.655 175.6885
76.038779 95.633 175.5654
76.589787 95.612 175.4455
77.144788 95.591 175.3263
77.703811 95.571 175.2059
78.266885 95.551 175.0831
78.834039 95.531 174.9580
79.405303 95.511 174.8313
79.980706 95.491 174.7048
80.560280 95.470 174.5804
81.144053 95.450 174.4597
81.732056 95.429 174.3435
82.324320 95.408 174.2321
82.920876 95.387 174.1243
83.521755 95.366 174.0187
84.126988 95.346 173.9147
84.736607 95.325 173.8120
85.350643 95.304 173.7109
85.969129 95.283 173.6111
86.592097 95.263 173.5116
87.219579 95.243 173.4113
87.851608 95.223 173.3098
88.488217 95.203 173.2078
89.129439 95.183 173.1063
89.775308 95.164 173.0056
90.425856 95.145 172.9050
91.081119 95.126 172.8036
91.741131 95.106 172.7014
92.405925 95.087 172.6005
93.075536 95.066 172.5040
93.750000 95.045 172.4144
94.429351 95.024 172.3315
95.113625 95.004 172.2529
95.802858 94.983 172.1753
96.497085 94.964 172.0961
97.196342 94.944 172.0151
97.900667 94.924 171.9330
98.610096 94.904 171.8512
99.324665 94.884 171.7707
100.044413 94.865 171.6919
100.769376 94.845 171.6151
101.499592 94.826 171.5402
102.235100 94.807 171.4673
102.975938 94.788 171.3954
103.722144 94.769 171.3236
104.473757 94.750 171.2512
105.230817 94.731 171.1787
105.993363 94.711 171.1069
106.761435 94.692 171.0358
107.535072 94.672 170.9647
108.314315 94.652 170.8932
109.099206 94.632 170.8220
109.889783 94.612 170.7526
110.686090 94.592 170.6875
111.488167 94.571 170.6287
112.296056 94.551 170.5759
113.109800 94.532 170.5266
113.929440 94.513 170.4769
114.755020 94.494 170.4249
115.586582 94.474 170.3715
116.424170 94.455 170.3192
117.267827 94.436 170.2697
118.117598 94.417 170.2227
118.973527 94.399 170.1769
119.835658 94.381 170.1310
120.704037 94.363 170.0845
121.578708 94.345 170.0376
122.459718 94.326 169.9915
123.347111 94.307 169.9476
124.240935 94.288 169.9076
125.141236 94.268 169.8716
126.048061 94.248 169.8375
126.961458 94.229 169.8021
127.881473 94.210 169.7634
128.808154 94.191 169.7211
129.741551 94.172 169.6771
130.681712 94.153 169.6338
131.628686 94.134 169.5938
132.582521 94.114 169.5586
133.543269 94.095 169.5287
134.510979 94.077 169.5033
135.485701 94.059 169.4813
136.467486 94.041 169.4611
137.456386 94.024 169.4410
138.452451 94.007 169.4192
139.455735 93.991 169.3944
140.466288 93.973 169.3666
141.484165 93.956 169.3369
142.509418 93.937 169.3070
143.542100 93.919 169.2787
144.582265 93.900 169.2527
145.629968 93.881 169.2291
146.685262 93.862 169.2070
147.748204 93.843 169.1860
148.818849 93.824 169.1660
149.897251 93.805 169.1475
150.983469 93.787 169.1302
152.077557 93.769 169.1122
153.179574 93.753 169.0911
154.289576 93.737 169.0650
155.407622 93.721 169.0338
156.533770 93.705 168.9996
157.668078 93.687 168.9680
158.810606 93.669 168.9432
159.961413 93.650 168.9255
161.120559 93.632 168.9124
162.288105 93.613 168.9005
163.464112 93.595 168.8881
164.648640 93.577 168.8737
165.841752 93.558 168.8569
167.043510 93.540 168.8372
168.253976 93.521 168.8151
169.473213 93.501 168.7913
170.701286 93.481 168.7662
171.938258 93.461 168.7411
173.184194 93.441 168.7181
174.439158 93.419 168.6996
175.703216 93.397 168.6875
176.976434 93.375 168.6818
178.258878 93.351 168.6824
179.550615 93.328 168.6886
180.851713 93.305 168.7001
182.162239 93.282 168.7173
183.482262 93.260 168.7404
184.811850 93.239 168.7681
186.151073 93.219 168.7991
187.500000 93.198 168.8347
188.858702 93.176 168.8773
190.227250 93.153 168.9299
191.605715 93.129 168.9935
192.994169 93.104 169.0663
194.392685 93.079 169.1458
195.801334 93.054 169.2343
197.220191 93.028 169.3380
198.649330 93.004 169.4616
200.088825 92.981 169.6052
201.538751 92.959 169.7654
202.999184 92.940 169.9394
204.470200 92.923 170.1298
205.951875 92.908 170.3453
207.444287 92.897 170.5947
208.947514 92.890 170.8766
210.461634 92.889 171.1757
211.986726 92.896 171.4662
213.522869 92.913 171.7195
215.070144 92.940 171.9116
216.628631 92.975 172.0280
218.198411 93.018 172.0645
219.779567 93.061 172.0279
221.372180 93.101 171.9334
222.976334 93.135 171.7969
224.592112 93.160 171.6307
226.219600 93.177 171.4442
227.858880 93.187 171.2449
229.510039 93.191 171.0414
231.173164 93.190 170.8430
232.848340 93.185 170.6577
234.535655 93.176 170.4888
236.235197 93.165 170.3350
237.947054 93.150 170.1936
239.671317 93.133 170.0627
241.408074 93.114 169.9418
243.157416 93.093 169.8311
244.919435 93.073 169.7300
246.694223 93.052 169.6379
248.481871 93.033 169.5551
250.282473 93.013 169.4817
252.096123 92.994 169.4172
253.922915 92.974 169.3609
255.762945 92.955 169.3129
257.616309 92.935 169.2740
259.483103 92.916 169.2448
261.363424 92.898 169.2252
263.257372 92.881 169.2139
265.165043 92.864 169.2085
267.086538 92.846 169.2058
269.021957 92.829 169.2018
270.971401 92.811 169.1929
272.934972 92.792 169.1777
274.912771 92.775 169.1581
276.904902 92.757 169.1385
278.911469 92.740 169.1239
280.932577 92.723 169.1174
282.968330 92.705 169.1187
285.018835 92.688 169.1248
287.084199 92.670 169.1327
289.164530 92.652 169.1411
291.259935 92.634 169.1504
293.370525 92.617 169.1603
295.496408 92.599 169.1691
297.637697 92.582 169.1753
299.794503 92.565 169.1797
301.966937 92.548 169.1847
304.155114 92.532 169.1922
306.359147 92.515 169.2024
308.579152 92.499 169.2141
310.815244 92.482 169.2264
313.067539 92.465 169.2388
315.336156 92.448 169.2512
317.621211 92.431 169.2642
319.922826 92.415 169.2777
322.241118 92.398 169.2921
324.576210 92.381 169.3073
326.928223 92.365 169.3231
329.297280 92.348 169.3398
331.683504 92.332 169.3574
334.087019 92.315 169.3759
336.507952 92.298 169.3950
338.946427 92.281 169.4148
341.402572 92.264 169.4352
343.876516 92.247 169.4562
346.368387 92.230 169.4774
348.878315 92.213 169.4987
351.406431 92.196 169.5201
353.952867 92.179 169.5421
356.517756 92.162 169.5648
359.101230 92.145 169.5881
361.703426 92.128 169.6122
364.324478 92.110 169.6370
366.964523 92.093 169.6627
369.623699 92.076 169.6899
372.302145 92.058 169.7189
375.000000 92.041 169.7496
377.717405 92.023 169.7819
380.454501 92.005 169.8156
383.211431 91.988 169.8508
385.988339 91.970 169.8871
388.785369 91.952 169.9246
391.602668 91.935 169.9631
394.440383 91.918 170.0025
397.298660 91.900 170.0428
400.177650 91.883 170.0838
403.077502 91.865 170.1255
405.998368 91.848 170.1680
408.940400 91.830 170.2114
411.903750 91.812 170.2559
414.888575 91.795 170.3013
417.895028 91.777 170.3477
420.923268 91.759 170.3946
423.973452 91.742 170.4417
427.045738 91.724 170.4889
430.140287 91.707 170.5364
433.257261 91.689 170.5843
436.396822 91.671 170.6323
439.559133 91.653 170.6803
442.744360 91.635 170.7281
445.952668 91.616 170.7758
449.184225 91.597 170.8237
452.439199 91.578 170.8721
455.717760 91.559 170.9214
459.020079 91.539 170.9720
462.346327 91.519 171.0244
465.696680 91.499 171.0787
469.071310 91.479 171.1349
472.470394 91.458 171.1929
475.894109 91.438 171.2531
479.342634 91.417 171.3154
482.816148 91.396 171.3806
486.314833 91.375 171.4487
489.838871 91.354 171.5195
493.388445 91.333 171.5930
496.963741 91.311 171.6688
500.564945 91.290 171.7471
504.192245 91.268 171.8278
507.845830 91.246 171.9111
511.525890 91.225 171.9973
515.232618 91.203 172.0861
518.966206 91.181 172.1771
522.726849 91.159 172.2700
526.514743 91.137 172.3646
530.330086 91.116 172.4608
534.173076 91.094 172.5587
538.043915 91.072 172.6579
541.942803 91.050 172.7585
545.869944 91.028 172.8610
549.825542 91.006 172.9656
553.809805 90.983 173.0725
557.822939 90.960 173.1823
561.865154 90.937 173.2952
565.936660 90.914 173.4118
570.037671 90.890 173.5322
574.168399 90.866 173.6568
578.329060 90.842 173.7864
582.519870 90.818 173.9214
586.741049 90.794 174.0620
590.992817 90.770 174.2081
595.275394 90.746 174.3594
599.589005 90.722 174.5154
603.933874 90.699 174.6754
608.310228 90.676 174.8390
612.718295 90.653 175.0061
617.158304 90.630 175.1769
621.630488 90.608 175.3515
626.135079 90.586 175.5302
630.672311 90.565 175.7130
635.242423 90.543 175.8998
639.845651 90.522 176.0904
644.482237 90.501 176.2847
649.152421 90.480 176.4826
653.856447 90.459 176.6840
658.594560 90.439 176.8890
663.367008 90.419 177.0979
668.174039 90.399 177.3108
673.015903 90.379 177.5281
677.892854 90.360 177.7498
682.805145 90.341 177.9761
687.753032 90.322 178.2070
692.736774 90.304 178.4423
697.756631 90.286 178.6819
702.812863 90.269 178.9258
707.905735 90.252 179.1742
713.035511 90.235 179.4270
718.202461 90.219 179.6843
723.406852 90.204 179.9462
728.648956 90.189 -179.7873
733.929047 90.174 -179.5160
739.247399 90.161 -179.2399
744.604290 90.148 -178.9590
750.000000 90.135 -178.6735
755.434809 90.124 -178.3834
760.909001 90.113 -178.0889
766.422861 90.103 -177.7899
771.976677 90.093 -177.4866
777.570739 90.085 -177.1789
783.205337 90.077 -176.8671
788.880766 90.070 -176.5512
794.597321 90.064 -176.2313
800.355301 90.060 -175.9077
806.155005 90.056 -175.5803
811.996736 90.053 -175.2495
817.880799 90.052 -174.9154
823.807501 90.051 -174.5782
829.777150 90.052 -174.2382
835.790057 90.054 -173.8955
841.846536 90.058 -173.5504
847.946903 90.062 -173.2030
854.091476 90.068 -172.8538
860.280575 90.076 -172.5034
866.514523 90.084 -172.1522
872.793644 90.095 -171.8005
879.118267 90.106 -171.4486
885.488720 90.120 -171.0969
891.905336 90.134 -170.7458
898.368450 90.150 -170.3958
904.878398 90.168 -170.0473
911.435520 90.188 -169.7008
918.040157 90.208 -169.3568
924.692655 90.231 -169.0157
931.393359 90.254 -168.6782
938.142619 90.280 -168.3445
944.940787 90.307 -168.0154
951.788218 90.335 -167.6914
958.685268 90.364 -167.3733
965.632296 90.395 -167.0613
972.629666 90.428 -166.7561
979.677741 90.462 -166.4579
986.776890 90.496 -166.1671
993.927482 90.533 -165.8843
1001.129891 90.570 -165.6099
1008.384491 90.608 -165.3441
1015.691660 90.647 -165.0875
1023.051781 90.687 -164.8403
1030.465236 90.728 -164.6029
1037.932411 90.770 -164.3755
1045.453698 90.812 -164.1584
1053.029486 90.855 -163.9517
1060.660172 90.898 -163.7554
1068.346153 90.942 -163.5698
1076.087829 90.986 -163.3947
1083.885605 91.030 -163.2300
1091.739887 91.074 -163.0757
1099.651084 91.118 -162.9316
1107.619609 91.162 -162.7976
1115.645878 91.206 -162.6733
1123.730308 91.249 -162.5586
1131.873321 91.292 -162.4530
1140.075341 91.335 -162.3563
1148.336797 91.377 -162.2682
1156.658119 91.418 -162.1880
1165.039741 91.459 -162.1154
1173.482099 91.499 -162.0500
1181.985634 91.539 -161.9916
1190.550789 91.577 -161.9395
1199.178011 91.615 -161.8933
1207.867749 91.652 -161.8525
1216.620457 91.687 -161.8163
1225.436590 91.723 -161.7843
1234.316609 91.757 -161.7559
1243.260976 91.790 -161.7303
1252.270157 91.822 -161.7071
1261.344623 91.853 -161.6859
1270.484846 91.884 -161.6660
1279.691303 91.913 -161.6472
1288.964474 91.942 -161.6290
1298.304842 91.970 -161.6110
1307.712894 91.997 -161.5928
1317.189120 92.024 -161.5740
1326.734016 92.049 -161.5544
1336.348077 92.074 -161.5337
1346.031806 92.098 -161.5114
1355.785708 92.122 -161.4874
1365.610290 92.145 -161.4615
1375.506065 92.168 -161.4335
1385.473549 92.191 -161.4032
1395.513261 92.213 -161.3702
1405.625726 92.234 -161.3345
1415.811469 92.255 -161.2958
1426.071023 92.276 -161.2539
1436.404921 92.297 -161.2088
1446.813703 92.318 -161.1603
1457.297912 92.338 -161.1085
1467.858093 92.359 -161.0533
1478.494798 92.379 -160.9946
1489.208581 92.400 -160.9326
1500.000000 92.421 -160.8671
1510.869618 92.442 -160.7983
1521.818002 92.463 -160.7265
1532.845723 92.484 -160.6516
1543.953355 92.506 -160.5737
1555.141477 92.528 -160.4929
1566.410674 92.551 -160.4091
1577.761531 92.574 -160.3223
1589.194642 92.597 -160.2327
1600.710601 92.621 -160.1406
1612.310010 92.646 -160.0459
1623.993473 92.671 -159.9491
1635.761599 92.696 -159.8502
1647.615002 92.723 -159.7495
1659.554299 92.750 -159.6472
1671.580114 92.777 -159.5436
1683.693072 92.806 -159.4388
1695.893807 92.835 -159.3332
1708.182952 92.865 -159.2268
1720.561150 92.896 -159.1199
1733.029045 92.928 -159.0127
1745.587288 92.961 -158.9054
1758.236533 92.994 -158.7981
1770.977440 93.029 -158.6910
1783.810673 93.064 -158.5844
1796.736900 93.101 -158.4786
1809.756796 93.138 -158.3741
1822.871040 93.176 -158.2712
1836.080315 93.216 -158.1703
1849.385310 93.256 -158.0718
1862.786718 93.298 -157.9758
1876.285239 93.341 -157.8827
1889.881575 93.385 -157.7930
1903.576436 93.430 -157.7069
1917.370535 93.476 -157.6251
1931.264593 93.523 -157.5479
1945.259332 93.572 -157.4751
1959.355483 93.621 -157.4070
1973.553781 93.672 -157.3437
1987.854965 93.724 -157.2855
2002.259781 93.777 -157.2335
2016.768981 93.832 -157.1884
2031.383320 93.887 -157.1506
2046.103561 93.944 -157.1208
2060.930471 94.001 -157.0994
2075.864823 94.060 -157.0867
2090.907395 94.120 -157.0834
2106.058972 94.181 -157.0898
2121.320344 94.242 -157.1066
2136.692305 94.305 -157.1342
2152.175658 94.369 -157.1732
2167.771210 94.434 -157.2242
2183.479774 94.499 -157.2877
2199.302169 94.566 -157.3642
2215.239219 94.633 -157.4541
2231.291755 94.701 -157.5579
2247.460615 94.769 -157.6761
2263.746641 94.838 -157.8093
2280.150683 94.907 -157.9581
2296.673595 94.977 -158.1231
2313.316238 95.047 -158.3047
2330.079481 95.117 -158.5032
2346.964198 95.187 -158.7191
2363.971268 95.257 -158.9524
2381.101578 95.326 -159.2036
2398.356022 95.396 -159.4729
2415.735498 95.464 -159.7606
2433.240913 95.532 -160.0668
2450.873180 95.600 -160.3916
2468.633217 95.666 -160.7352
2486.521951 95.731 -161.0974
2504.540314 95.795 -161.4780
2522.689246 95.858 -161.8770
2540.969692 95.920 -162.2942
2559.382606 95.980 -162.7295
2577.928947 96.038 -163.1828
2596.609683 96.094 -163.6541
2615.425787 96.149 -164.1432
2634.378241 96.202 -164.6502
2653.468031 96.253 -165.1752
2672.696154 96.301 -165.7184
2692.063613 96.348 -166.2803
2711.571415 96.391 -166.8609
2731.220579 96.433 -167.4608
2751.012130 96.471 -168.0803
2770.947098 96.507 -168.7194
2791.026522 96.539 -169.3779
2811.251451 96.567 -170.0556
2831.622938 96.591 -170.7516
2852.142045 96.611 -171.4645
2872.809842 96.626 -172.1930
2893.627406 96.636 -172.9349
2914.595823 96.640 -173.6881
2935.716186 96.639 -174.4500
2956.989596 96.632 -175.2180
2978.417161 96.619 -175.9891
3000.000000 96.600 -176.7604
3021.739237 96.575 -177.5288
3043.636005 96.545 -178.2911
3065.691446 96.508 -179.0443
3087.906710 96.466 -179.7858
3110.282955 96.418 179.4872
3132.821347 96.365 178.7770
3155.523062 96.307 178.0859
3178.389283 96.244 177.4158
3201.421202 96.176 176.7686
3224.620020 96.104 176.1459
3247.986946 96.029 175.5493
3271.523198 95.949 174.9801
3295.230004 95.867 174.4393
3319.108599 95.781 173.9280
3343.160228 95.693 173.4467
3367.386145 95.603 172.9960
3391.787613 95.510 172.5759
3416.365904 95.416 172.1870
3441.122300 95.321 171.8289
3466.058091 95.224 171.5015
3491.174576 95.127 171.2044
3516.473066 95.029 170.9374
3541.954880 94.931 170.7000
3567.621345 94.833 170.4917
3593.473800 94.736 170.3117
3619.513592 94.638 170.1594
3645.742080 94.541 170.0341
3672.160630 94.445 169.9350
3698.770620 94.350 169.8613
3725.573436 94.256 169.8121
3752.570477 94.164 169.7867
3779.763150 94.072 169.7844
3807.152872 93.983 169.8044
3834.741071 93.895 169.8463
3862.529185 93.809 169.9094
3890.518664 93.724 169.9929
3918.710966 93.642 170.0963
3947.107561 93.563 170.2184
3975.709929 93.486 170.3580
4004.519563 93.412 170.5135
4033.537962 93.342 170.6827
4062.766641 93.274 170.8629
4092.207123 93.211 171.0509
4121.860942 93.151 171.2433
4151.729646 93.094 171.4364
4181.814790 93.041 171.6266
4212.117944 92.990 171.8110
4242.640687 92.943 171.9875
4273.384610 92.897 172.1547
4304.351317 92.853 172.3121
4335.542421 92.810 172.4601
4366.959549 92.768 172.5991
4398.604338 92.726 172.7298
4430.478438 92.686 172.8528
4462.583511 92.646 172.9683
4494.921231 92.606 173.0765
4527.493283 92.566 173.1775
4560.301365 92.527 173.2708
4593.347189 92.487 173.3566
4626.632476 92.447 173.4346
4660.158962 92.406 173.5051
4693.928395 92.365 173.5684
4727.942535 92.323 173.6250
4762.203156 92.280 173.6757
4796.712043 92.235 173.7216
4831.470996 92.188 173.7642
4866.481826 92.140 173.8054
4901.746360 92.089 173.8475
4937.266434 92.036 173.8929
4973.043902 91.981 173.9448
5009.080628 91.923 174.0066
5045.378492 91.863 174.0817
5081.939384 91.801 174.1740
5118.765212 91.738 174.2870
5155.857894 91.672 174.4239
5193.219366 91.607 174.5873
5230.851574 91.541 174.7788
5268.756481 91.475 174.9993
5306.936062 91.412 175.2481
5345.392309 91.350 175.5238
5384.127225 91.291 175.8237
5423.142830 91.236 176.1438
5462.441159 91.184 176.4794
5502.024259 91.137 176.8246
5541.894195 91.094 177.1730
5582.053045 91.055 177.5181
5622.502902 91.020 177.8536
5663.245876 90.988 178.1743
5704.284090 90.958 178.4763
5745.619684 90.928 178.7574
5787.254813 90.898 179.0182
5829.191647 90.866 179.2613
5871.432373 90.831 179.4915
5913.979192 90.793 179.7155
5956.834323 90.750 179.9412
6000.000000 90.703 -179.8224
6043.478473 90.652 -179.5664
6087.272010 90.596 -179.2820
6131.382892 90.537 -178.9609
6175.813420 90.475 -178.5955
6220.565910 90.412 -178.1786
6265.642695 90.348 -177.7046
6311.046124 90.285 -177.1689
6356.778566 90.224 -176.5685
6402.842404 90.168 -175.9023
6449.240040 90.118 -175.1710
6495.973891 90.075 -174.3775
6543.046396 90.043 -173.5266
6590.460007 90.021 -172.6245
6638.217197 90.012 -171.6785
6686.320456 90.016 -170.6957
6734.772290 90.035 -169.6835
6783.575226 90.069 -168.6494
6832.731809 90.119 -167.6028
6882.244600 90.186 -166.5547
6932.116181 90.272 -165.5161
6982.349153 90.377 -164.4982
7032.946133 90.502 -163.5132
7083.909760 90.648 -162.5748
7135.242690 90.817 -161.6987
7186.947600 91.008 -160.9031
7239.027185 91.222 -160.2084
7291.484160 91.459 -159.6369
7344.321260 91.719 -159.2128
7397.541239 92.002 -158.9634
7451.146872 92.307 -158.9213
7505.140954 92.631 -159.1240
7559.526299 92.972 -159.6129
7614.305743 93.322 -160.4280
7669.482141 93.675 -161.6052
7725.058371 94.021 -163.1725
7781.037328 94.348 -165.1447
7837.421932 94.642 -167.5193
7894.215122 94.889 -170.2706
7951.419859 95.076 -173.3452
8009.039125 95.191 -176.6591
8067.075924 95.225 179.9007
8125.533282 95.177 176.4648
8184.414245 95.057 173.1573
8243.721885 94.882 170.0572
8303.459292 94.670 167.1682
8363.629581 94.433 164.4387
8424.235888 94.170 161.8346
8485.281374 93.883 159.3561
8546.769221 93.572 156.9771
8608.702634 93.232 154.6578
8671.084842 92.848 152.4359
8733.919097 92.410 150.4362
8797.208675 91.922 148.7903
8860.956876 91.401 147.5768
8925.167022 90.864 146.8126
8989.842461 90.329 146.4693
9054.986566 89.810 146.4943
9120.602731 89.315 146.8271
9186.694378 88.850 147.4091
9253.264952 88.418 148.1874
9320.317925 88.018 149.1173
9387.856790 87.651 150.1602
9455.885071 87.316 151.2828
9524.406312 87.011 152.4553
9593.424086 86.735 153.6507
9662.941992 86.485 154.8433
9732.963653 86.261 156.0090
9803.492719 86.059 157.1252
9874.532869 85.876 158.1714
9946.087805 85.708 159.1306
10018.161257 85.551 159.9916
10090.756983 85.399 160.7526
10163.878768 85.248 161.4235
10237.530423 85.091 162.0284
10311.715789 84.925 162.6046
10386.438732 84.750 163.1974
10461.703149 84.568 163.8503
10537.512962 84.384 164.5922
10613.872125 84.204 165.4260
10690.784618 84.037 166.3253
10768.254450 83.884 167.2407
10846.285661 83.746 168.1171
10924.882318 83.618 168.9109
11004.048518 83.493 169.6028
11083.788390 83.363 170.2001
11164.106090 83.220 170.7318
11245.005805 83.061 171.2403
11326.491752 82.884 171.7728
11408.568180 82.689 172.3745
11491.239368 82.478 173.0840
11574.509626 82.256 173.9300
11658.383294 82.027 174.9308
11742.864745 81.797 176.0950
11827.958384 81.570 177.4229
11913.668646 81.351 178.9104
12000.000000 81.143 -179.4491
12086.956947 80.950 -177.6630
12174.544019 80.775 -175.7415
12262.765784 80.621 -173.7012
12351.626840 80.492 -171.5671
12441.131819 80.388 -169.3687
12531.285389 80.312 -167.1353
12622.092249 80.261 -164.8916
12713.557132 80.236 -162.6563
12805.684808 80.236 -160.4433
12898.480079 80.260 -158.2639
12991.947783 80.309 -156.1281
13086.092792 80.381 -154.0462
13180.920015 80.479 -152.0300
13276.434395 80.602 -150.0942
13372.640911 80.752 -148.2576
13469.544580 80.929 -146.5427
13567.150452 81.133 -144.9749
13665.463617 81.367 -143.5786
13764.489200 81.631 -142.3800
13864.232362 81.926 -141.4100
13964.698305 82.252 -140.7057
14065.892266 82.608 -140.3096
14167.819519 82.991 -140.2684
14270.485380 83.395 -140.6306
14373.895200 83.814 -141.4431
14478.054370 84.239 -142.7495
14582.968320 84.659 -144.5883
14688.642520 85.060 -146.9878
14795.082478 85.424 -149.9581
14902.293745 85.732 -153.4791
15010.281908 85.966 -157.4928
15119.052599 86.107 -161.9045
15228.611486 86.143 -166.5891
15338.964283 86.066 -171.4009
15450.116741 85.873 -176.1861
15562.074656 85.569 179.2042
15674.843864 85.161 174.9023
15788.430244 84.663 171.0168
15902.839718 84.089 167.6282
16018.078250 83.453 164.7912
16134.151848 82.770 162.5398
16251.066563 82.051 160.8992
16368.828491 81.307 159.9023
16487.443769 80.546 159.6140
16606.918584 79.780 160.1559
16727.259161 79.029 161.7190
16848.471777 78.335 164.5173
16970.562748 77.766 168.6076
17093.538442 77.399 173.5801
17217.405268 77.276 178.4430
17342.169684 77.355 -177.8779
17467.838194 77.531 -175.8475
17594.417350 77.703 -175.2592
17721.913751 77.811 -175.6409
17850.334044 77.836 -176.5700
17979.684923 77.779 -177.7690
18109.973131 77.647 -179.0840
18241.205462 77.448 179.5659
18373.388756 77.189 178.2302
18506.529905 76.874 176.9480
18640.635849 76.511 175.7493
18775.713581 76.107 174.6448
18911.770141 75.673 173.6172
19048.812624 75.218 172.6210
19186.848172 74.751 171.5937
19325.883983 74.278 170.4741
19465.927305 73.810 169.2252
19606.985439 73.362 167.8631
19749.065738 72.965 166.4884
19892.175609 72.661 165.3083
20036.322514 72.493 164.6052
