* Measurement data measured by REW V5.31.3
* Source: Headset (CX31993 HIFI AUDIO), MICROPHONE (Master Volume), R, volume: 0.400
* Format: 256k Log Swept Sine, 1 sweep at -11.9 dBFS with no timing reference
* Dated: 07 7, 25 10:21:11 AM
* REW Settings:
*  C-weighting compensation: Off
*  Target level: 75.0 dB
* Note: ; 
* Measurement: Truthear PURE R
* Smoothing: 1/12 octave
* Frequency Step: 96 ppo
* Start Frequency: 0.36621094 Hz
*
* Freq(Hz) SPL(dB) Phase(degrees)
0.366211 46.148 -10.3839
0.368865 46.142 -10.4058
0.371538 46.134 -10.4387
0.374230 46.124 -10.4800
0.376942 46.112 -10.5275
0.379673 46.099 -10.5796
0.382424 46.086 -10.6353
0.385196 46.072 -10.6939
0.387987 46.058 -10.7551
0.390798 46.044 -10.8187
0.393630 46.030 -10.8844
0.396483 46.016 -10.9525
0.399356 46.002 -11.0227
0.402250 45.987 -11.0951
0.405165 45.972 -11.1698
0.408101 45.958 -11.2467
0.411058 45.943 -11.3258
0.414037 45.928 -11.4073
0.417037 45.913 -11.4910
0.420059 45.898 -11.5770
0.423103 45.883 -11.6653
0.426169 45.867 -11.7560
0.429257 45.852 -11.8491
0.432368 45.836 -11.9445
0.435501 45.820 -12.0423
0.438656 45.805 -12.1425
0.441835 45.789 -12.2451
0.445037 45.773 -12.3502
0.448262 45.756 -12.4578
0.451510 45.740 -12.5678
0.454782 45.724 -12.6803
0.458077 45.707 -12.7953
0.461397 45.691 -12.9128
0.464740 45.674 -13.0328
0.468108 45.657 -13.1554
0.471500 45.640 -13.2805
0.474917 45.623 -13.4082
0.478358 45.606 -13.5385
0.481825 45.588 -13.6713
0.485316 45.571 -13.8068
0.488833 45.553 -13.9449
0.492375 45.535 -14.0856
0.495943 45.518 -14.2289
0.499537 45.500 -14.3749
0.503157 45.481 -14.5236
0.506803 45.463 -14.6749
0.510475 45.445 -14.8289
0.514175 45.426 -14.9856
0.517900 45.408 -15.1449
0.521653 45.389 -15.3070
0.525434 45.370 -15.4719
0.529241 45.351 -15.6394
0.533076 45.332 -15.8097
0.536939 45.312 -15.9828
0.540830 45.293 -16.1586
0.544749 45.273 -16.3371
0.548696 45.253 -16.5185
0.552673 45.233 -16.7026
0.556677 45.213 -16.8896
0.560711 45.193 -17.0794
0.564774 45.173 -17.2720
0.568867 45.152 -17.4674
0.572989 45.132 -17.6657
0.577141 45.111 -17.8669
0.581324 45.090 -18.0710
0.585536 45.069 -18.2779
0.589779 45.047 -18.4878
0.594053 45.026 -18.7006
0.598358 45.005 -18.9164
0.602694 44.983 -19.1351
0.607061 44.961 -19.3569
0.611460 44.939 -19.5817
0.615891 44.917 -19.8095
0.620354 44.894 -20.0404
0.624849 44.872 -20.2745
0.629377 44.849 -20.5117
0.633938 44.826 -20.7520
0.638532 44.803 -20.9957
0.643159 44.780 -21.2425
0.647819 44.757 -21.4927
0.652514 44.733 -21.7463
0.657242 44.710 -22.0033
0.662005 44.686 -22.2638
0.666802 44.662 -22.5279
0.671634 44.637 -22.7956
0.676501 44.613 -23.0670
0.681403 44.588 -23.3422
0.686341 44.564 -23.6214
0.691314 44.538 -23.9046
0.696324 44.513 -24.1920
0.701370 44.487 -24.4837
0.706452 44.460 -24.7802
0.711571 44.432 -25.0816
0.716728 44.402 -25.3887
0.721921 44.368 -25.7021
0.727153 44.330 -26.0230
0.732422 44.285 -26.3530
0.737729 44.232 -26.6936
0.743075 44.171 -27.0468
0.748460 44.103 -27.4140
0.753883 44.027 -27.7965
0.759346 43.945 -28.1953
0.764849 43.856 -28.6111
0.770391 43.762 -29.0445
0.775974 43.662 -29.4960
0.781597 43.557 -29.9661
0.787261 43.447 -30.4552
0.792966 43.332 -30.9638
0.798712 43.213 -31.4924
0.804500 43.089 -32.0414
0.810329 42.961 -32.6114
0.816201 42.828 -33.2029
0.822116 42.692 -33.8164
0.828073 42.552 -34.4527
0.834074 42.408 -35.1122
0.840118 42.261 -35.7958
0.846206 42.112 -36.5042
0.852338 41.959 -37.2381
0.858514 41.804 -37.9983
0.864735 41.646 -38.7859
0.871001 41.487 -39.6018
0.877313 41.325 -40.4470
0.883670 41.163 -41.3228
0.890074 40.999 -42.2304
0.896524 40.835 -43.1711
0.903020 40.671 -44.1464
0.909564 40.506 -45.1581
0.916155 40.343 -46.2078
0.922794 40.180 -47.2976
0.929481 40.018 -48.4296
0.936216 39.858 -49.6062
0.943000 39.701 -50.8299
0.949834 39.546 -52.1038
0.956717 39.395 -53.4309
0.963649 39.248 -54.8147
0.970632 39.105 -56.2592
0.977666 38.966 -57.7686
0.984750 38.834 -59.3475
0.991886 38.708 -61.0013
0.999074 38.589 -62.7357
1.006314 38.477 -64.5568
1.013606 38.374 -66.4717
1.020951 38.281 -68.4878
1.028349 38.197 -70.6133
1.035801 38.123 -72.8570
1.043307 38.062 -75.2284
1.050867 38.013 -77.7374
1.058482 37.977 -80.3944
1.066152 37.956 -83.2096
1.073878 37.949 -86.1932
1.081660 37.959 -89.3540
1.089498 37.986 -92.6980
1.097393 38.029 -96.2271
1.105345 38.091 -99.9362
1.113355 38.170 -103.8111
1.121423 38.267 -107.8279
1.129549 38.381 -111.9533
1.137734 38.513 -116.1471
1.145979 38.661 -120.3647
1.154283 38.827 -124.5607
1.162647 39.008 -128.6919
1.171072 39.206 -132.7198
1.179558 39.419 -136.6131
1.188106 39.646 -140.3477
1.196715 39.888 -143.9079
1.205387 40.143 -147.2847
1.214122 40.412 -150.4756
1.222920 40.693 -153.4829
1.231782 40.986 -156.3129
1.240708 41.290 -158.9742
1.249699 41.605 -161.4772
1.258754 41.929 -163.8332
1.267876 42.262 -166.0537
1.277063 42.603 -168.1503
1.286318 42.951 -170.1340
1.295639 43.306 -172.0154
1.305027 43.665 -173.8045
1.314484 44.029 -175.5104
1.324009 44.396 -177.1416
1.333604 44.766 -178.7059
1.343268 45.136 179.7896
1.353002 45.507 178.3386
1.362806 45.876 176.9351
1.372681 46.242 175.5739
1.382628 46.606 174.2504
1.392647 46.964 172.9602
1.402739 47.316 171.7000
1.412904 47.662 170.4668
1.423142 47.999 169.2586
1.433455 48.329 168.0744
1.443843 48.649 166.9146
1.454305 48.962 165.7811
1.464844 49.269 164.6772
1.475459 49.570 163.6070
1.486150 49.868 162.5739
1.496920 50.163 161.5799
1.507767 50.458 160.6250
1.518693 50.752 159.7076
1.529698 51.046 158.8250
1.540783 51.340 157.9741
1.551948 51.633 157.1513
1.563194 51.927 156.3533
1.574521 52.220 155.5766
1.585931 52.514 154.8179
1.597423 52.807 154.0742
1.608999 53.100 153.3425
1.620658 53.393 152.6203
1.632402 53.685 151.9049
1.644232 53.976 151.1940
1.656146 54.267 150.4855
1.668147 54.557 149.7774
1.680235 54.846 149.0677
1.692411 55.135 148.3547
1.704675 55.422 147.6368
1.717028 55.708 146.9125
1.729470 55.993 146.1805
1.742003 56.276 145.4398
1.754626 56.558 144.6892
1.767341 56.839 143.9284
1.780147 57.117 143.1571
1.793047 57.393 142.3760
1.806040 57.668 141.5865
1.819128 57.939 140.7911
1.832310 58.209 139.9936
1.845587 58.475 139.1981
1.858961 58.739 138.4084
1.872432 59.000 137.6276
1.886001 59.257 136.8570
1.899667 59.512 136.0970
1.913433 59.764 135.3471
1.927299 60.014 134.6065
1.941265 60.261 133.8738
1.955332 60.505 133.1476
1.969501 60.747 132.4264
1.983773 60.987 131.7086
1.998148 61.226 130.9927
2.012627 61.462 130.2771
2.027212 61.697 129.5605
2.041902 61.931 128.8412
2.056698 62.163 128.1182
2.071602 62.395 127.3898
2.086614 62.626 126.6549
2.101734 62.857 125.9124
2.116964 63.087 125.1613
2.132304 63.317 124.4010
2.147756 63.548 123.6313
2.163320 63.778 122.8524
2.178996 64.009 122.0655
2.194786 64.240 121.2726
2.210690 64.469 120.4764
2.226710 64.699 119.6798
2.242845 64.926 118.8849
2.259098 65.153 118.0932
2.275468 65.378 117.3054
2.291957 65.602 116.5214
2.308566 65.825 115.7408
2.325295 66.046 114.9628
2.342145 66.266 114.1865
2.359117 66.485 113.4109
2.376212 66.703 112.6347
2.393431 66.919 111.8570
2.410775 67.135 111.0764
2.428244 67.350 110.2919
2.445840 67.565 109.5022
2.463564 67.779 108.7063
2.481416 67.992 107.9032
2.499397 68.205 107.0922
2.517509 68.418 106.2730
2.535752 68.631 105.4457
2.554127 68.843 104.6110
2.572635 69.054 103.7705
2.591277 69.265 102.9258
2.610055 69.474 102.0788
2.628968 69.683 101.2308
2.648019 69.890 100.3826
2.667208 70.097 99.5347
2.686535 70.302 98.6870
2.706003 70.506 97.8394
2.725612 70.710 96.9915
2.745363 70.912 96.1425
2.765257 71.114 95.2918
2.785295 71.314 94.4387
2.805478 71.514 93.5822
2.825808 71.714 92.7215
2.846285 71.912 91.8558
2.866910 72.110 90.9845
2.887685 72.308 90.1069
2.908611 72.505 89.2229
2.929688 72.701 88.3329
2.950917 72.896 87.4374
2.972301 73.091 86.5375
2.993839 73.284 85.6342
3.015534 73.476 84.7285
3.037386 73.668 83.8209
3.059396 73.858 82.9120
3.081565 74.047 82.0019
3.103896 74.235 81.0908
3.126388 74.422 80.1785
3.149043 74.609 79.2648
3.171862 74.794 78.3492
3.194847 74.979 77.4312
3.217998 75.163 76.5103
3.241317 75.346 75.5857
3.264805 75.528 74.6570
3.288463 75.709 73.7238
3.312293 75.890 72.7858
3.336295 76.069 71.8432
3.360471 76.248 70.8965
3.384822 76.425 69.9464
3.409350 76.601 68.9935
3.434056 76.776 68.0387
3.458940 76.950 67.0825
3.484005 77.122 66.1253
3.509252 77.294 65.1675
3.534681 77.465 64.2093
3.560295 77.635 63.2505
3.586094 77.803 62.2907
3.612081 77.971 61.3297
3.638255 78.138 60.3666
3.664620 78.304 59.4008
3.691175 78.469 58.4317
3.717923 78.632 57.4592
3.744864 78.795 56.4834
3.772001 78.956 55.5048
3.799335 79.116 54.5244
3.826866 79.275 53.5428
3.854597 79.432 52.5609
3.882529 79.589 51.5794
3.910664 79.744 50.5988
3.939002 79.899 49.6193
3.967546 80.052 48.6407
3.996296 80.204 47.6626
4.025255 80.355 46.6842
4.054423 80.506 45.7048
4.083804 80.654 44.7237
4.113396 80.802 43.7408
4.143204 80.948 42.7563
4.173227 81.093 41.7710
4.203468 81.237 40.7858
4.233928 81.380 39.8016
4.264609 81.522 38.8192
4.295512 81.662 37.8392
4.326639 81.802 36.8618
4.357992 81.940 35.8870
4.389572 82.078 34.9141
4.421380 82.214 33.9423
4.453419 82.349 32.9709
4.485691 82.483 31.9997
4.518196 82.616 31.0287
4.550936 82.748 30.0586
4.583914 82.878 29.0901
4.617131 83.008 28.1240
4.650589 83.136 27.1611
4.684289 83.264 26.2020
4.718233 83.391 25.2467
4.752424 83.516 24.2949
4.786862 83.641 23.3461
4.821549 83.765 22.3995
4.856488 83.888 21.4548
4.891680 84.009 20.5121
4.927127 84.130 19.5717
4.962831 84.250 18.6339
4.998794 84.369 17.6996
5.035017 84.488 16.7693
5.071503 84.605 15.8431
5.108253 84.722 14.9212
5.145270 84.838 14.0031
5.182555 84.954 13.0884
5.220110 85.068 12.1766
5.257937 85.182 11.2676
5.296038 85.295 10.3615
5.334415 85.408 9.4585
5.373071 85.520 8.5588
5.412006 85.631 7.6630
5.451224 85.742 6.7708
5.490725 85.853 5.8822
5.530514 85.962 4.9970
5.570590 86.072 4.1148
5.610957 86.181 3.2354
5.651616 86.289 2.3585
5.692570 86.397 1.4841
5.733821 86.504 0.6125
5.775370 86.611 -0.2565
5.817221 86.718 -1.1229
5.859375 86.824 -1.9868
5.901834 86.930 -2.8486
5.944602 87.035 -3.7084
5.987679 87.140 -4.5665
6.031068 87.244 -5.4229
6.074771 87.349 -6.2777
6.118792 87.452 -7.1310
6.163131 87.556 -7.9829
6.207792 87.659 -8.8335
6.252776 87.761 -9.6830
6.298086 87.863 -10.5317
6.343725 87.965 -11.3798
6.389694 88.066 -12.2272
6.435996 88.166 -13.0739
6.482634 88.266 -13.9198
6.529610 88.366 -14.7651
6.576926 88.465 -15.6099
6.624585 88.563 -16.4542
6.672590 88.661 -17.2985
6.720942 88.758 -18.1425
6.769645 88.855 -18.9863
6.818700 88.951 -19.8297
6.868111 89.046 -20.6724
6.917881 89.141 -21.5144
6.968010 89.234 -22.3558
7.018504 89.327 -23.1968
7.069362 89.420 -24.0374
7.120590 89.511 -24.8773
7.172189 89.602 -25.7164
7.224161 89.692 -26.5543
7.276511 89.781 -27.3909
7.329239 89.869 -28.2261
7.382350 89.956 -29.0599
7.435845 90.043 -29.8923
7.489729 90.128 -30.7233
7.544002 90.213 -31.5525
7.598669 90.297 -32.3796
7.653732 90.380 -33.2043
7.709194 90.463 -34.0267
7.765058 90.544 -34.8467
7.821327 90.625 -35.6643
7.878004 90.705 -36.4794
7.935091 90.784 -37.2917
7.992592 90.862 -38.1011
8.050510 90.940 -38.9075
8.108847 91.017 -39.7108
8.167607 91.093 -40.5111
8.226793 91.168 -41.3083
8.286408 91.243 -42.1025
8.346454 91.317 -42.8936
8.406936 91.391 -43.6813
8.467856 91.464 -44.4659
8.529218 91.536 -45.2474
8.591024 91.608 -46.0258
8.653278 91.679 -46.8012
8.715983 91.749 -47.5736
8.779143 91.819 -48.3430
8.842760 91.889 -49.1094
8.906839 91.958 -49.8730
8.971381 92.027 -50.6339
9.036392 92.095 -51.3921
9.101873 92.162 -52.1476
9.167829 92.229 -52.9005
9.234263 92.296 -53.6508
9.301178 92.362 -54.3987
9.368578 92.427 -55.1440
9.436467 92.492 -55.8870
9.504847 92.557 -56.6274
9.573723 92.621 -57.3654
9.643099 92.684 -58.1011
9.712976 92.747 -58.8342
9.783361 92.810 -59.5651
9.854255 92.872 -60.2933
9.925663 92.933 -61.0192
9.997588 92.994 -61.7426
10.070035 93.055 -62.4634
10.143007 93.115 -63.1818
10.216507 93.175 -63.8976
10.290540 93.234 -64.6109
10.365109 93.293 -65.3217
10.440219 93.351 -66.0299
10.515873 93.409 -66.7357
10.592076 93.467 -67.4391
10.668830 93.524 -68.1401
10.746141 93.581 -68.8387
10.824012 93.637 -69.5353
10.902447 93.693 -70.2297
10.981451 93.749 -70.9221
11.061027 93.805 -71.6128
11.141180 93.860 -72.3017
11.221913 93.915 -72.9891
11.303232 93.970 -73.6752
11.385140 94.024 -74.3600
11.467641 94.078 -75.0439
11.550741 94.132 -75.7269
11.634442 94.185 -76.4091
11.718750 94.238 -77.0908
11.803669 94.291 -77.7721
11.889203 94.343 -78.4529
11.975357 94.395 -79.1335
12.062136 94.446 -79.8140
12.149543 94.497 -80.4941
12.237583 94.547 -81.1741
12.326262 94.596 -81.8538
12.415583 94.645 -82.5330
12.505552 94.694 -83.2117
12.596172 94.741 -83.8898
12.687449 94.788 -84.5670
12.779387 94.834 -85.2432
12.871992 94.880 -85.9180
12.965268 94.924 -86.5911
13.059220 94.968 -87.2625
13.153852 95.011 -87.9316
13.249170 95.053 -88.5984
13.345179 95.095 -89.2625
13.441884 95.136 -89.9236
13.539289 95.176 -90.5815
13.637401 95.215 -91.2361
13.736223 95.254 -91.8871
13.835761 95.292 -92.5345
13.936021 95.329 -93.1781
14.037007 95.366 -93.8179
14.138725 95.403 -94.4539
14.241180 95.438 -95.0861
14.344377 95.474 -95.7146
14.448323 95.509 -96.3395
14.553021 95.544 -96.9609
14.658478 95.578 -97.5790
14.764700 95.612 -98.1938
14.871691 95.646 -98.8055
14.979457 95.679 -99.4144
15.088005 95.712 -100.0204
15.197339 95.745 -100.6237
15.307465 95.777 -101.2244
15.418389 95.810 -101.8226
15.530117 95.841 -102.4183
15.642655 95.873 -103.0117
15.756008 95.904 -103.6028
15.870182 95.934 -104.1917
15.985184 95.965 -104.7784
16.101019 95.995 -105.3632
16.217694 96.024 -105.9459
16.335214 96.054 -106.5270
16.453586 96.083 -107.1064
16.572815 96.111 -107.6844
16.692909 96.140 -108.2612
16.813872 96.168 -108.8369
16.935713 96.195 -109.4116
17.058436 96.222 -109.9854
17.182048 96.249 -110.5583
17.306556 96.275 -111.1305
17.431967 96.301 -111.7017
17.558286 96.326 -112.2720
17.685521 96.351 -112.8409
17.813677 96.374 -113.4083
17.942762 96.397 -113.9739
18.072783 96.420 -114.5375
18.203746 96.442 -115.0985
18.335658 96.463 -115.6567
18.468526 96.484 -116.2120
18.602356 96.504 -116.7643
18.737156 96.524 -117.3132
18.872934 96.543 -117.8590
19.009695 96.562 -118.4017
19.147447 96.581 -118.9417
19.286197 96.600 -119.4790
19.425953 96.618 -120.0140
19.566721 96.636 -120.5471
19.708510 96.654 -121.0785
19.851326 96.672 -121.6084
19.995177 96.690 -122.1370
20.140070 96.707 -122.6642
20.286013 96.723 -123.1901
20.433014 96.740 -123.7144
20.581080 96.755 -124.2367
20.730219 96.771 -124.7570
20.880439 96.786 -125.2747
21.031747 96.801 -125.7897
21.184152 96.815 -126.3018
21.337661 96.829 -126.8109
21.492282 96.843 -127.3170
21.648024 96.857 -127.8203
21.804895 96.870 -128.3212
21.962902 96.884 -128.8199
22.122054 96.897 -129.3171
22.282360 96.911 -129.8129
22.443827 96.924 -130.3079
22.606464 96.937 -130.8021
22.770280 96.949 -131.2955
22.935283 96.961 -131.7880
23.101481 96.973 -132.2791
23.268884 96.984 -132.7681
23.437500 96.994 -133.2545
23.607338 97.004 -133.7375
23.778406 97.013 -134.2165
23.950714 97.022 -134.6910
24.124271 97.031 -135.1611
24.299086 97.039 -135.6268
24.475167 97.048 -136.0888
24.652524 97.056 -136.5480
24.831166 97.065 -137.0056
25.011103 97.073 -137.4628
25.192344 97.082 -137.9207
25.374898 97.090 -138.3799
25.558775 97.098 -138.8409
25.743984 97.105 -139.3035
25.930536 97.111 -139.7665
26.118439 97.116 -140.2286
26.307704 97.119 -140.6879
26.498341 97.121 -141.1423
26.690359 97.123 -141.5902
26.883768 97.123 -142.0302
27.078579 97.123 -142.4616
27.274801 97.123 -142.8849
27.472446 97.123 -143.3011
27.671522 97.124 -143.7123
27.872042 97.126 -144.1207
28.074014 97.128 -144.5288
28.277450 97.131 -144.9386
28.482360 97.134 -145.3514
28.688755 97.136 -145.7676
28.896645 97.138 -146.1866
29.106042 97.140 -146.6073
29.316957 97.140 -147.0278
29.529400 97.140 -147.4464
29.743382 97.139 -147.8615
29.958915 97.137 -148.2724
30.176009 97.136 -148.6789
30.394677 97.134 -149.0817
30.614929 97.132 -149.4817
30.836778 97.131 -149.8801
31.060234 97.130 -150.2779
31.285309 97.128 -150.6755
31.512015 97.127 -151.0728
31.740364 97.125 -151.4691
31.970368 97.122 -151.8637
32.202039 97.119 -152.2556
32.435388 97.116 -152.6442
32.670428 97.113 -153.0291
32.907171 97.109 -153.4105
33.145630 97.105 -153.7886
33.385817 97.101 -154.1639
33.627745 97.097 -154.5367
33.871425 97.093 -154.9071
34.116871 97.088 -155.2750
34.364096 97.083 -155.6401
34.613113 97.078 -156.0026
34.863934 97.073 -156.3622
35.116572 97.068 -156.7196
35.371041 97.062 -157.0750
35.627354 97.056 -157.4287
35.885525 97.050 -157.7811
36.145566 97.043 -158.1319
36.407492 97.036 -158.4807
36.671316 97.029 -158.8270
36.937051 97.021 -159.1703
37.204712 97.012 -159.5104
37.474313 97.004 -159.8475
37.745867 96.995 -160.1819
38.019389 96.987 -160.5143
38.294893 96.978 -160.8452
38.572394 96.969 -161.1749
38.851905 96.960 -161.5035
39.133442 96.951 -161.8307
39.417019 96.941 -162.1563
39.702651 96.932 -162.4802
39.990353 96.922 -162.8020
40.280140 96.911 -163.1217
40.572026 96.901 -163.4391
40.866028 96.890 -163.7543
41.162160 96.880 -164.0669
41.460438 96.869 -164.3770
41.760877 96.858 -164.6844
42.063494 96.847 -164.9898
42.368303 96.836 -165.2933
42.675322 96.825 -165.5952
42.984565 96.814 -165.8957
43.296048 96.802 -166.1948
43.609789 96.791 -166.4921
43.925804 96.779 -166.7874
44.244108 96.766 -167.0803
44.564719 96.754 -167.3704
44.887654 96.741 -167.6578
45.212928 96.728 -167.9426
45.540560 96.715 -168.2250
45.870565 96.702 -168.5050
46.202962 96.689 -168.7828
46.537768 96.675 -169.0587
46.875000 96.662 -169.3326
47.214676 96.648 -169.6046
47.556813 96.635 -169.8745
47.901429 96.621 -170.1424
48.248542 96.607 -170.4082
48.598171 96.592 -170.6717
48.950334 96.578 -170.9327
49.305048 96.564 -171.1912
49.662333 96.549 -171.4471
50.022206 96.535 -171.7010
50.384688 96.520 -171.9534
50.749796 96.505 -172.2053
51.117550 96.491 -172.4571
51.487969 96.475 -172.7084
51.861072 96.459 -172.9582
52.236879 96.443 -173.2049
52.615409 96.426 -173.4471
52.996681 96.409 -173.6844
53.380717 96.392 -173.9173
53.767536 96.375 -174.1472
54.157158 96.359 -174.3757
54.549603 96.342 -174.6038
54.944892 96.326 -174.8317
55.343045 96.309 -175.0591
55.744084 96.293 -175.2858
56.148028 96.276 -175.5112
56.554900 96.259 -175.7352
56.964720 96.241 -175.9578
57.377510 96.224 -176.1787
57.793291 96.206 -176.3973
58.212085 96.188 -176.6128
58.633914 96.170 -176.8246
59.058799 96.152 -177.0330
59.486764 96.134 -177.2386
59.917829 96.116 -177.4426
60.352019 96.098 -177.6456
60.789354 96.080 -177.8477
61.229859 96.062 -178.0490
61.673556 96.044 -178.2499
62.120468 96.026 -178.4509
62.570618 96.008 -178.6519
63.024031 95.990 -178.8516
63.480729 95.971 -179.0477
63.940736 95.952 -179.2383
64.404077 95.933 -179.4227
64.870776 95.914 -179.6018
65.340856 95.896 -179.7767
65.814343 95.879 -179.9484
66.291261 95.861 179.8835
66.771635 95.843 179.7195
67.255489 95.825 179.5601
67.742850 95.807 179.4066
68.233743 95.789 179.2592
68.728193 95.772 179.1166
69.226226 95.755 178.9739
69.727867 95.739 178.8246
70.233144 95.723 178.6644
70.742083 95.705 178.4937
71.254709 95.686 178.3175
71.771050 95.664 178.1423
72.291132 95.642 177.9716
72.814984 95.619 177.8060
73.342631 95.595 177.6442
73.874102 95.573 177.4846
74.409424 95.551 177.3266
74.948626 95.529 177.1698
75.491734 95.508 177.0142
76.038779 95.487 176.8600
76.589787 95.467 176.7076
77.144788 95.448 176.5576
77.703811 95.428 176.4105
78.266885 95.409 176.2671
78.834039 95.389 176.1279
79.405303 95.369 175.9933
79.980706 95.350 175.8630
80.560280 95.330 175.7360
81.144053 95.310 175.6115
81.732056 95.290 175.4884
82.324320 95.270 175.3664
82.920876 95.250 175.2448
83.521755 95.230 175.1229
84.126988 95.210 175.0006
84.736607 95.190 174.8784
85.350643 95.169 174.7573
85.969129 95.149 174.6382
86.592097 95.129 174.5219
87.219579 95.109 174.4085
87.851608 95.088 174.2982
88.488217 95.068 174.1904
89.129439 95.048 174.0842
89.775308 95.028 173.9786
90.425856 95.008 173.8734
91.081119 94.988 173.7682
91.741131 94.968 173.6632
92.405925 94.947 173.5582
93.075536 94.927 173.4538
93.750000 94.906 173.3508
94.429351 94.885 173.2505
95.113625 94.864 173.1536
95.802858 94.843 173.0603
96.497085 94.822 172.9708
97.196342 94.801 172.8850
97.900667 94.780 172.8025
98.610096 94.759 172.7224
99.324665 94.738 172.6434
100.044413 94.717 172.5642
100.769376 94.696 172.4839
101.499592 94.676 172.4020
102.235100 94.655 172.3185
102.975938 94.635 172.2347
103.722144 94.615 172.1523
104.473757 94.595 172.0726
105.230817 94.575 171.9961
105.993363 94.556 171.9224
106.761435 94.537 171.8513
107.535072 94.517 171.7820
108.314315 94.497 171.7135
109.099206 94.477 171.6454
109.889783 94.456 171.5776
110.686090 94.435 171.5103
111.488167 94.414 171.4434
112.296056 94.392 171.3773
113.109800 94.371 171.3130
113.929440 94.350 171.2520
114.755020 94.329 171.1958
115.586582 94.307 171.1454
116.424170 94.286 171.1016
117.267827 94.265 171.0641
118.117598 94.243 171.0314
118.973527 94.222 170.9998
119.835658 94.201 170.9640
120.704037 94.180 170.9199
121.578708 94.158 170.8679
122.459718 94.136 170.8119
123.347111 94.114 170.7548
124.240935 94.091 170.6978
125.141236 94.070 170.6413
126.048061 94.048 170.5862
126.961458 94.027 170.5343
127.881473 94.005 170.4870
128.808154 93.983 170.4449
129.741551 93.961 170.4073
130.681712 93.939 170.3729
131.628686 93.916 170.3411
132.582521 93.892 170.3127
133.543269 93.867 170.2896
134.510979 93.841 170.2732
135.485701 93.815 170.2645
136.467486 93.788 170.2634
137.456386 93.762 170.2693
138.452451 93.735 170.2809
139.455735 93.708 170.2968
140.466288 93.681 170.3159
141.484165 93.654 170.3389
142.509418 93.627 170.3676
143.542100 93.601 170.4048
144.582265 93.574 170.4540
145.629968 93.548 170.5184
146.685262 93.521 170.5992
147.748204 93.494 170.6945
148.818849 93.468 170.7994
149.897251 93.443 170.9083
150.983469 93.420 171.0165
152.077557 93.401 171.1218
153.179574 93.386 171.2270
154.289576 93.377 171.3416
155.407622 93.372 171.4795
156.533770 93.373 171.6536
157.668078 93.380 171.8648
158.810606 93.393 172.0990
159.961413 93.409 172.3350
161.120559 93.429 172.5525
162.288105 93.451 172.7352
163.464112 93.475 172.8707
164.648640 93.500 172.9534
165.841752 93.526 172.9854
167.043510 93.550 172.9727
168.253976 93.573 172.9221
169.473213 93.594 172.8387
170.701286 93.612 172.7257
171.938258 93.627 172.5858
173.184194 93.639 172.4247
174.439158 93.649 172.2504
175.703216 93.656 172.0706
176.976434 93.659 171.8907
178.258878 93.659 171.7135
179.550615 93.654 171.5394
180.851713 93.645 171.3676
182.162239 93.631 171.1971
183.482262 93.616 171.0272
184.811850 93.599 170.8582
186.151073 93.582 170.6938
187.500000 93.564 170.5406
188.858702 93.546 170.4066
190.227250 93.529 170.2965
191.605715 93.512 170.2097
192.994169 93.496 170.1392
194.392685 93.480 170.0767
195.801334 93.464 170.0161
197.220191 93.447 169.9558
198.649330 93.430 169.8964
200.088825 93.413 169.8385
201.538751 93.396 169.7832
202.999184 93.379 169.7311
204.470200 93.361 169.6817
205.951875 93.343 169.6326
207.444287 93.325 169.5819
208.947514 93.307 169.5295
210.461634 93.289 169.4777
211.986726 93.271 169.4286
213.522869 93.254 169.3833
215.070144 93.237 169.3419
216.628631 93.220 169.3040
218.198411 93.202 169.2689
219.779567 93.184 169.2365
221.372180 93.166 169.2070
222.976334 93.149 169.1801
224.592112 93.132 169.1548
226.219600 93.115 169.1302
227.858880 93.099 169.1071
229.510039 93.082 169.0864
231.173164 93.065 169.0683
232.848340 93.048 169.0513
234.535655 93.031 169.0342
236.235197 93.014 169.0168
237.947054 92.997 168.9999
239.671317 92.980 168.9844
241.408074 92.963 168.9710
243.157416 92.946 168.9600
244.919435 92.929 168.9512
246.694223 92.913 168.9440
248.481871 92.897 168.9384
250.282473 92.880 168.9357
252.096123 92.863 168.9384
253.922915 92.846 168.9468
255.762945 92.830 168.9586
257.616309 92.815 168.9703
259.483103 92.800 168.9787
261.363424 92.785 168.9829
263.257372 92.768 168.9841
265.165043 92.750 168.9844
267.086538 92.731 168.9857
269.021957 92.712 168.9895
270.971401 92.693 168.9965
272.934972 92.675 169.0057
274.912771 92.658 169.0151
276.904902 92.642 169.0227
278.911469 92.627 169.0286
280.932577 92.614 169.0340
282.968330 92.601 169.0402
285.018835 92.589 169.0470
287.084199 92.575 169.0527
289.164530 92.562 169.0554
291.259935 92.547 169.0539
293.370525 92.532 169.0495
295.496408 92.516 169.0444
297.637697 92.500 169.0408
299.794503 92.485 169.0400
301.966937 92.469 169.0421
304.155114 92.453 169.0463
306.359147 92.437 169.0516
308.579152 92.422 169.0579
310.815244 92.407 169.0645
313.067539 92.391 169.0712
315.336156 92.374 169.0782
317.621211 92.358 169.0857
319.922826 92.341 169.0942
322.241118 92.324 169.1038
324.576210 92.307 169.1146
326.928223 92.290 169.1265
329.297280 92.272 169.1395
331.683504 92.255 169.1538
334.087019 92.237 169.1694
336.507952 92.219 169.1863
338.946427 92.201 169.2050
341.402572 92.183 169.2253
343.876516 92.165 169.2479
346.368387 92.146 169.2729
348.878315 92.128 169.3006
351.406431 92.109 169.3311
353.952867 92.090 169.3647
356.517756 92.072 169.4017
359.101230 92.053 169.4424
361.703426 92.034 169.4871
364.324478 92.016 169.5357
366.964523 91.998 169.5886
369.623699 91.980 169.6458
372.302145 91.962 169.7073
375.000000 91.946 169.7728
377.717405 91.930 169.8416
380.454501 91.916 169.9128
383.211431 91.903 169.9849
385.988339 91.891 170.0560
388.785369 91.881 170.1240
391.602668 91.871 170.1862
394.440383 91.863 170.2400
397.298660 91.855 170.2835
400.177650 91.847 170.3159
403.077502 91.839 170.3373
405.998368 91.830 170.3488
408.940400 91.820 170.3521
411.903750 91.808 170.3492
414.888575 91.795 170.3427
417.895028 91.780 170.3361
420.923268 91.765 170.3329
423.973452 91.748 170.3358
427.045738 91.730 170.3457
430.140287 91.711 170.3616
433.257261 91.693 170.3820
436.396822 91.674 170.4048
439.559133 91.656 170.4294
442.744360 91.638 170.4557
445.952668 91.619 170.4836
449.184225 91.601 170.5128
452.439199 91.582 170.5431
455.717760 91.562 170.5747
459.020079 91.542 170.6083
462.346327 91.522 170.6441
465.696680 91.502 170.6821
469.071310 91.481 170.7222
472.470394 91.460 170.7644
475.894109 91.438 170.8087
479.342634 91.417 170.8551
482.816148 91.395 170.9038
486.314833 91.374 170.9550
489.838871 91.352 171.0089
493.388445 91.330 171.0654
496.963741 91.308 171.1246
500.564945 91.286 171.1865
504.192245 91.263 171.2508
507.845830 91.241 171.3177
511.525890 91.218 171.3876
515.232618 91.195 171.4607
518.966206 91.172 171.5370
522.726849 91.149 171.6170
526.514743 91.125 171.7004
530.330086 91.102 171.7874
534.173076 91.079 171.8777
538.043915 91.055 171.9711
541.942803 91.032 172.0676
545.869944 91.009 172.1669
549.825542 90.985 172.2688
553.809805 90.962 172.3735
557.822939 90.939 172.4811
561.865154 90.916 172.5914
565.936660 90.892 172.7047
570.037671 90.869 172.8210
574.168399 90.846 172.9405
578.329060 90.822 173.0632
582.519870 90.799 173.1891
586.741049 90.775 173.3181
590.992817 90.752 173.4501
595.275394 90.729 173.5852
599.589005 90.706 173.7238
603.933874 90.683 173.8661
608.310228 90.660 174.0123
612.718295 90.637 174.1623
617.158304 90.614 174.3163
621.630488 90.591 174.4741
626.135079 90.569 174.6357
630.672311 90.546 174.8010
635.242423 90.524 174.9700
639.845651 90.501 175.1427
644.482237 90.479 175.3193
649.152421 90.457 175.4997
653.856447 90.435 175.6840
658.594560 90.414 175.8721
663.367008 90.392 176.0643
668.174039 90.371 176.2610
673.015903 90.350 176.4622
677.892854 90.329 176.6682
682.805145 90.309 176.8789
687.753032 90.289 177.0942
692.736774 90.269 177.3142
697.756631 90.249 177.5387
702.812863 90.230 177.7677
707.905735 90.211 178.0015
713.035511 90.193 178.2399
718.202461 90.175 178.4832
723.406852 90.158 178.7313
728.648956 90.141 178.9841
733.929047 90.124 179.2418
739.247399 90.109 179.5040
744.604290 90.094 179.7709
750.000000 90.079 -179.9575
755.434809 90.065 -179.6813
760.909001 90.052 -179.4003
766.422861 90.039 -179.1146
771.976677 90.028 -178.8242
777.570739 90.016 -178.5290
783.205337 90.006 -178.2294
788.880766 89.997 -177.9255
794.597321 89.989 -177.6178
800.355301 89.981 -177.3061
806.155005 89.975 -176.9904
811.996736 89.969 -176.6709
817.880799 89.965 -176.3477
823.807501 89.962 -176.0209
829.777150 89.960 -175.6909
835.790057 89.959 -175.3578
841.846536 89.960 -175.0220
847.946903 89.961 -174.6838
854.091476 89.965 -174.3434
860.280575 89.969 -174.0015
866.514523 89.975 -173.6583
872.793644 89.982 -173.3141
879.118267 89.990 -172.9692
885.488720 90.000 -172.6240
891.905336 90.011 -172.2786
898.368450 90.024 -171.9337
904.878398 90.039 -171.5898
911.435520 90.054 -171.2474
918.040157 90.072 -170.9069
924.692655 90.091 -170.5687
931.393359 90.111 -170.2336
938.142619 90.133 -169.9021
944.940787 90.156 -169.5745
951.788218 90.181 -169.2513
958.685268 90.207 -168.9329
965.632296 90.235 -168.6198
972.629666 90.264 -168.3128
979.677741 90.294 -168.0126
986.776890 90.326 -167.7197
993.927482 90.358 -167.4347
1001.129891 90.392 -167.1581
1008.384491 90.427 -166.8903
1015.691660 90.463 -166.6313
1023.051781 90.499 -166.3813
1030.465236 90.537 -166.1406
1037.932411 90.575 -165.9091
1045.453698 90.614 -165.6871
1053.029486 90.653 -165.4747
1060.660172 90.693 -165.2723
1068.346153 90.734 -165.0800
1076.087829 90.774 -164.8979
1083.885605 90.815 -164.7259
1091.739887 90.856 -164.5638
1099.651084 90.897 -164.4116
1107.619609 90.938 -164.2689
1115.645878 90.978 -164.1357
1123.730308 91.019 -164.0118
1131.873321 91.059 -163.8972
1140.075341 91.098 -163.7913
1148.336797 91.137 -163.6936
1156.658119 91.176 -163.6038
1165.039741 91.214 -163.5216
1173.482099 91.251 -163.4465
1181.985634 91.287 -163.3781
1190.550789 91.323 -163.3159
1199.178011 91.358 -163.2592
1207.867749 91.392 -163.2075
1216.620457 91.426 -163.1601
1225.436590 91.458 -163.1166
1234.316609 91.490 -163.0764
1243.260976 91.520 -163.0391
1252.270157 91.550 -163.0040
1261.344623 91.579 -162.9709
1270.484846 91.607 -162.9392
1279.691303 91.634 -162.9084
1288.964474 91.661 -162.8782
1298.304842 91.686 -162.8483
1307.712894 91.711 -162.8182
1317.189120 91.735 -162.7876
1326.734016 91.759 -162.7561
1336.348077 91.782 -162.7235
1346.031806 91.804 -162.6893
1355.785708 91.826 -162.6534
1365.610290 91.847 -162.6154
1375.506065 91.867 -162.5751
1385.473549 91.887 -162.5323
1395.513261 91.907 -162.4867
1405.625726 91.926 -162.4380
1415.811469 91.946 -162.3863
1426.071023 91.964 -162.3312
1436.404921 91.983 -162.2729
1446.813703 92.001 -162.2112
1457.297912 92.020 -162.1461
1467.858093 92.038 -162.0775
1478.494798 92.057 -162.0054
1489.208581 92.075 -161.9297
1500.000000 92.094 -161.8506
1510.869618 92.112 -161.7681
1521.818002 92.131 -161.6820
1532.845723 92.150 -161.5925
1543.953355 92.169 -161.4995
1555.141477 92.189 -161.4030
1566.410674 92.209 -161.3029
1577.761531 92.229 -161.1993
1589.194642 92.250 -161.0927
1600.710601 92.271 -160.9831
1612.310010 92.293 -160.8708
1623.993473 92.316 -160.7559
1635.761599 92.339 -160.6384
1647.615002 92.362 -160.5184
1659.554299 92.387 -160.3959
1671.580114 92.412 -160.2712
1683.693072 92.437 -160.1445
1695.893807 92.464 -160.0161
1708.182952 92.491 -159.8861
1720.561150 92.519 -159.7550
1733.029045 92.548 -159.6230
1745.587288 92.578 -159.4903
1758.236533 92.609 -159.3570
1770.977440 92.641 -159.2232
1783.810673 92.674 -159.0892
1796.736900 92.707 -158.9551
1809.756796 92.742 -158.8213
1822.871040 92.778 -158.6879
1836.080315 92.815 -158.5555
1849.385310 92.853 -158.4243
1862.786718 92.892 -158.2948
1876.285239 92.932 -158.1672
1889.881575 92.974 -158.0419
1903.576436 93.016 -157.9188
1917.370535 93.060 -157.7984
1931.264593 93.105 -157.6807
1945.259332 93.151 -157.5663
1959.355483 93.198 -157.4559
1973.553781 93.247 -157.3501
1987.854965 93.297 -157.2498
2002.259781 93.348 -157.1549
2016.768981 93.401 -157.0656
2031.383320 93.455 -156.9821
2046.103561 93.510 -156.9048
2060.930471 93.566 -156.8340
2075.864823 93.624 -156.7704
2090.907395 93.682 -156.7145
2106.058972 93.742 -156.6669
2121.320344 93.803 -156.6281
2136.692305 93.865 -156.5985
2152.175658 93.929 -156.5787
2167.771210 93.993 -156.5694
2183.479774 94.059 -156.5709
2199.302169 94.126 -156.5839
2215.239219 94.193 -156.6086
2231.291755 94.262 -156.6459
2247.460615 94.331 -156.6960
2263.746641 94.401 -156.7598
2280.150683 94.472 -156.8375
2296.673595 94.543 -156.9298
2313.316238 94.616 -157.0369
2330.079481 94.688 -157.1589
2346.964198 94.761 -157.2962
2363.971268 94.835 -157.4492
2381.101578 94.909 -157.6185
2398.356022 94.983 -157.8046
2415.735498 95.057 -158.0078
2433.240913 95.131 -158.2284
2450.873180 95.205 -158.4667
2468.633217 95.279 -158.7227
2486.521951 95.353 -158.9965
2504.540314 95.426 -159.2883
2522.689246 95.499 -159.5985
2540.969692 95.572 -159.9273
2559.382606 95.643 -160.2751
2577.928947 95.715 -160.6425
2596.609683 95.786 -161.0297
2615.425787 95.856 -161.4375
2634.378241 95.925 -161.8665
2653.468031 95.993 -162.3176
2672.696154 96.061 -162.7921
2692.063613 96.127 -163.2911
2711.571415 96.192 -163.8162
2731.220579 96.255 -164.3683
2751.012130 96.316 -164.9487
2770.947098 96.374 -165.5582
2791.026522 96.430 -166.1972
2811.251451 96.482 -166.8658
2831.622938 96.530 -167.5634
2852.142045 96.574 -168.2890
2872.809842 96.613 -169.0410
2893.627406 96.647 -169.8173
2914.595823 96.675 -170.6155
2935.716186 96.696 -171.4323
2956.989596 96.711 -172.2646
2978.417161 96.719 -173.1087
3000.000000 96.719 -173.9606
3021.739237 96.713 -174.8163
3043.636005 96.699 -175.6714
3065.691446 96.677 -176.5216
3087.906710 96.649 -177.3625
3110.282955 96.614 -178.1901
3132.821347 96.572 -179.0004
3155.523062 96.523 -179.7899
3178.389283 96.470 179.4443
3201.421202 96.411 178.7049
3224.620020 96.348 177.9940
3247.986946 96.281 177.3128
3271.523198 96.211 176.6618
3295.230004 96.139 176.0406
3319.108599 96.065 175.4485
3343.160228 95.990 174.8853
3367.386145 95.912 174.3505
3391.787613 95.833 173.8436
3416.365904 95.752 173.3635
3441.122300 95.669 172.9088
3466.058091 95.583 172.4785
3491.174576 95.496 172.0720
3516.473066 95.407 171.6899
3541.954880 95.316 171.3331
3567.621345 95.224 171.0030
3593.473800 95.131 170.7007
3619.513592 95.038 170.4274
3645.742080 94.943 170.1841
3672.160630 94.849 169.9714
3698.770620 94.756 169.7890
3725.573436 94.664 169.6357
3752.570477 94.574 169.5092
3779.763150 94.486 169.4058
3807.152872 94.400 169.3214
3834.741071 94.317 169.2512
3862.529185 94.237 169.1910
3890.518664 94.159 169.1370
3918.710966 94.082 169.0864
3947.107561 94.007 169.0377
3975.709929 93.933 168.9909
4004.519563 93.859 168.9465
4033.537962 93.785 168.9059
4062.766641 93.710 168.8707
4092.207123 93.635 168.8424
4121.860942 93.560 168.8229
4151.729646 93.485 168.8137
4181.814790 93.409 168.8160
4212.117944 93.334 168.8311
4242.640687 93.258 168.8597
4273.384610 93.183 168.9022
4304.351317 93.108 168.9587
4335.542421 93.035 169.0289
4366.959549 92.962 169.1118
4398.604338 92.892 169.2054
4430.478438 92.822 169.3080
4462.583511 92.754 169.4169
4494.921231 92.688 169.5298
4527.493283 92.624 169.6441
4560.301365 92.561 169.7578
4593.347189 92.499 169.8691
4626.632476 92.437 169.9767
4660.158962 92.376 170.0802
4693.928395 92.316 170.1794
4727.942535 92.254 170.2750
4762.203156 92.192 170.3680
4796.712043 92.129 170.4597
4831.470996 92.065 170.5518
4866.481826 91.999 170.6461
4901.746360 91.932 170.7449
4937.266434 91.863 170.8510
4973.043902 91.792 170.9668
5009.080628 91.719 171.0956
5045.378492 91.644 171.2405
5081.939384 91.568 171.4047
5118.765212 91.490 171.5915
5155.857894 91.411 171.8040
5193.219366 91.331 172.0454
5230.851574 91.251 172.3184
5268.756481 91.172 172.6252
5306.936062 91.094 172.9673
5345.392309 91.017 173.3452
5384.127225 90.943 173.7584
5423.142830 90.873 174.2052
5462.441159 90.808 174.6823
5502.024259 90.747 175.1851
5541.894195 90.693 175.7076
5582.053045 90.644 176.2428
5622.502902 90.602 176.7827
5663.245876 90.565 177.3195
5704.284090 90.535 177.8458
5745.619684 90.508 178.3558
5787.254813 90.485 178.8455
5829.191647 90.464 179.3131
5871.432373 90.444 179.7596
5913.979192 90.424 -179.8119
5956.834323 90.403 -179.3960
6000.000000 90.380 -178.9859
6043.478473 90.354 -178.5737
6087.272010 90.327 -178.1512
6131.382892 90.297 -177.7103
6175.813420 90.266 -177.2433
6220.565910 90.234 -176.7439
6265.642695 90.203 -176.2068
6311.046124 90.173 -175.6282
6356.778566 90.145 -175.0057
6402.842404 90.122 -174.3383
6449.240040 90.104 -173.6257
6495.973891 90.092 -172.8691
6543.046396 90.089 -172.0707
6590.460007 90.094 -171.2335
6638.217197 90.110 -170.3615
6686.320456 90.138 -169.4603
6734.772290 90.177 -168.5365
6783.575226 90.230 -167.5972
6832.731809 90.298 -166.6492
6882.244600 90.381 -165.7001
6932.116181 90.482 -164.7589
6982.349153 90.602 -163.8369
7032.946133 90.741 -162.9468
7083.909760 90.901 -162.1030
7135.242690 91.081 -161.3204
7186.947600 91.284 -160.6143
7239.027185 91.509 -160.0005
7291.484160 91.757 -159.4983
7344.321260 92.031 -159.1345
7397.541239 92.329 -158.9453
7451.146872 92.652 -158.9736
7505.140954 92.996 -159.2633
7559.526299 93.355 -159.8565
7614.305743 93.725 -160.7917
7669.482141 94.096 -162.1024
7725.058371 94.459 -163.8141
7781.037328 94.802 -165.9409
7837.421932 95.112 -168.4794
7894.215122 95.374 -171.4052
7951.419859 95.576 -174.6670
8009.039125 95.705 -178.1858
8067.075924 95.753 178.1451
8125.533282 95.718 174.4509
8184.414245 95.608 170.8543
8243.721885 95.440 167.4394
8303.459292 95.235 164.2089
8363.629581 95.007 161.0760
8424.235888 94.747 157.9405
8485.281374 94.432 154.8101
8546.769221 94.041 151.8264
8608.702634 93.571 149.1769
8671.084842 93.035 147.0138
8733.919097 92.455 145.4237
8797.208675 91.858 144.4294
8860.956876 91.269 143.9983
8925.167022 90.710 144.0466
8989.842461 90.201 144.4457
9054.986566 89.750 145.0377
9120.602731 89.356 145.6692
9186.694378 89.007 146.2312
9253.264952 88.686 146.6816
9320.317925 88.378 147.0377
9387.856790 88.071 147.3474
9455.885071 87.759 147.6631
9524.406312 87.442 148.0266
9593.424086 87.120 148.4671
9662.941992 86.795 149.0070
9732.963653 86.468 149.6664
9803.492719 86.141 150.4665
9874.532869 85.820 151.4266
9946.087805 85.510 152.5581
10018.161257 85.218 153.8549
10090.756983 84.951 155.2878
10163.878768 84.717 156.8046
10237.530423 84.517 158.3367
10311.715789 84.351 159.8129
10386.438732 84.215 161.1718
10461.703149 84.102 162.3713
10537.512962 84.001 163.3914
10613.872125 83.905 164.2333
10690.784618 83.805 164.9155
10768.254450 83.695 165.4690
10846.285661 83.568 165.9327
10924.882318 83.421 166.3506
11004.048518 83.254 166.7678
11083.788390 83.065 167.2286
11164.106090 82.856 167.7734
11245.005805 82.630 168.4371
11326.491752 82.392 169.2471
11408.568180 82.145 170.2225
11491.239368 81.895 171.3736
11574.509626 81.648 172.7020
11658.383294 81.407 174.2018
11742.864745 81.178 175.8614
11827.958384 80.964 177.6644
11913.668646 80.768 179.5915
12000.000000 80.591 -178.3776
12086.956947 80.434 -176.2623
12174.544019 80.298 -174.0789
12262.765784 80.183 -171.8398
12351.626840 80.089 -169.5537
12441.131819 80.017 -167.2272
12531.285389 79.966 -164.8688
12622.092249 79.939 -162.4919
12713.557132 79.936 -160.1142
12805.684808 79.957 -157.7546
12898.480079 80.001 -155.4299
12991.947783 80.068 -153.1525
13086.092792 80.158 -150.9314
13180.920015 80.269 -148.7744
13276.434395 80.404 -146.6891
13372.640911 80.562 -144.6849
13469.544580 80.747 -142.7734
13567.150452 80.960 -140.9696
13665.463617 81.202 -139.2926
13764.489200 81.474 -137.7646
13864.232362 81.779 -136.4121
13964.698305 82.118 -135.2667
14065.892266 82.492 -134.3676
14167.819519 82.901 -133.7628
14270.485380 83.346 -133.5085
14373.895200 83.821 -133.6669
14478.054370 84.320 -134.3016
14582.968320 84.833 -135.4730
14688.642520 85.345 -137.2322
14795.082478 85.842 -139.6147
14902.293745 86.305 -142.6328
15010.281908 86.713 -146.2693
15119.052599 87.045 -150.4725
15228.611486 87.283 -155.1532
15338.964283 87.410 -160.1868
15450.116741 87.415 -165.4193
15562.074656 87.294 -170.6796
15674.843864 87.049 -175.7952
15788.430244 86.688 179.3928
15902.839718 86.226 175.0167
16018.078250 85.680 171.1747
16134.151848 85.072 167.9289
16251.066563 84.420 165.3066
16368.828491 83.744 163.3049
16487.443769 83.061 161.8965
16606.918584 82.384 161.0363
16727.259161 81.725 160.6678
16848.471777 81.092 160.7289
16970.562748 80.491 161.1575
17093.538442 79.923 161.8977
17217.405268 79.389 162.9070
17342.169684 78.890 164.1626
17467.838194 78.427 165.6633
17594.417350 78.004 167.4167
17721.913751 77.634 169.3999
17850.334044 77.333 171.4973
17979.684923 77.113 173.4650
18109.973131 76.965 174.9997
18241.205462 76.855 175.8925
18373.388756 76.743 176.1169
18506.529905 76.595 175.7793
18640.635849 76.392 175.0221
18775.713581 76.124 173.9661
18911.770141 75.785 172.7007
19048.812624 75.373 171.2960
19186.848172 74.885 169.8162
19325.883983 74.325 168.3291
19465.927305 73.703 166.9093
19606.985439 73.048 165.6392
19749.065738 72.417 164.6033
19892.175609 71.900 163.8754
20036.322514 71.604 163.5032
