* Measurement data measured by REW V5.31.3
* Source: Headset (CX31993 HIFI AUDIO), MICROPHONE (Master Volume), R, volume: 0.400
* Format: 256k Log Swept Sine, 1 sweep at -11.9 dBFS with no timing reference
* Dated: 05 20, 25 10:45:07 AM
* REW Settings:
*  C-weighting compensation: Off
*  Target level: 75.0 dB
* Note: ; 
* Measurement: Twistura Sigma L
* Smoothing: 1/12 octave
* Frequency Step: 96 ppo
* Start Frequency: 0.36621094 Hz
*
* Freq(Hz) SPL(dB) Phase(degrees)
0.366211 71.528 157.1820
0.368865 71.504 157.1616
0.371538 71.469 157.1308
0.374230 71.425 157.0917
0.376942 71.376 157.0461
0.379673 71.323 156.9953
0.382424 71.267 156.9402
0.385196 71.210 156.8812
0.387987 71.152 156.8188
0.390798 71.093 156.7529
0.393630 71.034 156.6837
0.396483 70.974 156.6112
0.399356 70.913 156.5353
0.402250 70.852 156.4560
0.405165 70.791 156.3733
0.408101 70.729 156.2871
0.411058 70.667 156.1973
0.414037 70.604 156.1040
0.417037 70.541 156.0069
0.420059 70.477 155.9062
0.423103 70.413 155.8017
0.426169 70.349 155.6934
0.429257 70.284 155.5812
0.432368 70.218 155.4650
0.435501 70.152 155.3448
0.438656 70.086 155.2205
0.441835 70.019 155.0920
0.445037 69.951 154.9594
0.448262 69.883 154.8224
0.451510 69.815 154.6811
0.454782 69.746 154.5354
0.458077 69.677 154.3851
0.461397 69.607 154.2303
0.464740 69.536 154.0708
0.468108 69.466 153.9066
0.471500 69.394 153.7375
0.474917 69.322 153.5636
0.478358 69.250 153.3846
0.481825 69.177 153.2007
0.485316 69.103 153.0115
0.488833 69.029 152.8171
0.492375 68.955 152.6174
0.495943 68.879 152.4122
0.499537 68.804 152.2016
0.503157 68.728 151.9853
0.506803 68.651 151.7633
0.510475 68.574 151.5355
0.514175 68.496 151.3018
0.517900 68.417 151.0621
0.521653 68.338 150.8162
0.525434 68.259 150.5641
0.529241 68.178 150.3057
0.533076 68.098 150.0408
0.536939 68.016 149.7694
0.540830 67.934 149.4912
0.544749 67.852 149.2063
0.548696 67.769 148.9145
0.552673 67.685 148.6155
0.556677 67.601 148.3095
0.560711 67.516 147.9961
0.564774 67.430 147.6753
0.568867 67.344 147.3469
0.572989 67.257 147.0108
0.577141 67.170 146.6669
0.581324 67.082 146.3149
0.585536 66.993 145.9549
0.589779 66.904 145.5866
0.594053 66.814 145.2098
0.598358 66.723 144.8245
0.602694 66.632 144.4304
0.607061 66.540 144.0275
0.611460 66.448 143.6154
0.615891 66.354 143.1942
0.620354 66.260 142.7635
0.624849 66.166 142.3232
0.629377 66.071 141.8732
0.633938 65.975 141.4133
0.638532 65.878 140.9432
0.643159 65.780 140.4627
0.647819 65.682 139.9718
0.652514 65.584 139.4700
0.657242 65.484 138.9573
0.662005 65.384 138.4333
0.666802 65.283 137.8980
0.671634 65.181 137.3509
0.676501 65.079 136.7918
0.681403 64.976 136.2205
0.686341 64.872 135.6365
0.691314 64.768 135.0396
0.696324 64.663 134.4293
0.701370 64.558 133.8050
0.706452 64.454 133.1660
0.711571 64.350 132.5110
0.716728 64.250 131.8386
0.721921 64.155 131.1460
0.727153 64.068 130.4295
0.732422 63.992 129.6840
0.737729 63.929 128.9026
0.743075 63.879 128.0778
0.748460 63.839 127.2015
0.753883 63.808 126.2656
0.759346 63.783 125.2620
0.764849 63.764 124.1819
0.770391 63.749 123.0160
0.775974 63.739 121.7542
0.781597 63.731 120.3847
0.787261 63.727 118.8946
0.792966 63.727 117.2688
0.798712 63.730 115.4901
0.804500 63.736 113.5391
0.810329 63.746 111.3936
0.816201 63.758 109.0284
0.822116 63.774 106.4157
0.828073 63.794 103.5252
0.834074 63.817 100.3244
0.840118 63.843 96.7808
0.846206 63.872 92.8641
0.852338 63.905 88.5499
0.858514 63.941 83.8254
0.864735 63.981 78.6959
0.871001 64.023 73.1914
0.877313 64.069 67.3723
0.883670 64.119 61.3294
0.890074 64.171 55.1785
0.896524 64.227 49.0482
0.903020 64.287 43.0637
0.909564 64.349 37.3318
0.916155 64.414 31.9315
0.922794 64.483 26.9107
0.929481 64.555 22.2886
0.936216 64.630 18.0625
0.943000 64.708 14.2140
0.949834 64.789 10.7158
0.956717 64.873 7.5361
0.963649 64.960 4.6420
0.970632 65.050 2.0019
0.977666 65.143 -0.4139
0.984750 65.239 -2.6324
0.991886 65.337 -4.6776
0.999074 65.438 -6.5707
1.006314 65.541 -8.3307
1.013606 65.648 -9.9737
1.020951 65.756 -11.5143
1.028349 65.867 -12.9650
1.035801 65.980 -14.3367
1.043307 66.095 -15.6394
1.050867 66.213 -16.8813
1.058482 66.333 -18.0702
1.066152 66.455 -19.2127
1.073878 66.579 -20.3148
1.081660 66.706 -21.3818
1.089498 66.837 -22.4183
1.097393 66.971 -23.4282
1.105345 67.111 -24.4148
1.113355 67.256 -25.3804
1.121423 67.408 -26.3268
1.129549 67.566 -27.2551
1.137734 67.732 -28.1660
1.145979 67.906 -29.0600
1.154283 68.086 -29.9375
1.162647 68.274 -30.7988
1.171072 68.468 -31.6442
1.179558 68.669 -32.4739
1.188106 68.876 -33.2883
1.196715 69.090 -34.0876
1.205387 69.309 -34.8722
1.214122 69.533 -35.6422
1.222920 69.763 -36.3981
1.231782 69.997 -37.1401
1.240708 70.235 -37.8686
1.249699 70.478 -38.5838
1.258754 70.724 -39.2861
1.267876 70.973 -39.9758
1.277063 71.224 -40.6532
1.286318 71.478 -41.3186
1.295639 71.734 -41.9724
1.305027 71.990 -42.6149
1.314484 72.247 -43.2463
1.324009 72.504 -43.8671
1.333604 72.761 -44.4775
1.343268 73.016 -45.0778
1.353002 73.270 -45.6684
1.362806 73.521 -46.2497
1.372681 73.769 -46.8218
1.382628 74.014 -47.3852
1.392647 74.254 -47.9402
1.402739 74.488 -48.4872
1.412904 74.718 -49.0267
1.423142 74.940 -49.5590
1.433455 75.156 -50.0849
1.443843 75.365 -50.6052
1.454305 75.567 -51.1208
1.464844 75.762 -51.6329
1.475459 75.951 -52.1427
1.486150 76.133 -52.6514
1.496920 76.311 -53.1598
1.507767 76.483 -53.6684
1.518693 76.651 -54.1774
1.529698 76.815 -54.6868
1.540783 76.974 -55.1966
1.551948 77.130 -55.7066
1.563194 77.282 -56.2166
1.574521 77.430 -56.7265
1.585931 77.575 -57.2361
1.597423 77.716 -57.7453
1.608999 77.855 -58.2538
1.620658 77.990 -58.7615
1.632402 78.123 -59.2684
1.644232 78.253 -59.7742
1.656146 78.381 -60.2790
1.668147 78.506 -60.7826
1.680235 78.630 -61.2849
1.692411 78.752 -61.7859
1.704675 78.873 -62.2857
1.717028 78.992 -62.7840
1.729470 79.111 -63.2811
1.742003 79.229 -63.7768
1.754626 79.347 -64.2713
1.767341 79.465 -64.7647
1.780147 79.583 -65.2574
1.793047 79.701 -65.7496
1.806040 79.820 -66.2420
1.819128 79.938 -66.7354
1.832310 80.057 -67.2310
1.845587 80.174 -67.7298
1.858961 80.291 -68.2328
1.872432 80.406 -68.7406
1.886001 80.519 -69.2534
1.899667 80.631 -69.7710
1.913433 80.740 -70.2932
1.927299 80.848 -70.8193
1.941265 80.954 -71.3488
1.955332 81.057 -71.8811
1.969501 81.159 -72.4154
1.983773 81.260 -72.9511
1.998148 81.358 -73.4875
2.012627 81.455 -74.0241
2.027212 81.551 -74.5602
2.041902 81.645 -75.0951
2.056698 81.739 -75.6283
2.071602 81.831 -76.1592
2.086614 81.922 -76.6873
2.101734 82.012 -77.2121
2.116964 82.102 -77.7332
2.132304 82.190 -78.2504
2.147756 82.279 -78.7635
2.163320 82.366 -79.2730
2.178996 82.453 -79.7793
2.194786 82.540 -80.2836
2.210690 82.625 -80.7872
2.226710 82.709 -81.2915
2.242845 82.792 -81.7976
2.259098 82.873 -82.3061
2.275468 82.953 -82.8172
2.291957 83.031 -83.3308
2.308566 83.108 -83.8465
2.325295 83.183 -84.3637
2.342145 83.257 -84.8820
2.359117 83.329 -85.4006
2.376212 83.400 -85.9188
2.393431 83.470 -86.4360
2.410775 83.539 -86.9513
2.428244 83.607 -87.4642
2.445840 83.674 -87.9738
2.463564 83.740 -88.4796
2.481416 83.806 -88.9808
2.499397 83.870 -89.4772
2.517509 83.934 -89.9683
2.535752 83.998 -90.4544
2.554127 84.060 -90.9359
2.572635 84.122 -91.4137
2.591277 84.183 -91.8889
2.610055 84.242 -92.3624
2.628968 84.300 -92.8350
2.648019 84.357 -93.3070
2.667208 84.413 -93.7786
2.686535 84.468 -94.2496
2.706003 84.521 -94.7198
2.725612 84.573 -95.1887
2.745363 84.625 -95.6560
2.765257 84.675 -96.1211
2.785295 84.724 -96.5835
2.805478 84.773 -97.0427
2.825808 84.822 -97.4979
2.846285 84.869 -97.9489
2.866910 84.917 -98.3951
2.887685 84.964 -98.8362
2.908611 85.010 -99.2721
2.929688 85.056 -99.7031
2.950917 85.102 -100.1296
2.972301 85.146 -100.5520
2.993839 85.190 -100.9709
3.015534 85.233 -101.3867
3.037386 85.276 -101.7996
3.059396 85.317 -102.2097
3.081565 85.358 -102.6171
3.103896 85.398 -103.0217
3.126388 85.438 -103.4235
3.149043 85.477 -103.8223
3.171862 85.517 -104.2179
3.194847 85.555 -104.6102
3.217998 85.594 -104.9988
3.241317 85.633 -105.3836
3.264805 85.672 -105.7644
3.288463 85.711 -106.1408
3.312293 85.750 -106.5129
3.336295 85.788 -106.8805
3.360471 85.827 -107.2439
3.384822 85.865 -107.6033
3.409350 85.904 -107.9591
3.434056 85.942 -108.3118
3.458940 85.980 -108.6620
3.484005 86.017 -109.0101
3.509252 86.055 -109.3567
3.534681 86.093 -109.7023
3.560295 86.132 -110.0474
3.586094 86.170 -110.3922
3.612081 86.209 -110.7370
3.638255 86.247 -111.0818
3.664620 86.287 -111.4265
3.691175 86.326 -111.7709
3.717923 86.366 -112.1147
3.744864 86.406 -112.4579
3.772001 86.447 -112.8006
3.799335 86.487 -113.1433
3.826866 86.528 -113.4865
3.854597 86.569 -113.8308
3.882529 86.610 -114.1767
3.910664 86.652 -114.5250
3.939002 86.693 -114.8763
3.967546 86.735 -115.2310
3.996296 86.776 -115.5896
4.025255 86.818 -115.9521
4.054423 86.860 -116.3185
4.083804 86.902 -116.6886
4.113396 86.945 -117.0625
4.143204 86.987 -117.4399
4.173227 87.030 -117.8212
4.203468 87.072 -118.2064
4.233928 87.115 -118.5959
4.264609 87.157 -118.9900
4.295512 87.199 -119.3891
4.326639 87.240 -119.7936
4.357992 87.282 -120.2039
4.389572 87.323 -120.6203
4.421380 87.363 -121.0432
4.453419 87.403 -121.4724
4.485691 87.443 -121.9081
4.518196 87.482 -122.3498
4.550936 87.521 -122.7973
4.583914 87.559 -123.2502
4.617131 87.596 -123.7081
4.650589 87.633 -124.1706
4.684289 87.669 -124.6377
4.718233 87.704 -125.1093
4.752424 87.738 -125.5858
4.786862 87.771 -126.0673
4.821549 87.803 -126.5543
4.856488 87.834 -127.0467
4.891680 87.863 -127.5441
4.927127 87.892 -128.0459
4.962831 87.920 -128.5513
4.998794 87.947 -129.0595
5.035017 87.972 -129.5697
5.071503 87.996 -130.0814
5.108253 88.019 -130.5944
5.145270 88.041 -131.1087
5.182555 88.062 -131.6248
5.220110 88.081 -132.1426
5.257937 88.098 -132.6620
5.296038 88.115 -133.1824
5.334415 88.130 -133.7029
5.373071 88.144 -134.2225
5.412006 88.157 -134.7405
5.451224 88.169 -135.2560
5.490725 88.179 -135.7687
5.530514 88.189 -136.2787
5.570590 88.197 -136.7859
5.610957 88.204 -137.2905
5.651616 88.210 -137.7922
5.692570 88.215 -138.2905
5.733821 88.219 -138.7849
5.775370 88.223 -139.2747
5.817221 88.225 -139.7593
5.859375 88.227 -140.2383
5.901834 88.229 -140.7115
5.944602 88.230 -141.1790
5.987679 88.230 -141.6408
6.031068 88.230 -142.0971
6.074771 88.229 -142.5479
6.118792 88.228 -142.9933
6.163131 88.227 -143.4330
6.207792 88.226 -143.8670
6.252776 88.225 -144.2952
6.298086 88.224 -144.7175
6.343725 88.223 -145.1340
6.389694 88.223 -145.5453
6.435996 88.222 -145.9518
6.482634 88.222 -146.3540
6.529610 88.222 -146.7523
6.576926 88.223 -147.1472
6.624585 88.224 -147.5386
6.672590 88.226 -147.9268
6.720942 88.228 -148.3120
6.769645 88.231 -148.6946
6.818700 88.235 -149.0755
6.868111 88.238 -149.4551
6.917881 88.243 -149.8341
6.968010 88.248 -150.2129
7.018504 88.253 -150.5917
7.069362 88.259 -150.9707
7.120590 88.265 -151.3500
7.172189 88.272 -151.7300
7.224161 88.279 -152.1110
7.276511 88.286 -152.4934
7.329239 88.294 -152.8774
7.382350 88.301 -153.2632
7.435845 88.309 -153.6508
7.489729 88.317 -154.0400
7.544002 88.325 -154.4306
7.598669 88.332 -154.8227
7.653732 88.340 -155.2160
7.709194 88.347 -155.6105
7.765058 88.354 -156.0060
7.821327 88.360 -156.4023
7.878004 88.367 -156.7990
7.935091 88.373 -157.1956
7.992592 88.378 -157.5918
8.050510 88.383 -157.9871
8.108847 88.388 -158.3811
8.167607 88.392 -158.7738
8.226793 88.395 -159.1646
8.286408 88.399 -159.5532
8.346454 88.401 -159.9392
8.406936 88.404 -160.3221
8.467856 88.406 -160.7017
8.529218 88.407 -161.0777
8.591024 88.409 -161.4501
8.653278 88.410 -161.8187
8.715983 88.411 -162.1834
8.779143 88.411 -162.5440
8.842760 88.412 -162.9005
8.906839 88.412 -163.2531
8.971381 88.413 -163.6016
9.036392 88.413 -163.9465
9.101873 88.413 -164.2878
9.167829 88.414 -164.6257
9.234263 88.414 -164.9604
9.301178 88.414 -165.2922
9.368578 88.415 -165.6213
9.436467 88.415 -165.9479
9.504847 88.415 -166.2723
9.573723 88.416 -166.5948
9.643099 88.416 -166.9155
9.712976 88.416 -167.2344
9.783361 88.416 -167.5517
9.854255 88.415 -167.8674
9.925663 88.415 -168.1817
9.997588 88.414 -168.4944
10.070035 88.412 -168.8055
10.143007 88.411 -169.1148
10.216507 88.409 -169.4222
10.290540 88.406 -169.7275
10.365109 88.403 -170.0305
10.440219 88.400 -170.3312
10.515873 88.396 -170.6293
10.592076 88.392 -170.9247
10.668830 88.387 -171.2174
10.746141 88.382 -171.5073
10.824012 88.377 -171.7944
10.902447 88.372 -172.0791
10.981451 88.366 -172.3615
11.061027 88.360 -172.6417
11.141180 88.354 -172.9203
11.221913 88.348 -173.1978
11.303232 88.342 -173.4745
11.385140 88.335 -173.7512
11.467641 88.329 -174.0284
11.550741 88.322 -174.3065
11.634442 88.316 -174.5863
11.718750 88.309 -174.8683
11.803669 88.301 -175.1529
11.889203 88.293 -175.4404
11.975357 88.285 -175.7311
12.062136 88.276 -176.0251
12.149543 88.266 -176.3224
12.237583 88.255 -176.6229
12.326262 88.243 -176.9261
12.415583 88.230 -177.2318
12.505552 88.216 -177.5394
12.596172 88.201 -177.8483
12.687449 88.184 -178.1579
12.779387 88.166 -178.4674
12.871992 88.147 -178.7761
12.965268 88.126 -179.0834
13.059220 88.104 -179.3887
13.153852 88.081 -179.6914
13.249170 88.057 -179.9910
13.345179 88.032 179.7130
13.441884 88.006 179.4209
13.539289 87.980 179.1329
13.637401 87.952 178.8495
13.736223 87.924 178.5709
13.835761 87.895 178.2975
13.936021 87.865 178.0295
14.037007 87.835 177.7675
14.138725 87.804 177.5120
14.241180 87.773 177.2636
14.344377 87.742 177.0229
14.448323 87.711 176.7906
14.553021 87.679 176.5670
14.658478 87.649 176.3526
14.764700 87.618 176.1474
14.871691 87.589 175.9512
14.979457 87.561 175.7632
15.088005 87.535 175.5822
15.197339 87.510 175.4063
15.307465 87.488 175.2332
15.418389 87.468 175.0602
15.530117 87.450 174.8839
15.642655 87.435 174.7012
15.756008 87.422 174.5086
15.870182 87.410 174.3032
15.985184 87.400 174.0826
16.101019 87.390 173.8451
16.217694 87.380 173.5901
16.335214 87.370 173.3183
16.453586 87.357 173.0316
16.572815 87.342 172.7332
16.692909 87.324 172.4272
16.813872 87.302 172.1189
16.935713 87.277 171.8142
17.058436 87.249 171.5191
17.182048 87.217 171.2393
17.306556 87.183 170.9800
17.431967 87.147 170.7450
17.558286 87.111 170.5367
17.685521 87.074 170.3556
17.813677 87.039 170.2000
17.942762 87.007 170.0665
18.072783 86.977 169.9498
18.203746 86.950 169.8434
18.335658 86.927 169.7405
18.468526 86.907 169.6341
18.602356 86.890 169.5184
18.737156 86.873 169.3891
18.872934 86.857 169.2441
19.009695 86.840 169.0837
19.147447 86.821 168.9108
19.286197 86.799 168.7299
19.425953 86.773 168.5478
19.566721 86.744 168.3718
19.708510 86.711 168.2092
19.851326 86.675 168.0667
19.995177 86.637 167.9492
20.140070 86.598 167.8592
20.286013 86.560 167.7967
20.433014 86.523 167.7586
20.581080 86.490 167.7393
20.730219 86.460 167.7313
20.880439 86.434 167.7260
21.031747 86.412 167.7148
21.184152 86.393 167.6900
21.337661 86.376 167.6458
21.492282 86.360 167.5789
21.648024 86.343 167.4885
21.804895 86.325 167.3760
21.962902 86.305 167.2449
22.122054 86.283 167.0998
22.282360 86.257 166.9458
22.443827 86.228 166.7877
22.606464 86.197 166.6294
22.770280 86.164 166.4737
22.935283 86.128 166.3227
23.101481 86.092 166.1772
23.268884 86.054 166.0381
23.437500 86.014 165.9062
23.607338 85.974 165.7829
23.778406 85.933 165.6699
23.950714 85.892 165.5697
24.124271 85.851 165.4845
24.299086 85.811 165.4159
24.475167 85.772 165.3636
24.652524 85.737 165.3252
24.831166 85.705 165.2956
25.011103 85.678 165.2670
25.192344 85.656 165.2299
25.374898 85.639 165.1745
25.558775 85.625 165.0916
25.743984 85.614 164.9749
25.930536 85.602 164.8218
26.118439 85.589 164.6343
26.307704 85.572 164.4185
26.498341 85.551 164.1844
26.690359 85.524 163.9434
26.883768 85.492 163.7074
27.078579 85.455 163.4869
27.274801 85.414 163.2895
27.472446 85.371 163.1190
27.671522 85.327 162.9763
27.872042 85.282 162.8596
28.074014 85.238 162.7664
28.277450 85.194 162.6947
28.482360 85.149 162.6444
28.688755 85.105 162.6174
28.896645 85.061 162.6167
29.106042 85.018 162.6451
29.316957 84.977 162.7024
29.529400 84.939 162.7843
29.743382 84.907 162.8815
29.958915 84.881 162.9803
30.176009 84.859 163.0654
30.394677 84.842 163.1233
30.614929 84.825 163.1462
30.836778 84.806 163.1350
31.060234 84.783 163.0991
31.285309 84.752 163.0555
31.512015 84.715 163.0247
31.740364 84.673 163.0259
31.970368 84.628 163.0716
32.202039 84.585 163.1643
32.435388 84.545 163.2952
32.670428 84.512 163.4465
32.907171 84.487 163.5963
33.145630 84.467 163.7244
33.385817 84.451 163.8182
33.627745 84.436 163.8746
33.871425 84.420 163.8992
34.116871 84.401 163.9026
34.364096 84.380 163.8950
34.613113 84.357 163.8818
34.863934 84.335 163.8616
35.116572 84.313 163.8274
35.371041 84.291 163.7708
35.627354 84.267 163.6882
35.885525 84.238 163.5858
36.145566 84.202 163.4809
36.407492 84.157 163.4003
36.671316 84.107 163.3730
36.937051 84.055 163.4219
37.204712 84.008 163.5539
37.474313 83.971 163.7550
37.745867 83.950 163.9895
38.019389 83.946 164.2079
38.294893 83.957 164.3600
38.572394 83.977 164.4094
38.851905 83.997 164.3441
39.133442 84.009 164.1795
39.417019 84.007 163.9546
39.702651 83.987 163.7212
39.990353 83.953 163.5307
40.280140 83.908 163.4220
40.572026 83.859 163.4125
40.866028 83.815 163.4950
41.162160 83.778 163.6421
41.460438 83.753 163.8163
41.760877 83.736 163.9813
42.063494 83.725 164.1118
42.368303 83.715 164.1982
42.675322 83.702 164.2459
42.984565 83.682 164.2723
43.296048 83.655 164.3026
43.609789 83.621 164.3640
43.925804 83.582 164.4804
44.244108 83.544 164.6641
44.564719 83.513 164.9081
44.887654 83.493 165.1820
45.212928 83.488 165.4371
45.540560 83.495 165.6205
45.870565 83.507 165.6947
46.202962 83.516 165.6531
46.537768 83.513 165.5237
46.875000 83.495 165.3589
47.214676 83.462 165.2151
47.556813 83.421 165.1317
47.901429 83.378 165.1192
48.248542 83.338 165.1627
48.598171 83.304 165.2368
48.950334 83.275 165.3243
49.305048 83.248 165.4247
49.662333 83.223 165.5498
50.022206 83.204 165.7095
50.384688 83.192 165.8985
50.749796 83.190 166.0921
51.117550 83.199 166.2554
51.487969 83.215 166.3574
51.861072 83.231 166.3837
52.236879 83.241 166.3408
52.615409 83.241 166.2521
52.996681 83.229 166.1499
53.380717 83.204 166.0678
53.767536 83.169 166.0336
54.157158 83.128 166.0641
54.549603 83.085 166.1609
54.944892 83.045 166.3121
55.343045 83.010 166.4978
55.744084 82.981 166.6996
56.148028 82.957 166.9065
56.554900 82.941 167.1141
56.964720 82.933 167.3160
57.377510 82.936 167.4951
57.793291 82.952 167.6219
58.212085 82.977 167.6643
58.633914 83.006 167.6024
59.058799 83.033 167.4399
59.486764 83.051 167.2054
59.917829 83.058 166.9429
60.352019 83.054 166.6970
60.789354 83.042 166.4998
61.229859 83.026 166.3633
61.673556 83.009 166.2816
62.120468 82.992 166.2369
62.570618 82.973 166.2095
63.024031 82.949 166.1864
63.480729 82.917 166.1673
63.940736 82.873 166.1658
64.404077 82.818 166.2053
64.870776 82.752 166.3087
65.340856 82.681 166.4871
65.814343 82.611 166.7319
66.291261 82.546 167.0176
66.771635 82.490 167.3109
67.255489 82.443 167.5839
67.742850 82.404 167.8220
68.233743 82.373 168.0263
68.728193 82.348 168.2104
69.226226 82.331 168.3914
69.727867 82.324 168.5802
70.233144 82.326 168.7777
70.742083 82.336 168.9807
71.254709 82.351 169.1914
71.771050 82.366 169.4195
72.291132 82.380 169.6741
72.814984 82.390 169.9554
73.342631 82.394 170.2543
73.874102 82.389 170.5590
74.409424 82.373 170.8586
74.948626 82.346 171.1445
75.491734 82.307 171.4097
76.038779 82.259 171.6477
76.589787 82.207 171.8474
77.144788 82.156 171.9877
77.703811 82.113 172.0415
78.266885 82.080 171.9899
78.834039 82.059 171.8321
79.405303 82.052 171.5818
79.980706 82.059 171.2589
80.560280 82.079 170.8905
81.144053 82.110 170.5127
81.732056 82.150 170.1617
82.324320 82.197 169.8593
82.920876 82.247 169.6093
83.521755 82.295 169.4090
84.126988 82.337 169.2590
84.736607 82.370 169.1589
85.350643 82.395 169.1005
85.969129 82.411 169.0695
86.592097 82.421 169.0538
87.219579 82.425 169.0481
87.851608 82.427 169.0545
88.488217 82.430 169.0802
89.129439 82.438 169.1332
89.775308 82.452 169.2175
90.425856 82.471 169.3345
91.081119 82.493 169.4889
91.741131 82.515 169.6880
92.405925 82.533 169.9320
93.075536 82.544 170.2090
93.750000 82.546 170.4980
94.429351 82.539 170.7715
95.113625 82.520 170.9977
95.802858 82.489 171.1530
96.497085 82.449 171.2341
97.196342 82.401 171.2560
97.900667 82.355 171.2352
98.610096 82.317 171.1793
99.324665 82.291 171.0914
100.044413 82.278 170.9826
100.769376 82.277 170.8781
101.499592 82.286 170.8067
102.235100 82.303 170.7823
102.975938 82.325 170.7947
103.722144 82.350 170.8173
104.473757 82.372 170.8250
105.230817 82.388 170.8058
105.993363 82.395 170.7631
106.761435 82.394 170.7111
107.535072 82.387 170.6693
108.314315 82.379 170.6548
109.099206 82.372 170.6759
109.889783 82.369 170.7311
110.686090 82.369 170.8101
111.488167 82.368 170.8989
112.296056 82.361 170.9870
113.109800 82.345 171.0717
113.929440 82.316 171.1558
114.755020 82.277 171.2406
115.586582 82.230 171.3207
116.424170 82.182 171.3819
117.267827 82.139 171.4034
118.117598 82.103 171.3634
118.973527 82.075 171.2559
119.835658 82.054 171.1018
120.704037 82.040 170.9378
121.578708 82.031 170.7998
122.459718 82.028 170.7151
123.347111 82.030 170.6969
124.240935 82.037 170.7436
125.141236 82.045 170.8443
126.048061 82.053 170.9833
126.961458 82.060 171.1404
127.881473 82.064 171.2943
128.808154 82.063 171.4309
129.741551 82.058 171.5439
130.681712 82.051 171.6297
131.628686 82.043 171.6831
132.582521 82.034 171.7038
133.543269 82.024 171.7051
134.510979 82.012 171.7121
135.485701 81.998 171.7468
136.467486 81.982 171.8162
137.456386 81.965 171.9148
138.452451 81.949 172.0317
139.455735 81.932 172.1508
140.466288 81.917 172.2555
141.484165 81.904 172.3358
142.509418 81.893 172.3897
143.542100 81.882 172.4231
144.582265 81.870 172.4525
145.629968 81.855 172.4997
146.685262 81.838 172.5779
147.748204 81.817 172.6902
148.818849 81.793 172.8364
149.897251 81.766 173.0126
150.983469 81.739 173.2073
152.077557 81.715 173.4032
153.179574 81.693 173.5841
154.289576 81.673 173.7427
155.407622 81.653 173.8828
156.533770 81.632 174.0154
157.668078 81.606 174.1512
158.810606 81.575 174.2970
159.961413 81.535 174.4622
161.120559 81.484 174.6647
162.288105 81.424 174.9224
163.464112 81.359 175.2378
164.648640 81.293 175.5973
165.841752 81.233 175.9822
167.043510 81.181 176.3760
168.253976 81.142 176.7749
169.473213 81.119 177.1996
170.701286 81.117 177.6862
171.938258 81.141 178.2610
173.184194 81.193 178.9267
174.439158 81.271 179.6602
175.703216 81.371 -179.5800
176.976434 81.483 -178.8374
178.258878 81.599 -178.1453
179.550615 81.716 -177.5266
180.851713 81.836 -177.0087
182.162239 81.961 -176.6353
183.482262 82.091 -176.4470
184.811850 82.224 -176.4551
186.151073 82.354 -176.6366
187.500000 82.477 -176.9500
188.858702 82.588 -177.3584
190.227250 82.684 -177.8355
191.605715 82.762 -178.3606
192.994169 82.821 -178.9193
194.392685 82.862 -179.5042
195.801334 82.889 179.8899
197.220191 82.904 179.2729
198.649330 82.910 178.6633
200.088825 82.909 178.0860
201.538751 82.901 177.5667
202.999184 82.889 177.1232
204.470200 82.873 176.7577
205.951875 82.854 176.4546
207.444287 82.831 176.1861
208.947514 82.805 175.9252
210.461634 82.777 175.6578
211.986726 82.747 175.3895
213.522869 82.719 175.1418
215.070144 82.694 174.9398
216.628631 82.672 174.7961
218.198411 82.653 174.7063
219.779567 82.637 174.6507
221.372180 82.622 174.6022
222.976334 82.608 174.5371
224.592112 82.595 174.4460
226.219600 82.583 174.3370
227.858880 82.568 174.2278
229.510039 82.549 174.1330
231.173164 82.525 174.0553
232.848340 82.495 173.9875
234.535655 82.463 173.9238
236.235197 82.431 173.8681
237.947054 82.400 173.8337
239.671317 82.372 173.8323
241.408074 82.344 173.8654
243.157416 82.318 173.9207
244.919435 82.293 173.9760
246.694223 82.270 174.0108
248.481871 82.250 174.0148
250.282473 82.234 173.9865
252.096123 82.223 173.9279
253.922915 82.214 173.8434
255.762945 82.206 173.7427
257.616309 82.196 173.6378
259.483103 82.184 173.5370
261.363424 82.171 173.4430
263.257372 82.158 173.3582
265.165043 82.147 173.2919
267.086538 82.136 173.2579
269.021957 82.127 173.2625
270.971401 82.116 173.2956
272.934972 82.104 173.3344
274.912771 82.089 173.3588
276.904902 82.072 173.3635
278.911469 82.054 173.3564
280.932577 82.036 173.3525
282.968330 82.019 173.3664
285.018835 82.006 173.4072
287.084199 81.994 173.4740
289.164530 81.984 173.5554
291.259935 81.973 173.6336
293.370525 81.962 173.6946
295.496408 81.951 173.7389
297.637697 81.940 173.7776
299.794503 81.927 173.8183
301.966937 81.911 173.8578
304.155114 81.891 173.8871
306.359147 81.869 173.9024
308.579152 81.847 173.9081
310.815244 81.827 173.9092
313.067539 81.808 173.9055
315.336156 81.791 173.8948
317.621211 81.775 173.8804
319.922826 81.760 173.8714
322.241118 81.746 173.8774
324.576210 81.733 173.9023
326.928223 81.720 173.9437
329.297280 81.709 173.9974
331.683504 81.697 174.0602
334.087019 81.685 174.1297
336.507952 81.670 174.2042
338.946427 81.654 174.2805
341.402572 81.636 174.3505
343.876516 81.617 174.4049
346.368387 81.599 174.4409
348.878315 81.582 174.4653
351.406431 81.568 174.4906
353.952867 81.554 174.5266
356.517756 81.541 174.5735
359.101230 81.527 174.6225
361.703426 81.513 174.6660
364.324478 81.500 174.7049
366.964523 81.487 174.7470
369.623699 81.473 174.7967
372.302145 81.459 174.8515
375.000000 81.445 174.9085
377.717405 81.432 174.9710
380.454501 81.422 175.0443
383.211431 81.413 175.1277
385.988339 81.405 175.2118
388.785369 81.397 175.2858
391.602668 81.387 175.3464
394.440383 81.376 175.3990
397.298660 81.364 175.4512
400.177650 81.350 175.5054
403.077502 81.335 175.5587
405.998368 81.319 175.6085
408.940400 81.302 175.6586
411.903750 81.286 175.7186
414.888575 81.271 175.7961
417.895028 81.259 175.8891
420.923268 81.247 175.9855
423.973452 81.237 176.0728
427.045738 81.227 176.1455
430.140287 81.216 176.2033
433.257261 81.203 176.2475
436.396822 81.189 176.2805
439.559133 81.174 176.3073
442.744360 81.160 176.3357
445.952668 81.146 176.3708
449.184225 81.134 176.4084
452.439199 81.122 176.4411
455.717760 81.109 176.4684
459.020079 81.096 176.4970
462.346327 81.080 176.5327
465.696680 81.063 176.5767
469.071310 81.045 176.6287
472.470394 81.024 176.6898
475.894109 81.003 176.7611
479.342634 80.980 176.8412
482.816148 80.958 176.9232
486.314833 80.935 177.0010
489.838871 80.914 177.0775
493.388445 80.893 177.1611
496.963741 80.873 177.2576
500.564945 80.855 177.3645
504.192245 80.837 177.4757
507.845830 80.820 177.5876
511.525890 80.803 177.7023
515.232618 80.787 177.8234
518.966206 80.771 177.9526
522.726849 80.754 178.0875
526.514743 80.737 178.2230
530.330086 80.718 178.3557
534.173076 80.698 178.4857
538.043915 80.678 178.6168
541.942803 80.658 178.7546
545.869944 80.639 178.9049
549.825542 80.621 179.0712
553.809805 80.604 179.2522
557.822939 80.587 179.4409
561.865154 80.569 179.6271
565.936660 80.551 179.8024
570.037671 80.534 179.9640
574.168399 80.516 -179.8870
578.329060 80.499 -179.7499
582.519870 80.482 -179.6235
586.741049 80.465 -179.5025
590.992817 80.448 -179.3773
595.275394 80.432 -179.2388
599.589005 80.417 -179.0849
603.933874 80.403 -178.9192
608.310228 80.389 -178.7458
612.718295 80.376 -178.5685
617.158304 80.362 -178.3876
621.630488 80.349 -178.2007
626.135079 80.334 -178.0040
630.672311 80.317 -177.7964
635.242423 80.299 -177.5811
639.845651 80.281 -177.3641
644.482237 80.263 -177.1504
649.152421 80.247 -176.9425
653.856447 80.231 -176.7395
658.594560 80.215 -176.5379
663.367008 80.200 -176.3335
668.174039 80.185 -176.1212
673.015903 80.170 -175.8980
677.892854 80.155 -175.6609
682.805145 80.142 -175.4070
687.753032 80.130 -175.1377
692.736774 80.118 -174.8617
697.756631 80.107 -174.5876
702.812863 80.096 -174.3170
707.905735 80.084 -174.0462
713.035511 80.072 -173.7719
718.202461 80.059 -173.4943
723.406852 80.047 -173.2163
728.648956 80.035 -172.9402
733.929047 80.025 -172.6654
739.247399 80.016 -172.3905
744.604290 80.008 -172.1161
750.000000 80.003 -171.8462
755.434809 79.998 -171.5842
760.909001 79.995 -171.3289
766.422861 79.993 -171.0737
771.976677 79.991 -170.8084
777.570739 79.987 -170.5256
783.205337 79.983 -170.2227
788.880766 79.979 -169.9030
794.597321 79.976 -169.5722
800.355301 79.975 -169.2343
806.155005 79.976 -168.8889
811.996736 79.980 -168.5324
817.880799 79.986 -168.1633
823.807501 79.995 -167.7851
829.777150 80.005 -167.4048
835.790057 80.015 -167.0288
841.846536 80.024 -166.6622
847.946903 80.032 -166.3085
854.091476 80.041 -165.9673
860.280575 80.049 -165.6355
866.514523 80.059 -165.3087
872.793644 80.070 -164.9831
879.118267 80.082 -164.6536
885.488720 80.098 -164.3138
891.905336 80.116 -163.9605
898.368450 80.137 -163.5967
904.878398 80.160 -163.2310
911.435520 80.185 -162.8725
918.040157 80.211 -162.5279
924.692655 80.237 -162.2001
931.393359 80.264 -161.8891
938.142619 80.292 -161.5921
944.940787 80.322 -161.3039
951.788218 80.353 -161.0151
958.685268 80.385 -160.7184
965.632296 80.417 -160.4106
972.629666 80.449 -160.0917
979.677741 80.480 -159.7668
986.776890 80.511 -159.4448
993.927482 80.541 -159.1315
1001.129891 80.572 -158.8261
1008.384491 80.605 -158.5261
1015.691660 80.640 -158.2313
1023.051781 80.678 -157.9445
1030.465236 80.720 -157.6700
1037.932411 80.765 -157.4134
1045.453698 80.811 -157.1800
1053.029486 80.856 -156.9717
1060.660172 80.900 -156.7848
1068.346153 80.944 -156.6127
1076.087829 80.987 -156.4488
1083.885605 81.030 -156.2886
1091.739887 81.072 -156.1291
1099.651084 81.114 -155.9683
1107.619609 81.155 -155.8055
1115.645878 81.197 -155.6431
1123.730308 81.238 -155.4842
1131.873321 81.280 -155.3310
1140.075341 81.320 -155.1855
1148.336797 81.360 -155.0489
1156.658119 81.397 -154.9213
1165.039741 81.433 -154.8019
1173.482099 81.468 -154.6870
1181.985634 81.502 -154.5718
1190.550789 81.534 -154.4536
1199.178011 81.566 -154.3310
1207.867749 81.596 -154.2022
1216.620457 81.626 -154.0659
1225.436590 81.656 -153.9247
1234.316609 81.686 -153.7860
1243.260976 81.717 -153.6572
1252.270157 81.747 -153.5421
1261.344623 81.777 -153.4390
1270.484846 81.807 -153.3432
1279.691303 81.838 -153.2488
1288.964474 81.867 -153.1527
1298.304842 81.896 -153.0552
1307.712894 81.924 -152.9551
1317.189120 81.949 -152.8489
1326.734016 81.973 -152.7350
1336.348077 81.996 -152.6163
1346.031806 82.019 -152.4981
1355.785708 82.042 -152.3815
1365.610290 82.065 -152.2621
1375.506065 82.088 -152.1328
1385.473549 82.112 -151.9894
1395.513261 82.135 -151.8318
1405.625726 82.159 -151.6625
1415.811469 82.184 -151.4848
1426.071023 82.212 -151.2998
1436.404921 82.240 -151.1065
1446.813703 82.269 -150.9056
1457.297912 82.298 -150.7004
1467.858093 82.327 -150.4942
1478.494798 82.357 -150.2872
1489.208581 82.386 -150.0779
1500.000000 82.415 -149.8658
1510.869618 82.445 -149.6525
1521.818002 82.475 -149.4399
1532.845723 82.506 -149.2277
1543.953355 82.537 -149.0126
1555.141477 82.569 -148.7903
1566.410674 82.602 -148.5586
1577.761531 82.635 -148.3176
1589.194642 82.670 -148.0693
1600.710601 82.704 -147.8166
1612.310010 82.740 -147.5617
1623.993473 82.776 -147.3052
1635.761599 82.813 -147.0444
1647.615002 82.851 -146.7758
1659.554299 82.891 -146.4991
1671.580114 82.933 -146.2175
1683.693072 82.976 -145.9352
1695.893807 83.022 -145.6557
1708.182952 83.070 -145.3796
1720.561150 83.120 -145.1043
1733.029045 83.171 -144.8267
1745.587288 83.224 -144.5455
1758.236533 83.278 -144.2602
1770.977440 83.332 -143.9700
1783.810673 83.387 -143.6747
1796.736900 83.442 -143.3751
1809.756796 83.499 -143.0719
1822.871040 83.559 -142.7656
1836.080315 83.620 -142.4573
1849.385310 83.683 -142.1502
1862.786718 83.749 -141.8466
1876.285239 83.817 -141.5472
1889.881575 83.888 -141.2512
1903.576436 83.962 -140.9577
1917.370535 84.039 -140.6677
1931.264593 84.120 -140.3838
1945.259332 84.203 -140.1089
1959.355483 84.289 -139.8442
1973.553781 84.376 -139.5865
1987.854965 84.464 -139.3302
2002.259781 84.554 -139.0709
2016.768981 84.645 -138.8097
2031.383320 84.738 -138.5517
2046.103561 84.834 -138.3009
2060.930471 84.933 -138.0577
2075.864823 85.034 -137.8207
2090.907395 85.138 -137.5903
2106.058972 85.245 -137.3702
2121.320344 85.354 -137.1638
2136.692305 85.466 -136.9727
2152.175658 85.581 -136.7966
2167.771210 85.699 -136.6347
2183.479774 85.820 -136.4864
2199.302169 85.943 -136.3505
2215.239219 86.069 -136.2267
2231.291755 86.199 -136.1164
2247.460615 86.330 -136.0224
2263.746641 86.465 -135.9479
2280.150683 86.602 -135.8961
2296.673595 86.741 -135.8688
2313.316238 86.884 -135.8663
2330.079481 87.030 -135.8884
2346.964198 87.179 -135.9355
2363.971268 87.331 -136.0083
2381.101578 87.487 -136.1093
2398.356022 87.645 -136.2418
2415.735498 87.806 -136.4084
2433.240913 87.968 -136.6112
2450.873180 88.132 -136.8528
2468.633217 88.297 -137.1356
2486.521951 88.463 -137.4610
2504.540314 88.629 -137.8290
2522.689246 88.797 -138.2399
2540.969692 88.965 -138.6953
2559.382606 89.134 -139.1960
2577.928947 89.303 -139.7430
2596.609683 89.471 -140.3382
2615.425787 89.637 -140.9844
2634.378241 89.803 -141.6833
2653.468031 89.966 -142.4350
2672.696154 90.127 -143.2394
2692.063613 90.284 -144.0950
2711.571415 90.438 -145.0007
2731.220579 90.586 -145.9555
2751.012130 90.729 -146.9581
2770.947098 90.867 -148.0061
2791.026522 90.999 -149.0960
2811.251451 91.125 -150.2234
2831.622938 91.245 -151.3847
2852.142045 91.359 -152.5772
2872.809842 91.466 -153.7986
2893.627406 91.567 -155.0454
2914.595823 91.662 -156.3139
2935.716186 91.749 -157.6006
2956.989596 91.831 -158.9028
2978.417161 91.906 -160.2194
3000.000000 91.977 -161.5508
3021.739237 92.041 -162.8989
3043.636005 92.102 -164.2664
3065.691446 92.157 -165.6569
3087.906710 92.208 -167.0741
3110.282955 92.255 -168.5232
3132.821347 92.297 -170.0093
3155.523062 92.334 -171.5371
3178.389283 92.364 -173.1101
3201.421202 92.386 -174.7305
3224.620020 92.399 -176.3994
3247.986946 92.400 -178.1153
3271.523198 92.388 -179.8739
3295.230004 92.362 178.3316
3319.108599 92.318 176.5107
3343.160228 92.257 174.6759
3367.386145 92.176 172.8423
3391.787613 92.075 171.0262
3416.365904 91.955 169.2447
3441.122300 91.815 167.5142
3466.058091 91.657 165.8504
3491.174576 91.482 164.2672
3516.473066 91.292 162.7764
3541.954880 91.088 161.3878
3567.621345 90.873 160.1086
3593.473800 90.649 158.9442
3619.513592 90.417 157.8973
3645.742080 90.181 156.9681
3672.160630 89.942 156.1546
3698.770620 89.702 155.4526
3725.573436 89.463 154.8558
3752.570477 89.227 154.3574
3779.763150 88.994 153.9507
3807.152872 88.766 153.6298
3834.741071 88.544 153.3890
3862.529185 88.327 153.2225
3890.518664 88.117 153.1241
3918.710966 87.914 153.0873
3947.107561 87.717 153.1052
3975.709929 87.528 153.1709
4004.519563 87.345 153.2781
4033.537962 87.170 153.4218
4062.766641 87.001 153.5976
4092.207123 86.838 153.8012
4121.860942 86.682 154.0282
4151.729646 86.532 154.2741
4181.814790 86.388 154.5352
4212.117944 86.249 154.8086
4242.640687 86.116 155.0919
4273.384610 85.989 155.3837
4304.351317 85.867 155.6827
4335.542421 85.750 155.9875
4366.959549 85.638 156.2966
4398.604338 85.530 156.6093
4430.478438 85.426 156.9243
4462.583511 85.326 157.2401
4494.921231 85.229 157.5543
4527.493283 85.137 157.8652
4560.301365 85.048 158.1719
4593.347189 84.962 158.4733
4626.632476 84.879 158.7689
4660.158962 84.798 159.0579
4693.928395 84.719 159.3394
4727.942535 84.643 159.6124
4762.203156 84.568 159.8769
4796.712043 84.495 160.1332
4831.470996 84.424 160.3825
4866.481826 84.354 160.6251
4901.746360 84.285 160.8613
4937.266434 84.217 161.0912
4973.043902 84.150 161.3151
5009.080628 84.084 161.5337
5045.378492 84.017 161.7490
5081.939384 83.952 161.9626
5118.765212 83.886 162.1749
5155.857894 83.822 162.3853
5193.219366 83.759 162.5931
5230.851574 83.697 162.7984
5268.756481 83.637 163.0003
5306.936062 83.578 163.1974
5345.392309 83.520 163.3887
5384.127225 83.463 163.5745
5423.142830 83.407 163.7551
5462.441159 83.351 163.9297
5502.024259 83.296 164.0975
5541.894195 83.242 164.2590
5582.053045 83.189 164.4138
5622.502902 83.136 164.5598
5663.245876 83.083 164.6927
5704.284090 83.030 164.8084
5745.619684 82.977 164.9042
5787.254813 82.921 164.9794
5829.191647 82.862 165.0352
5871.432373 82.798 165.0758
5913.979192 82.727 165.1100
5956.834323 82.649 165.1497
6000.000000 82.562 165.2086
6043.478473 82.467 165.3009
6087.272010 82.363 165.4417
6131.382892 82.254 165.6459
6175.813420 82.140 165.9274
6220.565910 82.024 166.2983
6265.642695 81.909 166.7671
6311.046124 81.799 167.3369
6356.778566 81.696 168.0037
6402.842404 81.602 168.7585
6449.240040 81.519 169.5910
6495.973891 81.450 170.4902
6543.046396 81.395 171.4440
6590.460007 81.356 172.4405
6638.217197 81.334 173.4694
6686.320456 81.330 174.5208
6734.772290 81.344 175.5853
6783.575226 81.376 176.6523
6832.731809 81.426 177.7099
6882.244600 81.496 178.7448
6932.116181 81.586 179.7437
6982.349153 81.697 -179.3067
7032.946133 81.830 -178.4205
7083.909760 81.985 -177.6138
7135.242690 82.162 -176.9038
7186.947600 82.361 -176.3104
7239.027185 82.582 -175.8559
7291.484160 82.824 -175.5641
7344.321260 83.086 -175.4598
7397.541239 83.366 -175.5689
7451.146872 83.661 -175.9186
7505.140954 83.969 -176.5379
7559.526299 84.283 -177.4563
7614.305743 84.597 -178.7005
7669.482141 84.903 179.7077
7725.058371 85.192 177.7556
7781.037328 85.452 175.4435
7837.421932 85.672 172.7881
7894.215122 85.842 169.8228
7951.419859 85.953 166.5974
8009.039125 85.996 163.1772
8067.075924 85.965 159.6408
8125.533282 85.855 156.0771
8184.414245 85.666 152.5810
8243.721885 85.399 149.2493
8303.459292 85.058 146.1792
8363.629581 84.650 143.4685
8424.235888 84.185 141.2148
8485.281374 83.679 139.5100
8546.769221 83.154 138.4225
8608.702634 82.641 137.9580
8671.084842 82.177 138.0061
8733.919097 81.790 138.3167
8797.208675 81.485 138.5701
8860.956876 81.239 138.5306
8925.167022 81.013 138.1486
8989.842461 80.776 137.5256
9054.986566 80.511 136.8121
9120.602731 80.218 136.1324
9186.694378 79.902 135.5578
9253.264952 79.574 135.1108
9320.317925 79.240 134.7805
9387.856790 78.905 134.5392
9455.885071 78.572 134.3564
9524.406312 78.240 134.2061
9593.424086 77.909 134.0703
9662.941992 77.574 133.9387
9732.963653 77.234 133.8079
9803.492719 76.884 133.6814
9874.532869 76.521 133.5677
9946.087805 76.143 133.4800
10018.161257 75.747 133.4365
10090.756983 75.333 133.4597
10163.878768 74.900 133.5735
10237.530423 74.448 133.8020
10311.715789 73.980 134.1679
10386.438732 73.496 134.6917
10461.703149 72.999 135.3902
10537.512962 72.491 136.2762
10613.872125 71.975 137.3591
10690.784618 71.454 138.6448
10768.254450 70.930 140.1369
10846.285661 70.407 141.8362
10924.882318 69.888 143.7397
11004.048518 69.377 145.8401
11083.788390 68.875 148.1266
11164.106090 68.386 150.5854
11245.005805 67.913 153.2000
11326.491752 67.457 155.9539
11408.568180 67.021 158.8321
11491.239368 66.605 161.8195
11574.509626 66.207 164.9019
11658.383294 65.828 168.0667
11742.864745 65.467 171.3060
11827.958384 65.126 174.6155
11913.668646 64.807 177.9912
12000.000000 64.510 -178.5705
12086.956947 64.235 -175.0723
12174.544019 63.983 -171.5187
12262.765784 63.752 -167.9202
12351.626840 63.544 -164.2889
12441.131819 63.358 -160.6342
12531.285389 63.196 -156.9634
12622.092249 63.059 -153.2831
12713.557132 62.947 -149.5984
12805.684808 62.862 -145.9149
12898.480079 62.804 -142.2393
12991.947783 62.772 -138.5796
13086.092792 62.768 -134.9441
13180.920015 62.794 -131.3393
13276.434395 62.851 -127.7710
13372.640911 62.942 -124.2476
13469.544580 63.069 -120.7767
13567.150452 63.234 -117.3633
13665.463617 63.440 -114.0081
13764.489200 63.691 -110.7118
13864.232362 63.992 -107.4821
13964.698305 64.351 -104.3395
14065.892266 64.774 -101.3174
14167.819519 65.269 -98.4603
14270.485380 65.841 -95.8243
14373.895200 66.499 -93.4839
14478.054370 67.244 -91.5360
14582.968320 68.077 -90.0989
14688.642520 68.989 -89.3110
14795.082478 69.964 -89.3240
14902.293745 70.977 -90.2910
15010.281908 71.995 -92.3466
15119.052599 72.979 -95.5846
15228.611486 73.882 -100.0362
15338.964283 74.657 -105.6500
15450.116741 75.256 -112.2764
15562.074656 75.636 -119.6578
15674.843864 75.769 -127.4369
15788.430244 75.642 -135.1951
15902.839718 75.267 -142.5189
16018.078250 74.669 -149.0618
16134.151848 73.891 -154.5785
16251.066563 72.976 -158.9303
16368.828491 71.970 -162.0730
16487.443769 70.916 -164.0394
16606.918584 69.847 -164.9169
16727.259161 68.793 -164.8221
16848.471777 67.769 -163.8761
16970.562748 66.788 -162.1793
17093.538442 65.850 -159.7878
17217.405268 64.957 -156.6935
17342.169684 64.110 -152.8218
17467.838194 63.320 -148.0582
17594.417350 62.609 -142.3165
17721.913751 62.012 -135.6526
17850.334044 61.565 -128.3749
17979.684923 61.288 -121.0315
18109.973131 61.173 -114.2126
18241.205462 61.179 -108.3109
18373.388756 61.256 -103.4366
18506.529905 61.357 -99.4957
18640.635849 61.446 -96.3099
18775.713581 61.502 -93.6986
18911.770141 61.512 -91.5146
19048.812624 61.470 -89.6523
19186.848172 61.374 -88.0434
19325.883983 61.224 -86.6464
19465.927305 61.025 -85.4379
19606.985439 60.795 -84.4100
19749.065738 60.562 -83.5734
19892.175609 60.367 -82.9636
20036.322514 60.256 -82.6355
