* Measurement data measured by REW V5.31.3
* Source: Headset (CX31993 HIFI AUDIO), MICROPHONE (Master Volume), R, volume: 0.400
* Format: 256k Log Swept Sine, 1 sweep at -11.9 dBFS with no timing reference
* Dated: 05 20, 25 10:44:32 AM
* REW Settings:
*  C-weighting compensation: Off
*  Target level: 75.0 dB
* Note: ; 
* Measurement: Twistura Sigma R
* Smoothing: 1/12 octave
* Frequency Step: 96 ppo
* Start Frequency: 0.36621094 Hz
*
* Freq(Hz) SPL(dB) Phase(degrees)
0.366211 59.655 7.1236
0.368865 59.680 7.0639
0.371538 59.716 6.9756
0.374230 59.760 6.8669
0.376942 59.810 6.7446
0.379673 59.864 6.6138
0.382424 59.920 6.4777
0.385196 59.977 6.3384
0.387987 60.035 6.1971
0.390798 60.094 6.0544
0.393630 60.154 5.9107
0.396483 60.214 5.7661
0.399356 60.274 5.6209
0.402250 60.335 5.4750
0.405165 60.396 5.3284
0.408101 60.458 5.1812
0.411058 60.520 5.0334
0.414037 60.583 4.8850
0.417037 60.646 4.7359
0.420059 60.710 4.5863
0.423103 60.774 4.4360
0.426169 60.839 4.2852
0.429257 60.904 4.1337
0.432368 60.969 3.9816
0.435501 61.035 3.8289
0.438656 61.102 3.6756
0.441835 61.169 3.5216
0.445037 61.236 3.3670
0.448262 61.304 3.2117
0.451510 61.372 3.0558
0.454782 61.441 2.8993
0.458077 61.511 2.7420
0.461397 61.581 2.5841
0.464740 61.651 2.4254
0.468108 61.722 2.2661
0.471500 61.793 2.1059
0.474917 61.865 1.9451
0.478358 61.938 1.7834
0.481825 62.011 1.6210
0.485316 62.084 1.4577
0.488833 62.158 1.2936
0.492375 62.233 1.1286
0.495943 62.308 0.9627
0.499537 62.384 0.7959
0.503157 62.460 0.6281
0.506803 62.537 0.4593
0.510475 62.614 0.2895
0.514175 62.692 0.1187
0.517900 62.771 -0.0532
0.521653 62.850 -0.2263
0.525434 62.929 -0.4005
0.529241 63.009 -0.5759
0.533076 63.090 -0.7526
0.536939 63.172 -0.9305
0.540830 63.254 -1.1098
0.544749 63.336 -1.2905
0.548696 63.419 -1.4726
0.552673 63.503 -1.6562
0.556677 63.587 -1.8413
0.560711 63.672 -2.0280
0.564774 63.758 -2.2163
0.568867 63.844 -2.4063
0.572989 63.931 -2.5981
0.577141 64.019 -2.7916
0.581324 64.107 -2.9871
0.585536 64.195 -3.1844
0.589779 64.285 -3.3838
0.594053 64.375 -3.5852
0.598358 64.465 -3.7888
0.602694 64.557 -3.9945
0.607061 64.649 -4.2025
0.611460 64.742 -4.4129
0.615891 64.835 -4.6257
0.620354 64.929 -4.8410
0.624849 65.024 -5.0588
0.629377 65.119 -5.2794
0.633938 65.215 -5.5026
0.638532 65.312 -5.7287
0.643159 65.409 -5.9577
0.647819 65.508 -6.1898
0.652514 65.606 -6.4249
0.657242 65.706 -6.6632
0.662005 65.806 -6.9048
0.666802 65.908 -7.1498
0.671634 66.009 -7.3983
0.676501 66.112 -7.6504
0.681403 66.215 -7.9062
0.686341 66.319 -8.1658
0.691314 66.424 -8.4293
0.696324 66.529 -8.6968
0.701370 66.635 -8.9685
0.706452 66.741 -9.2442
0.711571 66.848 -9.5242
0.716728 66.954 -9.8083
0.721921 67.060 -10.0965
0.727153 67.165 -10.3883
0.732422 67.268 -10.6834
0.737729 67.368 -10.9813
0.743075 67.467 -11.2813
0.748460 67.564 -11.5829
0.753883 67.661 -11.8857
0.759346 67.757 -12.1894
0.764849 67.852 -12.4939
0.770391 67.947 -12.7989
0.775974 68.042 -13.1044
0.781597 68.138 -13.4102
0.787261 68.233 -13.7163
0.792966 68.328 -14.0227
0.798712 68.423 -14.3294
0.804500 68.518 -14.6362
0.810329 68.614 -14.9432
0.816201 68.709 -15.2503
0.822116 68.805 -15.5576
0.828073 68.900 -15.8650
0.834074 68.995 -16.1726
0.840118 69.091 -16.4803
0.846206 69.186 -16.7881
0.852338 69.282 -17.0961
0.858514 69.378 -17.4043
0.864735 69.473 -17.7127
0.871001 69.569 -18.0214
0.877313 69.665 -18.3304
0.883670 69.760 -18.6397
0.890074 69.856 -18.9494
0.896524 69.952 -19.2596
0.903020 70.048 -19.5702
0.909564 70.144 -19.8815
0.916155 70.240 -20.1934
0.922794 70.336 -20.5060
0.929481 70.433 -20.8195
0.936216 70.529 -21.1339
0.943000 70.625 -21.4492
0.949834 70.722 -21.7657
0.956717 70.818 -22.0834
0.963649 70.915 -22.4024
0.970632 71.012 -22.7228
0.977666 71.109 -23.0448
0.984750 71.206 -23.3685
0.991886 71.303 -23.6940
0.999074 71.400 -24.0215
1.006314 71.498 -24.3511
1.013606 71.595 -24.6829
1.020951 71.693 -25.0172
1.028349 71.791 -25.3540
1.035801 71.889 -25.6936
1.043307 71.988 -26.0361
1.050867 72.086 -26.3818
1.058482 72.185 -26.7307
1.066152 72.284 -27.0831
1.073878 72.383 -27.4392
1.081660 72.483 -27.7990
1.089498 72.582 -28.1629
1.097393 72.682 -28.5307
1.105345 72.782 -28.9025
1.113355 72.882 -29.2783
1.121423 72.981 -29.6580
1.129549 73.080 -30.0412
1.137734 73.180 -30.4280
1.145979 73.279 -30.8180
1.154283 73.377 -31.2110
1.162647 73.476 -31.6070
1.171072 73.574 -32.0055
1.179558 73.672 -32.4065
1.188106 73.770 -32.8097
1.196715 73.868 -33.2151
1.205387 73.965 -33.6223
1.214122 74.062 -34.0312
1.222920 74.159 -34.4417
1.231782 74.256 -34.8536
1.240708 74.353 -35.2667
1.249699 74.449 -35.6809
1.258754 74.545 -36.0960
1.267876 74.641 -36.5120
1.277063 74.737 -36.9287
1.286318 74.833 -37.3459
1.295639 74.928 -37.7636
1.305027 75.024 -38.1817
1.314484 75.119 -38.6000
1.324009 75.215 -39.0185
1.333604 75.310 -39.4371
1.343268 75.405 -39.8557
1.353002 75.500 -40.2742
1.362806 75.595 -40.6927
1.372681 75.690 -41.1110
1.382628 75.785 -41.5291
1.392647 75.880 -41.9470
1.402739 75.975 -42.3647
1.412904 76.071 -42.7822
1.423142 76.166 -43.1995
1.433455 76.261 -43.6168
1.443843 76.356 -44.0342
1.454305 76.452 -44.4519
1.464844 76.547 -44.8704
1.475459 76.642 -45.2899
1.486150 76.737 -45.7107
1.496920 76.831 -46.1332
1.507767 76.925 -46.5574
1.518693 77.019 -46.9834
1.529698 77.112 -47.4112
1.540783 77.205 -47.8407
1.551948 77.298 -48.2718
1.563194 77.390 -48.7044
1.574521 77.482 -49.1386
1.585931 77.573 -49.5740
1.597423 77.664 -50.0108
1.608999 77.755 -50.4488
1.620658 77.845 -50.8879
1.632402 77.935 -51.3280
1.644232 78.024 -51.7691
1.656146 78.114 -52.2113
1.668147 78.203 -52.6543
1.680235 78.291 -53.0981
1.692411 78.380 -53.5428
1.704675 78.468 -53.9883
1.717028 78.556 -54.4346
1.729470 78.644 -54.8817
1.742003 78.732 -55.3296
1.754626 78.819 -55.7784
1.767341 78.907 -56.2281
1.780147 78.994 -56.6788
1.793047 79.081 -57.1308
1.806040 79.168 -57.5843
1.819128 79.255 -58.0397
1.832310 79.341 -58.4975
1.845587 79.428 -58.9581
1.858961 79.513 -59.4221
1.872432 79.599 -59.8897
1.886001 79.684 -60.3609
1.899667 79.768 -60.8356
1.913433 79.852 -61.3136
1.927299 79.935 -61.7947
1.941265 80.018 -62.2785
1.955332 80.100 -62.7646
1.969501 80.182 -63.2528
1.983773 80.263 -63.7426
1.998148 80.343 -64.2337
2.012627 80.424 -64.7257
2.027212 80.504 -65.2183
2.041902 80.583 -65.7112
2.056698 80.662 -66.2040
2.071602 80.741 -66.6964
2.086614 80.819 -67.1882
2.101734 80.898 -67.6790
2.116964 80.975 -68.1686
2.132304 81.053 -68.6570
2.147756 81.131 -69.1439
2.163320 81.208 -69.6297
2.178996 81.285 -70.1145
2.194786 81.361 -70.5990
2.210690 81.437 -71.0839
2.226710 81.513 -71.5698
2.242845 81.588 -72.0574
2.259098 81.662 -72.5469
2.275468 81.736 -73.0383
2.291957 81.810 -73.5317
2.308566 81.882 -74.0268
2.325295 81.954 -74.5232
2.342145 82.026 -75.0208
2.359117 82.097 -75.5190
2.376212 82.168 -76.0175
2.393431 82.238 -76.5159
2.410775 82.307 -77.0139
2.428244 82.377 -77.5110
2.445840 82.446 -78.0069
2.463564 82.514 -78.5012
2.481416 82.582 -78.9937
2.499397 82.651 -79.4841
2.517509 82.718 -79.9723
2.535752 82.786 -80.4584
2.554127 82.853 -80.9427
2.572635 82.920 -81.4257
2.591277 82.986 -81.9080
2.610055 83.052 -82.3901
2.628968 83.117 -82.8724
2.648019 83.182 -83.3551
2.667208 83.246 -83.8383
2.686535 83.310 -84.3217
2.706003 83.373 -84.8053
2.725612 83.436 -85.2889
2.745363 83.498 -85.7721
2.765257 83.560 -86.2547
2.785295 83.621 -86.7363
2.805478 83.683 -87.2168
2.825808 83.744 -87.6959
2.846285 83.804 -88.1732
2.866910 83.865 -88.6486
2.887685 83.925 -89.1220
2.908611 83.985 -89.5935
2.929688 84.045 -90.0633
2.950917 84.105 -90.5317
2.972301 84.164 -90.9990
2.993839 84.223 -91.4656
3.015534 84.282 -91.9316
3.037386 84.340 -92.3972
3.059396 84.398 -92.8624
3.081565 84.455 -93.3271
3.103896 84.512 -93.7913
3.126388 84.569 -94.2548
3.149043 84.625 -94.7175
3.171862 84.682 -95.1792
3.194847 84.738 -95.6398
3.217998 84.794 -96.0992
3.241317 84.850 -96.5573
3.264805 84.906 -97.0140
3.288463 84.962 -97.4693
3.312293 85.018 -97.9234
3.336295 85.073 -98.3765
3.360471 85.129 -98.8286
3.384822 85.184 -99.2800
3.409350 85.239 -99.7309
3.434056 85.293 -100.1813
3.458940 85.348 -100.6314
3.484005 85.402 -101.0814
3.509252 85.456 -101.5314
3.534681 85.510 -101.9814
3.560295 85.564 -102.4317
3.586094 85.618 -102.8822
3.612081 85.672 -103.3331
3.638255 85.725 -103.7846
3.664620 85.778 -104.2366
3.691175 85.832 -104.6893
3.717923 85.885 -105.1428
3.744864 85.938 -105.5971
3.772001 85.991 -106.0523
3.799335 86.043 -106.5083
3.826866 86.095 -106.9652
3.854597 86.148 -107.4231
3.882529 86.199 -107.8820
3.910664 86.251 -108.3419
3.939002 86.302 -108.8030
3.967546 86.353 -109.2655
3.996296 86.403 -109.7294
4.025255 86.454 -110.1949
4.054423 86.503 -110.6624
4.083804 86.553 -111.1318
4.113396 86.602 -111.6033
4.143204 86.651 -112.0768
4.173227 86.699 -112.5522
4.203468 86.747 -113.0292
4.233928 86.794 -113.5077
4.264609 86.840 -113.9874
4.295512 86.886 -114.4684
4.326639 86.932 -114.9505
4.357992 86.976 -115.4338
4.389572 87.020 -115.9187
4.421380 87.063 -116.4055
4.453419 87.106 -116.8943
4.485691 87.147 -117.3853
4.518196 87.188 -117.8781
4.550936 87.228 -118.3725
4.583914 87.267 -118.8678
4.617131 87.305 -119.3634
4.650589 87.343 -119.8588
4.684289 87.379 -120.3536
4.718233 87.414 -120.8475
4.752424 87.448 -121.3406
4.786862 87.481 -121.8332
4.821549 87.514 -122.3255
4.856488 87.544 -122.8177
4.891680 87.574 -123.3093
4.927127 87.603 -123.8000
4.962831 87.631 -124.2890
4.998794 87.657 -124.7754
5.035017 87.683 -125.2584
5.071503 87.707 -125.7375
5.108253 87.730 -126.2122
5.145270 87.753 -126.6826
5.182555 87.774 -127.1488
5.220110 87.794 -127.6109
5.257937 87.813 -128.0688
5.296038 87.830 -128.5221
5.334415 87.847 -128.9703
5.373071 87.863 -129.4125
5.412006 87.879 -129.8481
5.451224 87.893 -130.2765
5.490725 87.907 -130.6973
5.530514 87.920 -131.1104
5.570590 87.933 -131.5156
5.610957 87.945 -131.9132
5.651616 87.956 -132.3033
5.692570 87.967 -132.6858
5.733821 87.978 -133.0606
5.775370 87.989 -133.4277
5.817221 87.999 -133.7867
5.859375 88.010 -134.1374
5.901834 88.021 -134.4796
5.944602 88.032 -134.8136
5.987679 88.043 -135.1396
6.031068 88.055 -135.4582
6.074771 88.067 -135.7703
6.118792 88.080 -136.0766
6.163131 88.093 -136.3778
6.207792 88.108 -136.6742
6.252776 88.123 -136.9661
6.298086 88.139 -137.2536
6.343725 88.156 -137.5373
6.389694 88.174 -137.8180
6.435996 88.193 -138.0971
6.482634 88.213 -138.3757
6.529610 88.234 -138.6552
6.576926 88.256 -138.9365
6.624585 88.279 -139.2200
6.672590 88.304 -139.5064
6.720942 88.329 -139.7959
6.769645 88.355 -140.0896
6.818700 88.381 -140.3883
6.868111 88.409 -140.6933
6.917881 88.436 -141.0055
6.968010 88.464 -141.3257
7.018504 88.493 -141.6541
7.069362 88.522 -141.9911
7.120590 88.550 -142.3368
7.172189 88.579 -142.6912
7.224161 88.608 -143.0545
7.276511 88.635 -143.4270
7.329239 88.663 -143.8089
7.382350 88.689 -144.2003
7.435845 88.714 -144.6008
7.489729 88.739 -145.0100
7.544002 88.762 -145.4269
7.598669 88.784 -145.8509
7.653732 88.804 -146.2812
7.709194 88.823 -146.7174
7.765058 88.840 -147.1588
7.821327 88.855 -147.6049
7.878004 88.869 -148.0545
7.935091 88.880 -148.5061
7.992592 88.890 -148.9584
8.050510 88.898 -149.4102
8.108847 88.903 -149.8605
8.167607 88.907 -150.3088
8.226793 88.909 -150.7538
8.286408 88.909 -151.1943
8.346454 88.907 -151.6289
8.406936 88.903 -152.0563
8.467856 88.898 -152.4756
8.529218 88.892 -152.8861
8.591024 88.884 -153.2872
8.653278 88.876 -153.6781
8.715983 88.866 -154.0583
8.779143 88.856 -154.4270
8.842760 88.845 -154.7839
8.906839 88.834 -155.1288
8.971381 88.824 -155.4619
9.036392 88.813 -155.7837
9.101873 88.803 -156.0945
9.167829 88.793 -156.3947
9.234263 88.785 -156.6850
9.301178 88.777 -156.9661
9.368578 88.771 -157.2393
9.436467 88.766 -157.5061
9.504847 88.763 -157.7678
9.573723 88.761 -158.0257
9.643099 88.761 -158.2812
9.712976 88.762 -158.5358
9.783361 88.765 -158.7913
9.854255 88.770 -159.0494
9.925663 88.776 -159.3116
9.997588 88.784 -159.5792
10.070035 88.792 -159.8534
10.143007 88.802 -160.1354
10.216507 88.813 -160.4264
10.290540 88.824 -160.7272
10.365109 88.836 -161.0384
10.440219 88.848 -161.3601
10.515873 88.860 -161.6925
10.592076 88.871 -162.0352
10.668830 88.881 -162.3881
10.746141 88.891 -162.7504
10.824012 88.899 -163.1211
10.902447 88.906 -163.4989
10.981451 88.912 -163.8823
11.061027 88.915 -164.2699
11.141180 88.917 -164.6600
11.221913 88.917 -165.0505
11.303232 88.915 -165.4395
11.385140 88.911 -165.8248
11.467641 88.905 -166.2047
11.550741 88.897 -166.5773
11.634442 88.888 -166.9409
11.718750 88.878 -167.2939
11.803669 88.867 -167.6349
11.889203 88.855 -167.9633
11.975357 88.842 -168.2786
12.062136 88.830 -168.5807
12.149543 88.819 -168.8701
12.237583 88.808 -169.1475
12.326262 88.798 -169.4146
12.415583 88.789 -169.6732
12.505552 88.783 -169.9257
12.596172 88.778 -170.1743
12.687449 88.774 -170.4220
12.779387 88.773 -170.6716
12.871992 88.773 -170.9261
12.965268 88.774 -171.1879
13.059220 88.777 -171.4592
13.153852 88.779 -171.7418
13.249170 88.782 -172.0368
13.345179 88.785 -172.3447
13.441884 88.786 -172.6650
13.539289 88.785 -172.9966
13.637401 88.783 -173.3377
13.736223 88.777 -173.6856
13.835761 88.769 -174.0369
13.936021 88.757 -174.3880
14.037007 88.743 -174.7347
14.138725 88.725 -175.0730
14.241180 88.704 -175.3986
14.344377 88.680 -175.7077
14.448323 88.655 -175.9972
14.553021 88.628 -176.2646
14.658478 88.600 -176.5084
14.764700 88.573 -176.7283
14.871691 88.547 -176.9251
14.979457 88.522 -177.1012
15.088005 88.500 -177.2596
15.197339 88.481 -177.4047
15.307465 88.465 -177.5414
15.418389 88.453 -177.6751
15.530117 88.444 -177.8111
15.642655 88.438 -177.9545
15.756008 88.435 -178.1097
15.870182 88.434 -178.2801
15.985184 88.435 -178.4676
16.101019 88.436 -178.6733
16.217694 88.437 -178.8967
16.335214 88.437 -179.1363
16.453586 88.436 -179.3895
16.572815 88.433 -179.6532
16.692909 88.429 -179.9240
16.813872 88.423 179.8012
16.935713 88.415 179.5256
17.058436 88.407 179.2510
17.182048 88.398 178.9789
17.306556 88.389 178.7094
17.431967 88.380 178.4418
17.558286 88.371 178.1744
17.685521 88.364 177.9051
17.813677 88.357 177.6315
17.942762 88.350 177.3513
18.072783 88.344 177.0630
18.203746 88.337 176.7657
18.335658 88.329 176.4597
18.468526 88.320 176.1465
18.602356 88.309 175.8287
18.737156 88.296 175.5096
18.872934 88.280 175.1932
19.009695 88.263 174.8838
19.147447 88.243 174.5849
19.286197 88.222 174.2998
19.425953 88.201 174.0303
19.566721 88.179 173.7772
19.708510 88.157 173.5397
19.851326 88.136 173.3163
19.995177 88.117 173.1043
20.140070 88.098 172.9008
20.286013 88.081 172.7032
20.433014 88.065 172.5094
20.581080 88.048 172.3184
20.730219 88.032 172.1303
20.880439 88.014 171.9469
21.031747 87.996 171.7705
21.184152 87.977 171.6042
21.337661 87.958 171.4512
21.492282 87.938 171.3138
21.648024 87.918 171.1935
21.804895 87.899 171.0899
21.962902 87.881 171.0010
22.122054 87.866 170.9232
22.282360 87.853 170.8511
22.443827 87.843 170.7788
22.606464 87.836 170.7002
22.770280 87.831 170.6093
22.935283 87.826 170.5013
23.101481 87.822 170.3730
23.268884 87.818 170.2225
23.437500 87.812 170.0499
23.607338 87.803 169.8568
23.778406 87.792 169.6459
23.950714 87.776 169.4212
24.124271 87.756 169.1875
24.299086 87.732 168.9500
24.475167 87.703 168.7142
24.652524 87.670 168.4856
24.831166 87.634 168.2693
25.011103 87.595 168.0694
25.192344 87.554 167.8883
25.374898 87.513 167.7267
25.558775 87.473 167.5826
25.743984 87.434 167.4514
25.930536 87.398 167.3260
26.118439 87.366 167.1981
26.307704 87.337 167.0587
26.498341 87.310 166.9001
26.690359 87.285 166.7169
26.883768 87.260 166.5074
27.078579 87.234 166.2740
27.274801 87.205 166.0228
27.472446 87.174 165.7625
27.671522 87.139 165.5028
27.872042 87.102 165.2530
28.074014 87.064 165.0193
28.277450 87.026 164.8047
28.482360 86.989 164.6082
28.688755 86.956 164.4255
28.896645 86.924 164.2510
29.106042 86.896 164.0793
29.316957 86.869 163.9077
29.529400 86.842 163.7365
29.743382 86.816 163.5699
29.958915 86.789 163.4139
30.176009 86.761 163.2752
30.394677 86.734 163.1584
30.614929 86.708 163.0645
30.836778 86.685 162.9900
31.060234 86.664 162.9279
31.285309 86.647 162.8695
31.512015 86.630 162.8074
31.740364 86.613 162.7383
31.970368 86.595 162.6646
32.202039 86.573 162.5944
32.435388 86.546 162.5397
32.670428 86.516 162.5130
32.907171 86.485 162.5232
33.145630 86.454 162.5719
33.385817 86.426 162.6516
33.627745 86.405 162.7458
33.871425 86.389 162.8322
34.116871 86.379 162.8876
34.364096 86.371 162.8938
34.613113 86.363 162.8417
34.863934 86.350 162.7336
35.116572 86.330 162.5823
35.371041 86.300 162.4074
35.627354 86.262 162.2308
35.885525 86.216 162.0714
36.145566 86.165 161.9412
36.407492 86.112 161.8439
36.671316 86.060 161.7753
36.937051 86.011 161.7266
37.204712 85.966 161.6882
37.474313 85.924 161.6527
37.745867 85.886 161.6166
38.019389 85.851 161.5790
38.294893 85.821 161.5394
38.572394 85.796 161.4948
38.851905 85.776 161.4388
39.133442 85.762 161.3613
39.417019 85.753 161.2524
39.702651 85.747 161.1051
39.990353 85.741 160.9186
40.280140 85.732 160.6989
40.572026 85.720 160.4579
40.866028 85.702 160.2101
41.162160 85.679 159.9706
41.460438 85.650 159.7523
41.760877 85.617 159.5658
42.063494 85.581 159.4193
42.368303 85.542 159.3191
42.675322 85.502 159.2686
42.984565 85.464 159.2671
43.296048 85.428 159.3087
43.609789 85.397 159.3817
43.925804 85.371 159.4706
44.244108 85.350 159.5594
44.564719 85.334 159.6346
44.887654 85.321 159.6873
45.212928 85.309 159.7123
45.540560 85.298 159.7060
45.870565 85.286 159.6646
46.202962 85.274 159.5837
46.537768 85.260 159.4611
46.875000 85.240 159.2994
47.214676 85.215 159.1090
47.556813 85.182 158.9063
47.901429 85.142 158.7094
48.248542 85.097 158.5317
48.598171 85.049 158.3787
48.950334 85.001 158.2474
49.305048 84.953 158.1324
49.662333 84.903 158.0332
50.022206 84.852 157.9586
50.384688 84.800 157.9257
50.749796 84.749 157.9514
51.117550 84.705 158.0406
51.487969 84.671 158.1790
51.861072 84.651 158.3337
52.236879 84.645 158.4648
52.615409 84.649 158.5412
52.996681 84.658 158.5515
53.380717 84.667 158.5043
53.767536 84.674 158.4195
54.157158 84.677 158.3152
54.549603 84.679 158.2000
54.944892 84.679 158.0738
55.343045 84.677 157.9341
55.744084 84.670 157.7848
56.148028 84.656 157.6385
56.554900 84.636 157.5139
56.964720 84.611 157.4283
57.377510 84.582 157.3914
57.793291 84.552 157.4010
58.212085 84.524 157.4445
58.633914 84.496 157.5041
59.058799 84.469 157.5644
59.486764 84.439 157.6200
59.917829 84.403 157.6775
60.352019 84.363 157.7505
60.789354 84.318 157.8499
61.229859 84.273 157.9746
61.673556 84.228 158.1122
62.120468 84.184 158.2473
62.570618 84.141 158.3719
63.024031 84.098 158.4884
63.480729 84.056 158.6031
63.940736 84.018 158.7170
64.404077 83.985 158.8207
64.870776 83.960 158.8986
65.340856 83.941 158.9373
65.814343 83.925 158.9330
66.291261 83.912 158.8929
66.771635 83.899 158.8315
67.255489 83.886 158.7643
67.742850 83.875 158.7022
68.233743 83.864 158.6501
68.728193 83.854 158.6099
69.226226 83.844 158.5827
69.727867 83.836 158.5670
70.233144 83.827 158.5551
70.742083 83.817 158.5334
71.254709 83.804 158.4918
71.771050 83.784 158.4326
72.291132 83.755 158.3701
72.814984 83.718 158.3198
73.342631 83.676 158.2889
73.874102 83.629 158.2747
74.409424 83.581 158.2709
74.948626 83.532 158.2716
75.491734 83.485 158.2714
76.038779 83.440 158.2639
76.589787 83.397 158.2432
77.144788 83.358 158.2073
77.703811 83.320 158.1615
78.266885 83.283 158.1184
78.834039 83.248 158.0953
79.405303 83.216 158.1080
79.980706 83.189 158.1651
80.560280 83.169 158.2648
81.144053 83.158 158.3948
81.732056 83.154 158.5362
82.324320 83.156 158.6703
82.920876 83.160 158.7858
83.521755 83.161 158.8823
84.126988 83.158 158.9675
84.736607 83.149 159.0495
85.350643 83.135 159.1311
85.969129 83.115 159.2087
86.592097 83.090 159.2780
87.219579 83.061 159.3367
87.851608 83.028 159.3824
88.488217 82.993 159.4089
89.129439 82.958 159.4088
89.775308 82.922 159.3816
90.425856 82.886 159.3353
91.081119 82.851 159.2787
91.741131 82.817 159.2191
92.405925 82.785 159.1648
93.075536 82.756 159.1283
93.750000 82.730 159.1192
94.429351 82.708 159.1392
95.113625 82.691 159.1854
95.802858 82.678 159.2534
96.497085 82.670 159.3352
97.196342 82.664 159.4171
97.900667 82.661 159.4882
98.610096 82.656 159.5500
99.324665 82.648 159.6147
100.044413 82.638 159.6919
100.769376 82.626 159.7804
101.499592 82.613 159.8727
102.235100 82.597 159.9672
102.975938 82.577 160.0693
103.722144 82.555 160.1819
104.473757 82.530 160.3011
105.230817 82.505 160.4196
105.993363 82.479 160.5311
106.761435 82.455 160.6274
107.535072 82.433 160.7008
108.314315 82.411 160.7530
109.099206 82.388 160.8000
109.889783 82.365 160.8653
110.686090 82.343 160.9657
111.488167 82.325 161.1016
112.296056 82.310 161.2570
113.109800 82.297 161.4085
113.929440 82.283 161.5339
114.755020 82.265 161.6197
115.586582 82.241 161.6612
116.424170 82.211 161.6600
117.267827 82.176 161.6222
118.117598 82.138 161.5602
118.973527 82.100 161.4898
119.835658 82.068 161.4199
120.704037 82.042 161.3519
121.578708 82.022 161.2899
122.459718 82.006 161.2475
123.347111 81.990 161.2432
124.240935 81.973 161.2917
125.141236 81.953 161.3978
126.048061 81.930 161.5554
126.961458 81.905 161.7492
127.881473 81.879 161.9552
128.808154 81.855 162.1450
129.741551 81.831 162.2961
130.681712 81.807 162.4006
131.628686 81.784 162.4666
132.582521 81.761 162.5125
133.543269 81.740 162.5560
134.510979 81.721 162.6037
135.485701 81.703 162.6523
136.467486 81.686 162.6981
137.456386 81.667 162.7423
138.452451 81.646 162.7866
139.455735 81.623 162.8283
140.466288 81.600 162.8595
141.484165 81.577 162.8738
142.509418 81.553 162.8745
143.542100 81.527 162.8740
144.582265 81.501 162.8863
145.629968 81.475 162.9225
146.685262 81.450 162.9866
147.748204 81.426 163.0731
148.818849 81.402 163.1743
149.897251 81.375 163.2883
150.983469 81.344 163.4182
152.077557 81.308 163.5654
153.179574 81.264 163.7291
154.289576 81.214 163.9078
155.407622 81.160 164.0988
156.533770 81.103 164.2952
157.668078 81.049 164.4866
158.810606 80.999 164.6652
159.961413 80.954 164.8348
161.120559 80.912 165.0081
162.288105 80.872 165.1961
163.464112 80.830 165.4094
164.648640 80.783 165.6626
165.841752 80.730 165.9733
167.043510 80.673 166.3567
168.253976 80.616 166.8200
169.473213 80.564 167.3609
170.701286 80.519 167.9702
171.938258 80.485 168.6342
173.184194 80.464 169.3340
174.439158 80.454 170.0596
175.703216 80.455 170.8333
176.976434 80.472 171.7083
178.258878 80.515 172.7289
179.550615 80.594 173.8822
180.851713 80.715 175.0834
182.162239 80.879 176.2054
183.482262 81.075 177.1242
184.811850 81.293 177.7441
186.151073 81.516 178.0084
187.500000 81.730 177.9150
188.858702 81.923 177.5166
190.227250 82.085 176.8930
191.605715 82.212 176.1180
192.994169 82.302 175.2489
194.392685 82.358 174.3335
195.801334 82.384 173.4113
197.220191 82.387 172.5134
198.649330 82.373 171.6679
200.088825 82.349 170.9003
201.538751 82.316 170.2288
202.999184 82.279 169.6596
204.470200 82.239 169.1852
205.951875 82.198 168.7908
207.444287 82.158 168.4631
208.947514 82.122 168.1934
210.461634 82.090 167.9747
211.986726 82.061 167.8013
213.522869 82.034 167.6658
215.070144 82.004 167.5581
216.628631 81.971 167.4696
218.198411 81.934 167.3976
219.779567 81.895 167.3377
221.372180 81.857 167.2834
222.976334 81.820 167.2322
224.592112 81.786 167.1900
226.219600 81.753 167.1688
227.858880 81.722 167.1756
229.510039 81.692 167.2024
231.173164 81.662 167.2280
232.848340 81.632 167.2333
234.535655 81.600 167.2156
236.235197 81.567 167.1921
237.947054 81.534 167.1840
239.671317 81.501 167.1982
241.408074 81.471 167.2225
243.157416 81.441 167.2394
244.919435 81.409 167.2450
246.694223 81.377 167.2497
248.481871 81.347 167.2619
250.282473 81.321 167.2803
252.096123 81.298 167.2994
253.922915 81.278 167.3173
255.762945 81.257 167.3339
257.616309 81.236 167.3494
259.483103 81.213 167.3669
261.363424 81.188 167.3908
263.257372 81.163 167.4230
265.165043 81.139 167.4633
267.086538 81.116 167.5167
269.021957 81.092 167.5939
270.971401 81.071 167.7016
272.934972 81.053 167.8307
274.912771 81.039 167.9575
276.904902 81.029 168.0598
278.911469 81.023 168.1277
280.932577 81.018 168.1668
282.968330 81.013 168.1921
285.018835 81.003 168.2182
287.084199 80.988 168.2539
289.164530 80.968 168.3039
291.259935 80.943 168.3702
293.370525 80.917 168.4528
295.496408 80.891 168.5466
297.637697 80.866 168.6393
299.794503 80.842 168.7125
301.966937 80.820 168.7511
304.155114 80.798 168.7524
306.359147 80.777 168.7292
308.579152 80.757 168.7051
310.815244 80.741 168.7046
313.067539 80.728 168.7410
315.336156 80.720 168.8080
317.621211 80.715 168.8872
319.922826 80.708 168.9658
322.241118 80.699 169.0461
324.576210 80.686 169.1373
326.928223 80.670 169.2451
329.297280 80.655 169.3698
331.683504 80.641 169.5067
334.087019 80.630 169.6474
336.507952 80.622 169.7841
338.946427 80.616 169.9154
341.402572 80.611 170.0438
343.876516 80.605 170.1698
346.368387 80.596 170.2891
348.878315 80.585 170.3948
351.406431 80.572 170.4833
353.952867 80.556 170.5543
356.517756 80.539 170.6078
359.101230 80.519 170.6475
361.703426 80.497 170.6847
364.324478 80.472 170.7306
366.964523 80.447 170.7880
369.623699 80.424 170.8556
372.302145 80.402 170.9319
375.000000 80.381 171.0098
377.717405 80.360 171.0751
380.454501 80.339 171.1175
383.211431 80.320 171.1397
385.988339 80.303 171.1563
388.785369 80.290 171.1849
391.602668 80.282 171.2374
394.440383 80.278 171.3143
397.298660 80.275 171.4078
400.177650 80.270 171.5090
403.077502 80.261 171.6151
405.998368 80.246 171.7256
408.940400 80.225 171.8343
411.903750 80.200 171.9279
414.888575 80.175 171.9951
417.895028 80.153 172.0378
420.923268 80.136 172.0761
423.973452 80.121 172.1330
427.045738 80.106 172.2157
430.140287 80.088 172.3138
433.257261 80.068 172.4144
436.396822 80.049 172.5149
439.559133 80.032 172.6188
442.744360 80.020 172.7276
445.952668 80.010 172.8389
449.184225 80.000 172.9481
452.439199 79.988 173.0530
455.717760 79.973 173.1562
459.020079 79.954 173.2598
462.346327 79.933 173.3636
465.696680 79.909 173.4693
469.071310 79.883 173.5818
472.470394 79.857 173.7042
475.894109 79.831 173.8337
479.342634 79.809 173.9644
482.816148 79.793 174.0881
486.314833 79.781 174.1976
489.838871 79.769 174.2965
493.388445 79.754 174.4010
496.963741 79.735 174.5266
500.564945 79.713 174.6771
504.192245 79.691 174.8449
507.845830 79.672 175.0169
511.525890 79.656 175.1849
515.232618 79.643 175.3498
518.966206 79.630 175.5134
522.726849 79.616 175.6740
526.514743 79.600 175.8271
530.330086 79.582 175.9670
534.173076 79.561 176.0923
538.043915 79.539 176.2078
541.942803 79.518 176.3244
545.869944 79.499 176.4554
549.825542 79.481 176.6111
553.809805 79.463 176.7973
557.822939 79.445 177.0158
561.865154 79.425 177.2631
565.936660 79.405 177.5250
570.037671 79.384 177.7758
574.168399 79.362 177.9903
578.329060 79.342 178.1563
582.519870 79.323 178.2781
586.741049 79.306 178.3732
590.992817 79.289 178.4627
595.275394 79.272 178.5671
599.589005 79.256 178.7042
603.933874 79.240 178.8835
608.310228 79.226 179.1036
612.718295 79.216 179.3520
617.158304 79.207 179.6089
621.630488 79.198 179.8556
626.135079 79.187 -179.9160
630.672311 79.173 -179.6977
635.242423 79.157 -179.4743
639.845651 79.140 -179.2411
644.482237 79.123 -179.0057
649.152421 79.108 -178.7750
653.856447 79.093 -178.5484
658.594560 79.076 -178.3238
663.367008 79.058 -178.1005
668.174039 79.041 -177.8768
673.015903 79.025 -177.6512
677.892854 79.013 -177.4192
682.805145 79.002 -177.1709
687.753032 78.993 -176.8933
692.736774 78.984 -176.5820
697.756631 78.973 -176.2466
702.812863 78.962 -175.9056
707.905735 78.949 -175.5726
713.035511 78.936 -175.2510
718.202461 78.923 -174.9416
723.406852 78.911 -174.6489
728.648956 78.901 -174.3774
733.929047 78.893 -174.1280
739.247399 78.887 -173.8928
744.604290 78.884 -173.6542
750.000000 78.881 -173.3954
755.434809 78.878 -173.1094
760.909001 78.874 -172.8002
766.422861 78.868 -172.4757
771.976677 78.862 -172.1373
777.570739 78.856 -171.7826
783.205337 78.852 -171.4128
788.880766 78.850 -171.0356
794.597321 78.850 -170.6598
800.355301 78.850 -170.2895
806.155005 78.852 -169.9249
811.996736 78.855 -169.5705
817.880799 78.862 -169.2370
823.807501 78.871 -168.9269
829.777150 78.882 -168.6281
835.790057 78.894 -168.3224
841.846536 78.907 -167.9970
847.946903 78.919 -167.6484
854.091476 78.931 -167.2780
860.280575 78.942 -166.8871
866.514523 78.953 -166.4808
872.793644 78.966 -166.0721
879.118267 78.982 -165.6797
885.488720 79.001 -165.3138
891.905336 79.021 -164.9713
898.368450 79.043 -164.6437
904.878398 79.063 -164.3214
911.435520 79.081 -163.9943
918.040157 79.098 -163.6525
924.692655 79.113 -163.2900
931.393359 79.128 -162.9062
938.142619 79.144 -162.5083
944.940787 79.163 -162.1145
951.788218 79.186 -161.7487
958.685268 79.214 -161.4271
965.632296 79.245 -161.1492
972.629666 79.278 -160.8998
979.677741 79.311 -160.6586
986.776890 79.346 -160.4045
993.927482 79.382 -160.1240
1001.129891 79.421 -159.8185
1008.384491 79.462 -159.5034
1015.691660 79.506 -159.1965
1023.051781 79.552 -158.9071
1030.465236 79.599 -158.6358
1037.932411 79.645 -158.3797
1045.453698 79.689 -158.1357
1053.029486 79.731 -157.9018
1060.660172 79.774 -157.6772
1068.346153 79.817 -157.4556
1076.087829 79.861 -157.2279
1083.885605 79.905 -156.9962
1091.739887 79.949 -156.7748
1099.651084 79.991 -156.5752
1107.619609 80.031 -156.3950
1115.645878 80.069 -156.2195
1123.730308 80.107 -156.0343
1131.873321 80.147 -155.8399
1140.075341 80.188 -155.6527
1148.336797 80.230 -155.4867
1156.658119 80.270 -155.3405
1165.039741 80.307 -155.2025
1173.482099 80.341 -155.0609
1181.985634 80.375 -154.9091
1190.550789 80.409 -154.7505
1199.178011 80.443 -154.5958
1207.867749 80.480 -154.4473
1216.620457 80.518 -154.3003
1225.436590 80.557 -154.1543
1234.316609 80.595 -154.0114
1243.260976 80.631 -153.8721
1252.270157 80.662 -153.7348
1261.344623 80.691 -153.6001
1270.484846 80.717 -153.4721
1279.691303 80.741 -153.3539
1288.964474 80.766 -153.2459
1298.304842 80.794 -153.1446
1307.712894 80.825 -153.0434
1317.189120 80.859 -152.9347
1326.734016 80.892 -152.8157
1336.348077 80.925 -152.6887
1346.031806 80.955 -152.5557
1355.785708 80.983 -152.4180
1365.610290 81.010 -152.2750
1375.506065 81.035 -152.1216
1385.473549 81.059 -151.9518
1395.513261 81.083 -151.7640
1405.625726 81.107 -151.5643
1415.811469 81.132 -151.3616
1426.071023 81.157 -151.1610
1436.404921 81.181 -150.9638
1446.813703 81.205 -150.7679
1457.297912 81.227 -150.5697
1467.858093 81.250 -150.3680
1478.494798 81.275 -150.1640
1489.208581 81.300 -149.9574
1500.000000 81.327 -149.7443
1510.869618 81.355 -149.5188
1521.818002 81.385 -149.2772
1532.845723 81.417 -149.0198
1543.953355 81.452 -148.7506
1555.141477 81.487 -148.4756
1566.410674 81.522 -148.1989
1577.761531 81.556 -147.9212
1589.194642 81.590 -147.6449
1600.710601 81.624 -147.3738
1612.310010 81.660 -147.1097
1623.993473 81.701 -146.8522
1635.761599 81.745 -146.5986
1647.615002 81.791 -146.3429
1659.554299 81.837 -146.0789
1671.580114 81.882 -145.8058
1683.693072 81.928 -145.5293
1695.893807 81.973 -145.2552
1708.182952 82.021 -144.9840
1720.561150 82.070 -144.7123
1733.029045 82.121 -144.4360
1745.587288 82.174 -144.1509
1758.236533 82.226 -143.8552
1770.977440 82.280 -143.5502
1783.810673 82.335 -143.2380
1796.736900 82.393 -142.9200
1809.756796 82.454 -142.5988
1822.871040 82.519 -142.2792
1836.080315 82.585 -141.9648
1849.385310 82.652 -141.6546
1862.786718 82.720 -141.3454
1876.285239 82.789 -141.0363
1889.881575 82.860 -140.7305
1903.576436 82.933 -140.4305
1917.370535 83.009 -140.1352
1931.264593 83.087 -139.8431
1945.259332 83.168 -139.5554
1959.355483 83.251 -139.2744
1973.553781 83.336 -139.0011
1987.854965 83.424 -138.7337
2002.259781 83.513 -138.4691
2016.768981 83.605 -138.2045
2031.383320 83.699 -137.9401
2046.103561 83.797 -137.6786
2060.930471 83.898 -137.4219
2075.864823 84.002 -137.1718
2090.907395 84.110 -136.9314
2106.058972 84.221 -136.7043
2121.320344 84.336 -136.4916
2136.692305 84.454 -136.2916
2152.175658 84.574 -136.1014
2167.771210 84.696 -135.9201
2183.479774 84.820 -135.7502
2199.302169 84.945 -135.5960
2215.239219 85.072 -135.4620
2231.291755 85.202 -135.3509
2247.460615 85.335 -135.2620
2263.746641 85.472 -135.1925
2280.150683 85.611 -135.1405
2296.673595 85.753 -135.1073
2313.316238 85.899 -135.0974
2330.079481 86.047 -135.1157
2346.964198 86.198 -135.1636
2363.971268 86.351 -135.2402
2381.101578 86.506 -135.3444
2398.356022 86.662 -135.4762
2415.735498 86.820 -135.6379
2433.240913 86.980 -135.8330
2450.873180 87.142 -136.0652
2468.633217 87.306 -136.3381
2486.521951 87.473 -136.6533
2504.540314 87.641 -137.0105
2522.689246 87.811 -137.4089
2540.969692 87.981 -137.8503
2559.382606 88.151 -138.3380
2577.928947 88.320 -138.8759
2596.609683 88.489 -139.4658
2615.425787 88.656 -140.1083
2634.378241 88.821 -140.8020
2653.468031 88.983 -141.5455
2672.696154 89.142 -142.3384
2692.063613 89.298 -143.1814
2711.571415 89.448 -144.0751
2731.220579 89.595 -145.0187
2751.012130 89.737 -146.0098
2770.947098 89.874 -147.0437
2791.026522 90.005 -148.1152
2811.251451 90.131 -149.2197
2831.622938 90.249 -150.3531
2852.142045 90.360 -151.5111
2872.809842 90.464 -152.6902
2893.627406 90.560 -153.8875
2914.595823 90.650 -155.1005
2935.716186 90.733 -156.3257
2956.989596 90.810 -157.5592
2978.417161 90.882 -158.7978
3000.000000 90.949 -160.0406
3021.739237 91.013 -161.2891
3043.636005 91.073 -162.5470
3065.691446 91.131 -163.8184
3087.906710 91.187 -165.1076
3110.282955 91.241 -166.4196
3132.821347 91.293 -167.7601
3155.523062 91.342 -169.1364
3178.389283 91.388 -170.5566
3201.421202 91.431 -172.0289
3224.620020 91.468 -173.5608
3247.986946 91.497 -175.1574
3271.523198 91.518 -176.8194
3295.230004 91.527 -178.5438
3319.108599 91.522 179.6760
3343.160228 91.501 177.8498
3367.386145 91.462 175.9902
3391.787613 91.402 174.1122
3416.365904 91.321 172.2328
3441.122300 91.218 170.3712
3466.058091 91.092 168.5474
3491.174576 90.945 166.7813
3516.473066 90.777 165.0903
3541.954880 90.591 163.4899
3567.621345 90.388 161.9942
3593.473800 90.172 160.6152
3619.513592 89.944 159.3621
3645.742080 89.707 158.2394
3672.160630 89.465 157.2481
3698.770620 89.220 156.3851
3725.573436 88.974 155.6454
3752.570477 88.730 155.0233
3779.763150 88.489 154.5127
3807.152872 88.253 154.1066
3834.741071 88.021 153.7967
3862.529185 87.795 153.5740
3890.518664 87.575 153.4296
3918.710966 87.363 153.3546
3947.107561 87.158 153.3405
3975.709929 86.961 153.3806
4004.519563 86.772 153.4687
4033.537962 86.591 153.5981
4062.766641 86.418 153.7616
4092.207123 86.252 153.9532
4121.860942 86.093 154.1693
4151.729646 85.942 154.4072
4181.814790 85.797 154.6635
4212.117944 85.659 154.9345
4242.640687 85.528 155.2169
4273.384610 85.403 155.5082
4304.351317 85.284 155.8058
4335.542421 85.171 156.1058
4366.959549 85.064 156.4046
4398.604338 84.961 156.7000
4430.478438 84.862 156.9915
4462.583511 84.767 157.2789
4494.921231 84.675 157.5627
4527.493283 84.586 157.8426
4560.301365 84.501 158.1171
4593.347189 84.419 158.3830
4626.632476 84.341 158.6371
4660.158962 84.266 158.8782
4693.928395 84.194 159.1066
4727.942535 84.124 159.3214
4762.203156 84.056 159.5206
4796.712043 83.989 159.7045
4831.470996 83.923 159.8753
4866.481826 83.858 160.0349
4901.746360 83.794 160.1832
4937.266434 83.730 160.3199
4973.043902 83.668 160.4448
5009.080628 83.606 160.5577
5045.378492 83.544 160.6596
5081.939384 83.482 160.7517
5118.765212 83.419 160.8362
5155.857894 83.355 160.9154
5193.219366 83.291 160.9919
5230.851574 83.226 161.0675
5268.756481 83.160 161.1433
5306.936062 83.094 161.2189
5345.392309 83.027 161.2932
5384.127225 82.960 161.3660
5423.142830 82.892 161.4371
5462.441159 82.824 161.5056
5502.024259 82.757 161.5709
5541.894195 82.688 161.6337
5582.053045 82.620 161.6948
5622.502902 82.552 161.7533
5663.245876 82.483 161.8073
5704.284090 82.413 161.8540
5745.619684 82.342 161.8896
5787.254813 82.269 161.9100
5829.191647 82.193 161.9132
5871.432373 82.112 161.9024
5913.979192 82.025 161.8867
5956.834323 81.931 161.8785
6000.000000 81.828 161.8910
6043.478473 81.716 161.9374
6087.272010 81.596 162.0325
6131.382892 81.468 162.1926
6175.813420 81.335 162.4331
6220.565910 81.197 162.7676
6265.642695 81.059 163.2073
6311.046124 80.922 163.7604
6356.778566 80.790 164.4304
6402.842404 80.667 165.2122
6449.240040 80.556 166.0933
6495.973891 80.458 167.0576
6543.046396 80.375 168.0903
6590.460007 80.308 169.1772
6638.217197 80.260 170.3043
6686.320456 80.230 171.4601
6734.772290 80.219 172.6364
6783.575226 80.228 173.8268
6832.731809 80.257 175.0215
6882.244600 80.308 176.2078
6932.116181 80.382 177.3717
6982.349153 80.478 178.4982
7032.946133 80.596 179.5717
7083.909760 80.738 -179.4238
7135.242690 80.902 -178.5035
7186.947600 81.089 -177.6842
7239.027185 81.299 -176.9867
7291.484160 81.530 -176.4359
7344.321260 81.782 -176.0589
7397.541239 82.055 -175.8831
7451.146872 82.347 -175.9363
7505.140954 82.654 -176.2456
7559.526299 82.972 -176.8378
7614.305743 83.299 -177.7398
7669.482141 83.626 -178.9782
7725.058371 83.945 179.4235
7781.037328 84.248 177.4505
7837.421932 84.522 175.1016
7894.215122 84.756 172.3938
7951.419859 84.936 169.3648
8009.039125 85.052 166.0728
8067.075924 85.095 162.5948
8125.533282 85.059 159.0211
8184.414245 84.941 155.4509
8243.721885 84.742 151.9866
8303.459292 84.468 148.7269
8363.629581 84.127 145.7582
8424.235888 83.730 143.1467
8485.281374 83.291 140.9337
8546.769221 82.825 139.1337
8608.702634 82.348 137.7349
8671.084842 81.872 136.7008
8733.919097 81.408 135.9788
8797.208675 80.962 135.5098
8860.956876 80.538 135.2385
8925.167022 80.135 135.1201
8989.842461 79.751 135.1224
9054.986566 79.385 135.2250
9120.602731 79.035 135.4118
9186.694378 78.700 135.6664
9253.264952 78.381 135.9703
9320.317925 78.076 136.3043
9387.856790 77.786 136.6479
9455.885071 77.508 136.9803
9524.406312 77.240 137.2812
9593.424086 76.980 137.5336
9662.941992 76.725 137.7263
9732.963653 76.470 137.8553
9803.492719 76.211 137.9207
9874.532869 75.944 137.9247
9946.087805 75.663 137.8730
10018.161257 75.366 137.7768
10090.756983 75.049 137.6522
10163.878768 74.710 137.5193
10237.530423 74.347 137.4032
10311.715789 73.959 137.3350
10386.438732 73.548 137.3508
10461.703149 73.113 137.4867
10537.512962 72.658 137.7747
10613.872125 72.182 138.2415
10690.784618 71.689 138.9083
10768.254450 71.180 139.7891
10846.285661 70.660 140.8886
10924.882318 70.133 142.2034
11004.048518 69.604 143.7267
11083.788390 69.076 145.4543
11164.106090 68.553 147.3854
11245.005805 68.040 149.5179
11326.491752 67.541 151.8461
11408.568180 67.057 154.3624
11491.239368 66.589 157.0569
11574.509626 66.135 159.9178
11658.383294 65.697 162.9317
11742.864745 65.275 166.0828
11827.958384 64.872 169.3554
11913.668646 64.493 172.7367
12000.000000 64.139 176.2146
12086.956947 63.811 179.7770
12174.544019 63.510 -176.5828
12262.765784 63.236 -172.8689
12351.626840 62.989 -169.0915
12441.131819 62.770 -165.2653
12531.285389 62.579 -161.4034
12622.092249 62.416 -157.5190
12713.557132 62.279 -153.6326
12805.684808 62.168 -149.7733
12898.480079 62.086 -145.9679
12991.947783 62.033 -142.2298
13086.092792 62.012 -138.5532
13180.920015 62.021 -134.9131
13276.434395 62.063 -131.2867
13372.640911 62.138 -127.6693
13469.544580 62.248 -124.0675
13567.150452 62.395 -120.4878
13665.463617 62.580 -116.9356
13764.489200 62.806 -113.4235
13864.232362 63.080 -109.9743
13964.698305 63.409 -106.6224
14065.892266 63.803 -103.4068
14167.819519 64.269 -100.3645
14270.485380 64.813 -97.5313
14373.895200 65.440 -94.9591
14478.054370 66.153 -92.7250
14582.968320 66.953 -90.9332
14688.642520 67.835 -89.7147
14795.082478 68.788 -89.2191
14902.293745 69.791 -89.5996
15010.281908 70.813 -90.9936
15119.052599 71.818 -93.5034
15228.611486 72.762 -97.1777
15338.964283 73.601 -101.9956
15450.116741 74.289 -107.8523
15562.074656 74.784 -114.5456
15674.843864 75.054 -121.7736
15788.430244 75.082 -129.1571
15902.839718 74.869 -136.2935
16018.078250 74.438 -142.8210
16134.151848 73.824 -148.4644
16251.066563 73.070 -153.0517
16368.828491 72.223 -156.5111
16487.443769 71.325 -158.8547
16606.918584 70.415 -160.1580
16727.259161 69.521 -160.5374
16848.471777 68.664 -160.1246
16970.562748 67.857 -159.0446
17093.538442 67.104 -157.4034
17217.405268 66.405 -155.2859
17342.169684 65.762 -152.7653
17467.838194 65.174 -149.9196
17594.417350 64.642 -146.8450
17721.913751 64.166 -143.6604
17850.334044 63.736 -140.4852
17979.684923 63.336 -137.4015
18109.973131 62.949 -134.4180
18241.205462 62.554 -131.4558
18373.388756 62.144 -128.3754
18506.529905 61.720 -125.0401
18640.635849 61.294 -121.3762
18775.713581 60.882 -117.4026
18911.770141 60.501 -113.2274
19048.812624 60.159 -109.0213
19186.848172 59.860 -104.9816
19325.883983 59.596 -101.2946
19465.927305 59.361 -98.1056
19606.985439 59.150 -95.5023
19749.065738 58.967 -93.5229
19892.175609 58.827 -92.1821
20036.322514 58.749 -91.4995
