* Measurement data measured by REW V5.31.3
* Source: Headset (CX31993 HIFI AUDIO), MICROPHONE (Master Volume), R, volume: 0.400
* Format: 256k Log Swept Sine, 1 sweep at -11.9 dBFS with no timing reference
* Dated: 06 25, 25 12:00:57 PM
* REW Settings:
*  C-weighting compensation: Off
*  Target level: 75.0 dB
* Note: 
* Measurement: Xiaomi Buds 6 Play vocal R
* Smoothing: 1/12 octave
* Frequency Step: 96 ppo
* Start Frequency: 0.36621094 Hz
*
* Freq(Hz) SPL(dB) Phase(degrees)
0.366211 35.031 158.0104
0.368865 35.035 157.9265
0.371538 35.042 157.8017
0.374230 35.050 157.6465
0.376942 35.059 157.4698
0.379673 35.069 157.2782
0.382424 35.080 157.0762
0.385196 35.090 156.8664
0.387987 35.101 156.6504
0.390798 35.112 156.4289
0.393630 35.123 156.2024
0.396483 35.134 155.9711
0.399356 35.146 155.7350
0.402250 35.157 155.4941
0.405165 35.168 155.2484
0.408101 35.180 154.9978
0.411058 35.192 154.7423
0.414037 35.203 154.4818
0.417037 35.215 154.2162
0.420059 35.227 153.9453
0.423103 35.239 153.6693
0.426169 35.251 153.3878
0.429257 35.263 153.1010
0.432368 35.275 152.8086
0.435501 35.287 152.5107
0.438656 35.300 152.2070
0.441835 35.312 151.8976
0.445037 35.325 151.5822
0.448262 35.338 151.2609
0.451510 35.350 150.9336
0.454782 35.363 150.6001
0.458077 35.376 150.2603
0.461397 35.389 149.9142
0.464740 35.402 149.5616
0.468108 35.415 149.2024
0.471500 35.429 148.8366
0.474917 35.442 148.4641
0.478358 35.456 148.0846
0.481825 35.469 147.6982
0.485316 35.483 147.3046
0.488833 35.497 146.9039
0.492375 35.511 146.4958
0.495943 35.524 146.0803
0.499537 35.539 145.6572
0.503157 35.553 145.2265
0.506803 35.567 144.7879
0.510475 35.581 144.3414
0.514175 35.596 143.8869
0.517900 35.611 143.4241
0.521653 35.625 142.9531
0.525434 35.640 142.4737
0.529241 35.655 141.9856
0.533076 35.670 141.4889
0.536939 35.685 140.9833
0.540830 35.701 140.4688
0.544749 35.716 139.9451
0.548696 35.731 139.4121
0.552673 35.747 138.8698
0.556677 35.763 138.3179
0.560711 35.779 137.7564
0.564774 35.794 137.1850
0.568867 35.810 136.6037
0.572989 35.827 136.0122
0.577141 35.843 135.4105
0.581324 35.859 134.7984
0.585536 35.876 134.1757
0.589779 35.893 133.5424
0.594053 35.909 132.8982
0.598358 35.926 132.2431
0.602694 35.943 131.5769
0.607061 35.960 130.8994
0.611460 35.978 130.2105
0.615891 35.995 129.5102
0.620354 36.012 128.7982
0.624849 36.030 128.0745
0.629377 36.048 127.3390
0.633938 36.066 126.5914
0.638532 36.084 125.8318
0.643159 36.102 125.0601
0.647819 36.120 124.2761
0.652514 36.139 123.4798
0.657242 36.157 122.6711
0.662005 36.176 121.8500
0.666802 36.195 121.0164
0.671634 36.214 120.1703
0.676501 36.233 119.3117
0.681403 36.252 118.4406
0.686341 36.271 117.5569
0.691314 36.291 116.6609
0.696324 36.311 115.7525
0.701370 36.332 114.8319
0.706452 36.354 113.8993
0.711571 36.377 112.9550
0.716728 36.403 111.9996
0.721921 36.433 111.0338
0.727153 36.468 110.0589
0.732422 36.511 109.0762
0.737729 36.562 108.0878
0.743075 36.621 107.0955
0.748460 36.687 106.1013
0.753883 36.759 105.1067
0.759346 36.836 104.1131
0.764849 36.917 103.1216
0.770391 37.002 102.1331
0.775974 37.090 101.1485
0.781597 37.181 100.1684
0.787261 37.276 99.1935
0.792966 37.373 98.2244
0.798712 37.474 97.2616
0.804500 37.577 96.3055
0.810329 37.684 95.3566
0.816201 37.794 94.4152
0.822116 37.906 93.4816
0.828073 38.021 92.5561
0.834074 38.140 91.6389
0.840118 38.261 90.7301
0.846206 38.384 89.8300
0.852338 38.511 88.9385
0.858514 38.640 88.0556
0.864735 38.772 87.1815
0.871001 38.906 86.3160
0.877313 39.042 85.4591
0.883670 39.182 84.6106
0.890074 39.323 83.7705
0.896524 39.467 82.9386
0.903020 39.613 82.1147
0.909564 39.761 81.2986
0.916155 39.911 80.4901
0.922794 40.062 79.6889
0.929481 40.216 78.8948
0.936216 40.372 78.1075
0.943000 40.529 77.3266
0.949834 40.687 76.5520
0.956717 40.847 75.7833
0.963649 41.008 75.0202
0.970632 41.171 74.2623
0.977666 41.334 73.5094
0.984750 41.498 72.7611
0.991886 41.663 72.0171
0.999074 41.828 71.2771
1.006314 41.994 70.5406
1.013606 42.160 69.8075
1.020951 42.326 69.0773
1.028349 42.492 68.3498
1.035801 42.657 67.6247
1.043307 42.822 66.9016
1.050867 42.987 66.1803
1.058482 43.150 65.4607
1.066152 43.313 64.7428
1.073878 43.475 64.0265
1.081660 43.635 63.3124
1.089498 43.795 62.6012
1.097393 43.954 61.8940
1.105345 44.113 61.1921
1.113355 44.272 60.4972
1.121423 44.432 59.8103
1.129549 44.593 59.1324
1.137734 44.754 58.4640
1.145979 44.917 57.8052
1.154283 45.080 57.1561
1.162647 45.245 56.5164
1.171072 45.411 55.8861
1.179558 45.578 55.2648
1.188106 45.745 54.6523
1.196715 45.914 54.0481
1.205387 46.084 53.4519
1.214122 46.255 52.8634
1.222920 46.426 52.2822
1.231782 46.599 51.7078
1.240708 46.772 51.1400
1.249699 46.946 50.5783
1.258754 47.120 50.0223
1.267876 47.296 49.4716
1.277063 47.471 48.9259
1.286318 47.648 48.3846
1.295639 47.825 47.8476
1.305027 48.002 47.3142
1.314484 48.179 46.7842
1.324009 48.357 46.2571
1.333604 48.535 45.7326
1.343268 48.713 45.2103
1.353002 48.891 44.6897
1.362806 49.070 44.1706
1.372681 49.248 43.6525
1.382628 49.426 43.1352
1.392647 49.603 42.6182
1.402739 49.781 42.1014
1.412904 49.957 41.5843
1.423142 50.134 41.0671
1.433455 50.310 40.5496
1.443843 50.485 40.0321
1.454305 50.659 39.5152
1.464844 50.833 38.9998
1.475459 51.006 38.4870
1.486150 51.179 37.9777
1.496920 51.351 37.4727
1.507767 51.522 36.9725
1.518693 51.693 36.4772
1.529698 51.863 35.9867
1.540783 52.033 35.5007
1.551948 52.202 35.0189
1.563194 52.370 34.5408
1.574521 52.539 34.0661
1.585931 52.707 33.5941
1.597423 52.874 33.1246
1.608999 53.041 32.6570
1.620658 53.207 32.1909
1.632402 53.374 31.7257
1.644232 53.539 31.2611
1.656146 53.705 30.7966
1.668147 53.870 30.3318
1.680235 54.035 29.8662
1.692411 54.200 29.3993
1.704675 54.364 28.9308
1.717028 54.529 28.4602
1.729470 54.693 27.9871
1.742003 54.857 27.5111
1.754626 55.021 27.0319
1.767341 55.185 26.5492
1.780147 55.349 26.0627
1.793047 55.512 25.5723
1.806040 55.676 25.0782
1.819128 55.840 24.5806
1.832310 56.003 24.0802
1.845587 56.166 23.5778
1.858961 56.329 23.0742
1.872432 56.491 22.5701
1.886001 56.652 22.0660
1.899667 56.813 21.5623
1.913433 56.973 21.0591
1.927299 57.132 20.5565
1.941265 57.290 20.0546
1.955332 57.448 19.5532
1.969501 57.606 19.0523
1.983773 57.762 18.5517
1.998148 57.919 18.0513
2.012627 58.074 17.5510
2.027212 58.229 17.0505
2.041902 58.384 16.5496
2.056698 58.538 16.0481
2.071602 58.692 15.5458
2.086614 58.846 15.0423
2.101734 59.000 14.5376
2.116964 59.153 14.0312
2.132304 59.306 13.5230
2.147756 59.459 13.0128
2.163320 59.611 12.5003
2.178996 59.763 11.9856
2.194786 59.915 11.4688
2.210690 60.067 10.9499
2.226710 60.218 10.4293
2.242845 60.368 9.9073
2.259098 60.518 9.3843
2.275468 60.667 8.8603
2.291957 60.815 8.3358
2.308566 60.963 7.8106
2.325295 61.110 7.2851
2.342145 61.256 6.7592
2.359117 61.401 6.2329
2.376212 61.546 5.7063
2.393431 61.690 5.1793
2.410775 61.834 4.6519
2.428244 61.977 4.1240
2.445840 62.120 3.5954
2.463564 62.262 3.0661
2.481416 62.404 2.5359
2.499397 62.546 2.0046
2.517509 62.687 1.4720
2.535752 62.828 0.9379
2.554127 62.969 0.4021
2.572635 63.109 -0.1356
2.591277 63.248 -0.6751
2.610055 63.387 -1.2166
2.628968 63.525 -1.7598
2.648019 63.662 -2.3046
2.667208 63.798 -2.8508
2.686535 63.934 -3.3981
2.706003 64.069 -3.9463
2.725612 64.203 -4.4952
2.745363 64.336 -5.0447
2.765257 64.469 -5.5946
2.785295 64.601 -6.1447
2.805478 64.733 -6.6950
2.825808 64.864 -7.2455
2.846285 64.995 -7.7962
2.866910 65.125 -8.3472
2.887685 65.255 -8.8986
2.908611 65.384 -9.4508
2.929688 65.512 -10.0041
2.950917 65.640 -10.5587
2.972301 65.768 -11.1150
2.993839 65.894 -11.6731
3.015534 66.020 -12.2327
3.037386 66.145 -12.7939
3.059396 66.269 -13.3562
3.081565 66.392 -13.9193
3.103896 66.514 -14.4829
3.126388 66.636 -15.0468
3.149043 66.757 -15.6105
3.171862 66.878 -16.1739
3.194847 66.998 -16.7369
3.217998 67.117 -17.2992
3.241317 67.236 -17.8610
3.264805 67.354 -18.4225
3.288463 67.471 -18.9841
3.312293 67.588 -19.5460
3.336295 67.704 -20.1089
3.360471 67.819 -20.6729
3.384822 67.933 -21.2380
3.409350 68.047 -21.8041
3.434056 68.160 -22.3709
3.458940 68.272 -22.9379
3.484005 68.383 -23.5049
3.509252 68.493 -24.0713
3.534681 68.603 -24.6368
3.560295 68.712 -25.2012
3.586094 68.820 -25.7642
3.612081 68.928 -26.3258
3.638255 69.035 -26.8862
3.664620 69.141 -27.4459
3.691175 69.246 -28.0053
3.717923 69.351 -28.5649
3.744864 69.455 -29.1247
3.772001 69.558 -29.6847
3.799335 69.660 -30.2447
3.826866 69.761 -30.8043
3.854597 69.861 -31.3628
3.882529 69.961 -31.9199
3.910664 70.060 -32.4750
3.939002 70.158 -33.0279
3.967546 70.256 -33.5783
3.996296 70.353 -34.1262
4.025255 70.449 -34.6719
4.054423 70.544 -35.2158
4.083804 70.639 -35.7584
4.113396 70.732 -36.2998
4.143204 70.825 -36.8401
4.173227 70.917 -37.3790
4.203468 71.008 -37.9160
4.233928 71.099 -38.4507
4.264609 71.188 -38.9826
4.295512 71.277 -39.5111
4.326639 71.366 -40.0359
4.357992 71.454 -40.5570
4.389572 71.541 -41.0743
4.421380 71.627 -41.5882
4.453419 71.713 -42.0991
4.485691 71.798 -42.6072
4.518196 71.882 -43.1124
4.550936 71.966 -43.6145
4.583914 72.049 -44.1133
4.617131 72.131 -44.6082
4.650589 72.213 -45.0989
4.684289 72.295 -45.5849
4.718233 72.376 -46.0660
4.752424 72.457 -46.5421
4.786862 72.537 -47.0134
4.821549 72.617 -47.4801
4.856488 72.696 -47.9423
4.891680 72.775 -48.4003
4.927127 72.853 -48.8539
4.962831 72.932 -49.3032
4.998794 73.010 -49.7479
5.035017 73.088 -50.1880
5.071503 73.166 -50.6231
5.108253 73.244 -51.0533
5.145270 73.322 -51.4784
5.182555 73.400 -51.8986
5.220110 73.477 -52.3141
5.257937 73.555 -52.7251
5.296038 73.633 -53.1320
5.334415 73.712 -53.5352
5.373071 73.790 -53.9349
5.412006 73.869 -54.3313
5.451224 73.948 -54.7246
5.490725 74.027 -55.1148
5.530514 74.107 -55.5019
5.570590 74.187 -55.8862
5.610957 74.268 -56.2678
5.651616 74.349 -56.6473
5.692570 74.431 -57.0254
5.733821 74.513 -57.4028
5.775370 74.595 -57.7801
5.817221 74.678 -58.1577
5.859375 74.762 -58.5360
5.901834 74.846 -58.9150
5.944602 74.931 -59.2948
5.987679 75.016 -59.6759
6.031068 75.102 -60.0586
6.074771 75.188 -60.4438
6.118792 75.275 -60.8321
6.163131 75.361 -61.2241
6.207792 75.449 -61.6203
6.252776 75.536 -62.0210
6.298086 75.623 -62.4263
6.343725 75.711 -62.8361
6.389694 75.799 -63.2507
6.435996 75.887 -63.6703
6.482634 75.974 -64.0952
6.529610 76.062 -64.5257
6.576926 76.149 -64.9620
6.624585 76.235 -65.4044
6.672590 76.322 -65.8527
6.720942 76.407 -66.3068
6.769645 76.493 -66.7663
6.818700 76.577 -67.2308
6.868111 76.661 -67.7001
6.917881 76.743 -68.1738
6.968010 76.825 -68.6520
7.018504 76.906 -69.1344
7.069362 76.985 -69.6208
7.120590 77.063 -70.1104
7.172189 77.141 -70.6027
7.224161 77.217 -71.0966
7.276511 77.292 -71.5915
7.329239 77.365 -72.0869
7.382350 77.437 -72.5825
7.435845 77.508 -73.0779
7.489729 77.578 -73.5726
7.544002 77.646 -74.0656
7.598669 77.713 -74.5562
7.653732 77.779 -75.0434
7.709194 77.844 -75.5269
7.765058 77.908 -76.0063
7.821327 77.971 -76.4813
7.878004 78.033 -76.9518
7.935091 78.094 -77.4171
7.992592 78.155 -77.8771
8.050510 78.215 -78.3312
8.108847 78.275 -78.7795
8.167607 78.335 -79.2220
8.226793 78.394 -79.6589
8.286408 78.453 -80.0906
8.346454 78.512 -80.5174
8.406936 78.571 -80.9397
8.467856 78.631 -81.3577
8.529218 78.691 -81.7718
8.591024 78.751 -82.1828
8.653278 78.811 -82.5915
8.715983 78.872 -82.9987
8.779143 78.933 -83.4052
8.842760 78.995 -83.8116
8.906839 79.057 -84.2185
8.971381 79.120 -84.6266
9.036392 79.182 -85.0367
9.101873 79.245 -85.4493
9.167829 79.309 -85.8652
9.234263 79.372 -86.2848
9.301178 79.435 -86.7082
9.368578 79.498 -87.1355
9.436467 79.560 -87.5669
9.504847 79.623 -88.0024
9.573723 79.684 -88.4419
9.643099 79.745 -88.8852
9.712976 79.805 -89.3317
9.783361 79.864 -89.7808
9.854255 79.923 -90.2318
9.925663 79.980 -90.6843
9.997588 80.036 -91.1374
10.070035 80.092 -91.5904
10.143007 80.146 -92.0425
10.216507 80.199 -92.4927
10.290540 80.251 -92.9403
10.365109 80.302 -93.3845
10.440219 80.353 -93.8250
10.515873 80.402 -94.2610
10.592076 80.451 -94.6921
10.668830 80.500 -95.1180
10.746141 80.548 -95.5385
10.824012 80.597 -95.9537
10.902447 80.645 -96.3638
10.981451 80.693 -96.7691
11.061027 80.741 -97.1699
11.141180 80.790 -97.5668
11.221913 80.838 -97.9605
11.303232 80.888 -98.3517
11.385140 80.937 -98.7413
11.467641 80.987 -99.1299
11.550741 81.038 -99.5182
11.634442 81.089 -99.9071
11.718750 81.140 -100.2972
11.803669 81.191 -100.6889
11.889203 81.243 -101.0828
11.975357 81.294 -101.4789
12.062136 81.345 -101.8774
12.149543 81.396 -102.2784
12.237583 81.447 -102.6815
12.326262 81.497 -103.0864
12.415583 81.546 -103.4927
12.505552 81.595 -103.8997
12.596172 81.644 -104.3070
12.687449 81.691 -104.7138
12.779387 81.738 -105.1195
12.871992 81.785 -105.5234
12.965268 81.830 -105.9250
13.059220 81.876 -106.3238
13.153852 81.921 -106.7194
13.249170 81.965 -107.1116
13.345179 82.009 -107.5002
13.441884 82.054 -107.8854
13.539289 82.098 -108.2671
13.637401 82.142 -108.6459
13.736223 82.186 -109.0219
13.835761 82.230 -109.3957
13.936021 82.275 -109.7678
14.037007 82.319 -110.1388
14.138725 82.364 -110.5092
14.241180 82.409 -110.8795
14.344377 82.454 -111.2504
14.448323 82.499 -111.6221
14.553021 82.544 -111.9950
14.658478 82.588 -112.3694
14.764700 82.633 -112.7455
14.871691 82.677 -113.1232
14.979457 82.721 -113.5025
15.088005 82.764 -113.8833
15.197339 82.807 -114.2654
15.307465 82.849 -114.6482
15.418389 82.891 -115.0316
15.530117 82.931 -115.4149
15.642655 82.971 -115.7976
15.756008 83.010 -116.1791
15.870182 83.049 -116.5588
15.985184 83.086 -116.9362
16.101019 83.123 -117.3106
16.217694 83.159 -117.6816
16.335214 83.195 -118.0489
16.453586 83.230 -118.4122
16.572815 83.266 -118.7716
16.692909 83.301 -119.1272
16.813872 83.336 -119.4795
16.935713 83.371 -119.8293
17.058436 83.406 -120.1774
17.182048 83.442 -120.5251
17.306556 83.478 -120.8735
17.431967 83.514 -121.2240
17.558286 83.550 -121.5778
17.685521 83.587 -121.9360
17.813677 83.623 -122.2992
17.942762 83.658 -122.6678
18.072783 83.693 -123.0417
18.203746 83.727 -123.4202
18.335658 83.760 -123.8022
18.468526 83.791 -124.1862
18.602356 83.820 -124.5703
18.737156 83.849 -124.9523
18.872934 83.876 -125.3304
19.009695 83.902 -125.7029
19.147447 83.927 -126.0686
19.286197 83.951 -126.4268
19.425953 83.976 -126.7780
19.566721 84.001 -127.1231
19.708510 84.027 -127.4640
19.851326 84.054 -127.8032
19.995177 84.082 -128.1436
20.140070 84.111 -128.4879
20.286013 84.140 -128.8387
20.433014 84.170 -129.1978
20.581080 84.199 -129.5659
20.730219 84.227 -129.9424
20.880439 84.254 -130.3256
21.031747 84.278 -130.7126
21.184152 84.301 -131.0993
21.337661 84.321 -131.4812
21.492282 84.340 -131.8538
21.648024 84.357 -132.2131
21.804895 84.373 -132.5562
21.962902 84.390 -132.8817
22.122054 84.407 -133.1900
22.282360 84.427 -133.4834
22.443827 84.449 -133.7662
22.606464 84.474 -134.0437
22.770280 84.502 -134.3223
22.935283 84.533 -134.6081
23.101481 84.567 -134.9066
23.268884 84.602 -135.2216
23.437500 84.638 -135.5555
23.607338 84.673 -135.9078
23.778406 84.707 -136.2767
23.950714 84.738 -136.6579
24.124271 84.767 -137.0466
24.299086 84.793 -137.4370
24.475167 84.816 -137.8236
24.652524 84.837 -138.2017
24.831166 84.856 -138.5678
25.011103 84.874 -138.9200
25.192344 84.891 -139.2577
25.374898 84.908 -139.5819
25.558775 84.926 -139.8944
25.743984 84.945 -140.1975
25.930536 84.965 -140.4939
26.118439 84.986 -140.7856
26.307704 85.007 -141.0745
26.498341 85.029 -141.3621
26.690359 85.052 -141.6491
26.883768 85.075 -141.9363
27.078579 85.098 -142.2246
27.274801 85.122 -142.5146
27.472446 85.146 -142.8073
27.671522 85.170 -143.1036
27.872042 85.194 -143.4042
28.074014 85.217 -143.7095
28.277450 85.241 -144.0190
28.482360 85.263 -144.3320
28.688755 85.284 -144.6467
28.896645 85.304 -144.9615
29.106042 85.324 -145.2746
29.316957 85.343 -145.5845
29.529400 85.361 -145.8906
29.743382 85.379 -146.1933
29.958915 85.398 -146.4936
30.176009 85.417 -146.7930
30.394677 85.436 -147.0931
30.614929 85.456 -147.3953
30.836778 85.476 -147.7000
31.060234 85.495 -148.0070
31.285309 85.515 -148.3152
31.512015 85.534 -148.6230
31.740364 85.552 -148.9291
31.970368 85.571 -149.2326
32.202039 85.590 -149.5336
32.435388 85.610 -149.8329
32.670428 85.631 -150.1325
32.907171 85.653 -150.4341
33.145630 85.675 -150.7393
33.385817 85.697 -151.0489
33.627745 85.719 -151.3622
33.871425 85.740 -151.6779
34.116871 85.761 -151.9936
34.364096 85.781 -152.3073
34.613113 85.801 -152.6174
34.863934 85.821 -152.9232
35.116572 85.841 -153.2253
35.371041 85.862 -153.5250
35.627354 85.882 -153.8236
35.885525 85.903 -154.1223
36.145566 85.924 -154.4212
36.407492 85.944 -154.7195
36.671316 85.964 -155.0161
36.937051 85.983 -155.3099
37.204712 86.003 -155.6003
37.474313 86.022 -155.8877
37.745867 86.042 -156.1737
38.019389 86.062 -156.4601
38.294893 86.081 -156.7484
38.572394 86.101 -157.0394
38.851905 86.120 -157.3328
39.133442 86.139 -157.6275
39.417019 86.157 -157.9221
39.702651 86.175 -158.2160
39.990353 86.193 -158.5096
40.280140 86.211 -158.8042
40.572026 86.229 -159.1013
40.866028 86.247 -159.4022
41.162160 86.265 -159.7071
41.460438 86.283 -160.0154
41.760877 86.300 -160.3259
42.063494 86.317 -160.6377
42.368303 86.334 -160.9510
42.675322 86.350 -161.2665
42.984565 86.367 -161.5851
43.296048 86.384 -161.9067
43.609789 86.400 -162.2299
43.925804 86.416 -162.5523
44.244108 86.431 -162.8710
44.564719 86.447 -163.1850
44.887654 86.464 -163.4953
45.212928 86.483 -163.8057
45.540560 86.503 -164.1208
45.870565 86.524 -164.4448
46.202962 86.546 -164.7793
46.537768 86.567 -165.1235
46.875000 86.587 -165.4744
47.214676 86.607 -165.8285
47.556813 86.626 -166.1832
47.901429 86.644 -166.5376
48.248542 86.662 -166.8918
48.598171 86.680 -167.2461
48.950334 86.698 -167.6007
49.305048 86.716 -167.9558
49.662333 86.733 -168.3114
50.022206 86.750 -168.6684
50.384688 86.768 -169.0280
50.749796 86.785 -169.3911
51.117550 86.801 -169.7580
51.487969 86.817 -170.1282
51.861072 86.833 -170.5007
52.236879 86.847 -170.8749
52.615409 86.862 -171.2508
52.996681 86.876 -171.6292
53.380717 86.889 -172.0105
53.767536 86.902 -172.3947
54.157158 86.915 -172.7814
54.549603 86.927 -173.1699
54.944892 86.939 -173.5605
55.343045 86.951 -173.9538
55.744084 86.963 -174.3507
56.148028 86.975 -174.7518
56.554900 86.987 -175.1573
56.964720 86.998 -175.5670
57.377510 87.009 -175.9812
57.793291 87.020 -176.4002
58.212085 87.029 -176.8241
58.633914 87.038 -177.2518
59.058799 87.045 -177.6808
59.486764 87.051 -178.1075
59.917829 87.055 -178.5294
60.352019 87.059 -178.9462
60.789354 87.063 -179.3604
61.229859 87.067 -179.7760
61.673556 87.070 179.8036
62.120468 87.072 179.3768
62.570618 87.074 178.9442
63.024031 87.074 178.5067
63.480729 87.073 178.0640
63.940736 87.071 177.6149
64.404077 87.068 177.1573
64.870776 87.063 176.6906
65.340856 87.057 176.2164
65.814343 87.048 175.7405
66.291261 87.036 175.2728
66.771635 87.024 174.8239
67.255489 87.012 174.3989
67.742850 87.003 173.9922
68.233743 86.999 173.5885
68.728193 87.000 173.1707
69.226226 87.001 172.7304
69.727867 87.002 172.2707
70.233144 87.002 171.8014
70.742083 86.999 171.3314
71.254709 86.995 170.8640
71.771050 86.990 170.3981
72.291132 86.984 169.9319
72.814984 86.976 169.4643
73.342631 86.967 168.9957
73.874102 86.956 168.5268
74.409424 86.942 168.0583
74.948626 86.928 167.5905
75.491734 86.911 167.1233
76.038779 86.894 166.6563
76.589787 86.875 166.1899
77.144788 86.854 165.7248
77.703811 86.833 165.2630
78.266885 86.810 164.8065
78.834039 86.787 164.3566
79.405303 86.764 163.9131
79.980706 86.740 163.4747
80.560280 86.717 163.0388
81.144053 86.694 162.6027
81.732056 86.671 162.1643
82.324320 86.647 161.7233
82.920876 86.622 161.2808
83.521755 86.596 160.8381
84.126988 86.569 160.3961
84.736607 86.541 159.9557
85.350643 86.512 159.5175
85.969129 86.482 159.0813
86.592097 86.452 158.6463
87.219579 86.421 158.2120
87.851608 86.388 157.7787
88.488217 86.355 157.3470
89.129439 86.321 156.9182
89.775308 86.286 156.4932
90.425856 86.251 156.0714
91.081119 86.215 155.6498
91.741131 86.179 155.2256
92.405925 86.142 154.7977
93.075536 86.104 154.3679
93.750000 86.065 153.9388
94.429351 86.025 153.5129
95.113625 85.984 153.0921
95.802858 85.942 152.6774
96.497085 85.900 152.2686
97.196342 85.857 151.8645
97.900667 85.813 151.4639
98.610096 85.768 151.0662
99.324665 85.723 150.6707
100.044413 85.677 150.2767
100.769376 85.630 149.8830
101.499592 85.582 149.4901
102.235100 85.534 149.1001
102.975938 85.485 148.7151
103.722144 85.436 148.3354
104.473757 85.388 147.9608
105.230817 85.339 147.5913
105.993363 85.289 147.2281
106.761435 85.239 146.8712
107.535072 85.187 146.5200
108.314315 85.134 146.1742
109.099206 85.080 145.8334
109.889783 85.025 145.4963
110.686090 84.968 145.1612
111.488167 84.910 144.8284
112.296056 84.851 144.4997
113.109800 84.793 144.1751
113.929440 84.735 143.8523
114.755020 84.678 143.5289
115.586582 84.622 143.2051
116.424170 84.566 142.8828
117.267827 84.509 142.5632
118.117598 84.452 142.2477
118.973527 84.394 141.9387
119.835658 84.335 141.6401
120.704037 84.274 141.3557
121.578708 84.212 141.0856
122.459718 84.150 140.8262
123.347111 84.088 140.5724
124.240935 84.025 140.3211
125.141236 83.961 140.0714
126.048061 83.896 139.8227
126.961458 83.831 139.5736
127.881473 83.766 139.3214
128.808154 83.699 139.0648
129.741551 83.632 138.8052
130.681712 83.565 138.5461
131.628686 83.497 138.2921
132.582521 83.428 138.0480
133.543269 83.360 137.8170
134.510979 83.293 137.6005
135.485701 83.226 137.3995
136.467486 83.161 137.2125
137.456386 83.096 137.0355
138.452451 83.031 136.8645
139.455735 82.964 136.6993
140.466288 82.897 136.5417
141.484165 82.828 136.3929
142.509418 82.758 136.2515
143.542100 82.689 136.1148
144.582265 82.619 135.9806
145.629968 82.551 135.8477
146.685262 82.482 135.7164
147.748204 82.415 135.5880
148.818849 82.347 135.4647
149.897251 82.280 135.3477
150.983469 82.212 135.2374
152.077557 82.144 135.1337
153.179574 82.076 135.0360
154.289576 82.008 134.9438
155.407622 81.940 134.8569
156.533770 81.871 134.7758
157.668078 81.802 134.7015
158.810606 81.733 134.6353
159.961413 81.664 134.5777
161.120559 81.594 134.5281
162.288105 81.525 134.4852
163.464112 81.456 134.4479
164.648640 81.387 134.4160
165.841752 81.319 134.3895
167.043510 81.251 134.3686
168.253976 81.184 134.3532
169.473213 81.117 134.3438
170.701286 81.051 134.3399
171.938258 80.985 134.3411
173.184194 80.919 134.3467
174.439158 80.855 134.3558
175.703216 80.790 134.3685
176.976434 80.727 134.3873
178.258878 80.663 134.4161
179.550615 80.599 134.4575
180.851713 80.537 134.5104
182.162239 80.474 134.5714
183.482262 80.413 134.6365
184.811850 80.351 134.7039
186.151073 80.289 134.7732
187.500000 80.228 134.8452
188.858702 80.167 134.9206
190.227250 80.106 135.0005
191.605715 80.047 135.0860
192.994169 79.988 135.1772
194.392685 79.929 135.2735
195.801334 79.871 135.3724
197.220191 79.812 135.4730
198.649330 79.752 135.5781
200.088825 79.693 135.6953
201.538751 79.634 135.8327
202.999184 79.578 135.9957
204.470200 79.526 136.1837
205.951875 79.478 136.3890
207.444287 79.432 136.6030
208.947514 79.386 136.8238
210.461634 79.340 137.0575
211.986726 79.294 137.3119
213.522869 79.248 137.5894
215.070144 79.204 137.8873
216.628631 79.163 138.2021
218.198411 79.123 138.5315
219.779567 79.086 138.8708
221.372180 79.051 139.2112
222.976334 79.016 139.5450
224.592112 78.980 139.8751
226.219600 78.942 140.2131
227.858880 78.904 140.5685
229.510039 78.867 140.9364
231.173164 78.833 141.2963
232.848340 78.799 141.6294
234.535655 78.762 141.9415
236.235197 78.722 142.2612
237.947054 78.681 142.6149
239.671317 78.642 143.0112
241.408074 78.606 143.4432
243.157416 78.577 143.8927
244.919435 78.552 144.3358
246.694223 78.530 144.7563
248.481871 78.510 145.1556
250.282473 78.490 145.5472
252.096123 78.471 145.9386
253.922915 78.453 146.3232
255.762945 78.436 146.6964
257.616309 78.417 147.0728
259.483103 78.397 147.4760
261.363424 78.380 147.9122
263.257372 78.367 148.3591
265.165043 78.356 148.7888
267.086538 78.344 149.1951
269.021957 78.327 149.5963
270.971401 78.306 150.0167
272.934972 78.285 150.4660
274.912771 78.269 150.9352
276.904902 78.259 151.4005
278.911469 78.255 151.8333
280.932577 78.253 152.2174
282.968330 78.247 152.5623
285.018835 78.236 152.8984
287.084199 78.218 153.2585
289.164530 78.197 153.6605
291.259935 78.179 154.1017
293.370525 78.164 154.5657
295.496408 78.155 155.0361
297.637697 78.149 155.5079
299.794503 78.146 155.9837
301.966937 78.146 156.4622
304.155114 78.147 156.9327
306.359147 78.150 157.3823
308.579152 78.154 157.8076
310.815244 78.157 158.2175
313.067539 78.158 158.6279
315.336156 78.159 159.0513
317.621211 78.159 159.4915
319.922826 78.159 159.9448
322.241118 78.159 160.4036
324.576210 78.159 160.8611
326.928223 78.160 161.3140
329.297280 78.161 161.7615
331.683504 78.164 162.2039
334.087019 78.167 162.6428
336.507952 78.172 163.0828
338.946427 78.177 163.5288
341.402572 78.184 163.9841
343.876516 78.190 164.4492
346.368387 78.197 164.9234
348.878315 78.205 165.4048
351.406431 78.213 165.8902
353.952867 78.222 166.3752
356.517756 78.233 166.8567
359.101230 78.245 167.3324
361.703426 78.259 167.8009
364.324478 78.273 168.2600
366.964523 78.287 168.7074
369.623699 78.302 169.1422
372.302145 78.315 169.5664
375.000000 78.327 169.9809
377.717405 78.339 170.3840
380.454501 78.351 170.7745
383.211431 78.365 171.1505
385.988339 78.382 171.5047
388.785369 78.402 171.8265
391.602668 78.426 172.1091
394.440383 78.452 172.3529
397.298660 78.481 172.5647
400.177650 78.512 172.7563
403.077502 78.544 172.9384
405.998368 78.578 173.1126
408.940400 78.611 173.2746
411.903750 78.644 173.4214
414.888575 78.675 173.5559
417.895028 78.704 173.6845
420.923268 78.732 173.8112
423.973452 78.761 173.9348
427.045738 78.792 174.0519
430.140287 78.823 174.1636
433.257261 78.852 174.2773
436.396822 78.878 174.4026
439.559133 78.901 174.5415
442.744360 78.923 174.6866
445.952668 78.945 174.8260
449.184225 78.968 174.9539
452.439199 78.994 175.0732
455.717760 79.024 175.1908
459.020079 79.055 175.3115
462.346327 79.089 175.4357
465.696680 79.123 175.5620
469.071310 79.158 175.6879
472.470394 79.194 175.8081
475.894109 79.229 175.9167
479.342634 79.264 176.0110
482.816148 79.301 176.0948
486.314833 79.338 176.1743
489.838871 79.377 176.2543
493.388445 79.416 176.3373
496.963741 79.455 176.4235
500.564945 79.494 176.5106
504.192245 79.533 176.5952
507.845830 79.572 176.6744
511.525890 79.611 176.7462
515.232618 79.650 176.8094
518.966206 79.690 176.8651
522.726849 79.732 176.9163
526.514743 79.774 176.9657
530.330086 79.817 177.0136
534.173076 79.861 177.0588
538.043915 79.906 177.1016
541.942803 79.950 177.1447
545.869944 79.994 177.1899
549.825542 80.038 177.2362
553.809805 80.083 177.2808
557.822939 80.129 177.3215
561.865154 80.177 177.3580
565.936660 80.226 177.3901
570.037671 80.275 177.4165
574.168399 80.324 177.4348
578.329060 80.374 177.4428
582.519870 80.425 177.4392
586.741049 80.476 177.4250
590.992817 80.528 177.4018
595.275394 80.580 177.3701
599.589005 80.632 177.3306
603.933874 80.684 177.2846
608.310228 80.736 177.2348
612.718295 80.789 177.1826
617.158304 80.843 177.1287
621.630488 80.898 177.0743
626.135079 80.954 177.0216
630.672311 81.010 176.9708
635.242423 81.067 176.9188
639.845651 81.123 176.8600
644.482237 81.179 176.7893
649.152421 81.235 176.7045
653.856447 81.290 176.6079
658.594560 81.345 176.5038
663.367008 81.398 176.3955
668.174039 81.449 176.2859
673.015903 81.498 176.1799
677.892854 81.547 176.0843
682.805145 81.595 176.0063
687.753032 81.645 175.9494
692.736774 81.697 175.9125
697.756631 81.752 175.8915
702.812863 81.811 175.8805
707.905735 81.875 175.8742
713.035511 81.943 175.8669
718.202461 82.016 175.8524
723.406852 82.092 175.8239
728.648956 82.173 175.7753
733.929047 82.256 175.7027
739.247399 82.341 175.6055
744.604290 82.427 175.4858
750.000000 82.513 175.3477
755.434809 82.600 175.1953
760.909001 82.687 175.0316
766.422861 82.774 174.8582
771.976677 82.862 174.6760
777.570739 82.951 174.4860
783.205337 83.041 174.2885
788.880766 83.133 174.0829
794.597321 83.226 173.8685
800.355301 83.321 173.6440
806.155005 83.417 173.4092
811.996736 83.515 173.1637
817.880799 83.615 172.9069
823.807501 83.717 172.6376
829.777150 83.821 172.3545
835.790057 83.927 172.0560
841.846536 84.035 171.7407
847.946903 84.146 171.4075
854.091476 84.259 171.0552
860.280575 84.374 170.6830
866.514523 84.492 170.2895
872.793644 84.611 169.8732
879.118267 84.733 169.4329
885.488720 84.857 168.9677
891.905336 84.983 168.4764
898.368450 85.111 167.9572
904.878398 85.242 167.4070
911.435520 85.374 166.8220
918.040157 85.509 166.1991
924.692655 85.645 165.5369
931.393359 85.782 164.8348
938.142619 85.920 164.0931
944.940787 86.057 163.3118
951.788218 86.194 162.4908
958.685268 86.330 161.6292
965.632296 86.464 160.7253
972.629666 86.597 159.7773
979.677741 86.727 158.7828
986.776890 86.854 157.7407
993.927482 86.979 156.6511
1001.129891 87.100 155.5149
1008.384491 87.218 154.3333
1015.691660 87.331 153.1075
1023.051781 87.439 151.8392
1030.465236 87.541 150.5301
1037.932411 87.638 149.1824
1045.453698 87.728 147.7990
1053.029486 87.811 146.3829
1060.660172 87.887 144.9377
1068.346153 87.954 143.4670
1076.087829 88.014 141.9747
1083.885605 88.066 140.4650
1091.739887 88.109 138.9423
1099.651084 88.144 137.4107
1107.619609 88.171 135.8748
1115.645878 88.189 134.3387
1123.730308 88.200 132.8065
1131.873321 88.203 131.2824
1140.075341 88.198 129.7703
1148.336797 88.186 128.2737
1156.658119 88.168 126.7958
1165.039741 88.143 125.3394
1173.482099 88.111 123.9068
1181.985634 88.074 122.4999
1190.550789 88.032 121.1205
1199.178011 87.985 119.7699
1207.867749 87.934 118.4491
1216.620457 87.880 117.1589
1225.436590 87.822 115.9000
1234.316609 87.762 114.6727
1243.260976 87.699 113.4770
1252.270157 87.634 112.3128
1261.344623 87.568 111.1796
1270.484846 87.501 110.0764
1279.691303 87.433 109.0024
1288.964474 87.364 107.9565
1298.304842 87.296 106.9376
1307.712894 87.228 105.9447
1317.189120 87.160 104.9770
1326.734016 87.093 104.0332
1336.348077 87.027 103.1119
1346.031806 86.961 102.2118
1355.785708 86.897 101.3314
1365.610290 86.835 100.4694
1375.506065 86.773 99.6246
1385.473549 86.714 98.7960
1395.513261 86.656 97.9823
1405.625726 86.600 97.1822
1415.811469 86.546 96.3943
1426.071023 86.494 95.6174
1436.404921 86.443 94.8503
1446.813703 86.395 94.0919
1457.297912 86.349 93.3408
1467.858093 86.306 92.5957
1478.494798 86.264 91.8551
1489.208581 86.225 91.1179
1500.000000 86.187 90.3829
1510.869618 86.153 89.6493
1521.818002 86.120 88.9162
1532.845723 86.090 88.1826
1543.953355 86.062 87.4476
1555.141477 86.036 86.7100
1566.410674 86.013 85.9688
1577.761531 85.991 85.2226
1589.194642 85.971 84.4702
1600.710601 85.954 83.7104
1612.310010 85.938 82.9424
1623.993473 85.925 82.1652
1635.761599 85.913 81.3778
1647.615002 85.903 80.5793
1659.554299 85.895 79.7687
1671.580114 85.888 78.9448
1683.693072 85.882 78.1067
1695.893807 85.878 77.2535
1708.182952 85.875 76.3844
1720.561150 85.873 75.4989
1733.029045 85.872 74.5964
1745.587288 85.871 73.6765
1758.236533 85.871 72.7385
1770.977440 85.870 71.7820
1783.810673 85.870 70.8066
1796.736900 85.869 69.8123
1809.756796 85.868 68.7992
1822.871040 85.867 67.7675
1836.080315 85.864 66.7177
1849.385310 85.860 65.6498
1862.786718 85.854 64.5645
1876.285239 85.848 63.4622
1889.881575 85.839 62.3437
1903.576436 85.828 61.2098
1917.370535 85.815 60.0618
1931.264593 85.800 58.9007
1945.259332 85.782 57.7281
1959.355483 85.762 56.5454
1973.553781 85.739 55.3543
1987.854965 85.713 54.1562
2002.259781 85.684 52.9531
2016.768981 85.652 51.7466
2031.383320 85.618 50.5385
2046.103561 85.580 49.3307
2060.930471 85.540 48.1247
2075.864823 85.497 46.9221
2090.907395 85.452 45.7248
2106.058972 85.403 44.5344
2121.320344 85.352 43.3528
2136.692305 85.299 42.1823
2152.175658 85.243 41.0240
2167.771210 85.185 39.8783
2183.479774 85.126 38.7447
2199.302169 85.066 37.6227
2215.239219 85.006 36.5121
2231.291755 84.946 35.4139
2247.460615 84.886 34.3293
2263.746641 84.827 33.2588
2280.150683 84.768 32.2026
2296.673595 84.710 31.1603
2313.316238 84.652 30.1313
2330.079481 84.596 29.1150
2346.964198 84.541 28.1107
2363.971268 84.488 27.1173
2381.101578 84.436 26.1341
2398.356022 84.386 25.1603
2415.735498 84.338 24.1949
2433.240913 84.292 23.2369
2450.873180 84.248 22.2847
2468.633217 84.206 21.3370
2486.521951 84.166 20.3929
2504.540314 84.129 19.4510
2522.689246 84.094 18.5106
2540.969692 84.061 17.5712
2559.382606 84.031 16.6320
2577.928947 84.003 15.6925
2596.609683 83.977 14.7520
2615.425787 83.953 13.8093
2634.378241 83.932 12.8640
2653.468031 83.913 11.9155
2672.696154 83.897 10.9633
2692.063613 83.882 10.0072
2711.571415 83.870 9.0470
2731.220579 83.859 8.0827
2751.012130 83.852 7.1144
2770.947098 83.846 6.1418
2791.026522 83.843 5.1650
2811.251451 83.843 4.1835
2831.622938 83.844 3.1968
2852.142045 83.849 2.2043
2872.809842 83.856 1.2057
2893.627406 83.867 0.2000
2914.595823 83.880 -0.8135
2935.716186 83.897 -1.8358
2956.989596 83.917 -2.8678
2978.417161 83.940 -3.9108
3000.000000 83.967 -4.9656
3021.739237 83.997 -6.0336
3043.636005 84.031 -7.1158
3065.691446 84.069 -8.2140
3087.906710 84.111 -9.3293
3110.282955 84.156 -10.4636
3132.821347 84.205 -11.6183
3155.523062 84.258 -12.7950
3178.389283 84.315 -13.9951
3201.421202 84.375 -15.2198
3224.620020 84.439 -16.4707
3247.986946 84.506 -17.7491
3271.523198 84.577 -19.0565
3295.230004 84.651 -20.3938
3319.108599 84.729 -21.7623
3343.160228 84.809 -23.1632
3367.386145 84.892 -24.5975
3391.787613 84.978 -26.0667
3416.365904 85.067 -27.5720
3441.122300 85.159 -29.1146
3466.058091 85.253 -30.6955
3491.174576 85.349 -32.3161
3516.473066 85.448 -33.9779
3541.954880 85.549 -35.6817
3567.621345 85.650 -37.4272
3593.473800 85.752 -39.2136
3619.513592 85.854 -41.0407
3645.742080 85.956 -42.9092
3672.160630 86.057 -44.8198
3698.770620 86.157 -46.7729
3725.573436 86.257 -48.7679
3752.570477 86.355 -50.8037
3779.763150 86.453 -52.8782
3807.152872 86.549 -54.9884
3834.741071 86.644 -57.1288
3862.529185 86.736 -59.2894
3890.518664 86.825 -61.4534
3918.710966 86.911 -63.5923
3947.107561 86.992 -65.6613
3975.709929 87.068 -67.5956
4004.519563 87.141 -69.3120
4033.537962 87.214 -70.7222
4062.766641 87.290 -71.7574
4092.207123 87.368 -72.3914
4121.860942 87.449 -72.6470
4151.729646 87.527 -72.5870
4181.814790 87.602 -72.2902
4212.117944 87.672 -71.8266
4242.640687 87.738 -71.2477
4273.384610 87.800 -70.5868
4304.351317 87.860 -69.8632
4335.542421 87.919 -69.0876
4366.959549 87.977 -68.2659
4398.604338 88.034 -67.4008
4430.478438 88.091 -66.4940
4462.583511 88.150 -65.5468
4494.921231 88.209 -64.5603
4527.493283 88.271 -63.5364
4560.301365 88.335 -62.4770
4593.347189 88.401 -61.3845
4626.632476 88.470 -60.2621
4660.158962 88.543 -59.1127
4693.928395 88.619 -57.9399
4727.942535 88.698 -56.7473
4762.203156 88.781 -55.5380
4796.712043 88.867 -54.3153
4831.470996 88.956 -53.0828
4866.481826 89.049 -51.8434
4901.746360 89.145 -50.6005
4937.266434 89.245 -49.3574
4973.043902 89.347 -48.1176
5009.080628 89.452 -46.8850
5045.378492 89.561 -45.6639
5081.939384 89.672 -44.4588
5118.765212 89.785 -43.2745
5155.857894 89.899 -42.1161
5193.219366 90.014 -40.9885
5230.851574 90.129 -39.8967
5268.756481 90.243 -38.8448
5306.936062 90.355 -37.8370
5345.392309 90.462 -36.8765
5384.127225 90.565 -35.9655
5423.142830 90.660 -35.1055
5462.441159 90.747 -34.2969
5502.024259 90.823 -33.5386
5541.894195 90.886 -32.8278
5582.053045 90.935 -32.1594
5622.502902 90.967 -31.5256
5663.245876 90.981 -30.9161
5704.284090 90.974 -30.3170
5745.619684 90.946 -29.7119
5787.254813 90.895 -29.0814
5829.191647 90.820 -28.4050
5871.432373 90.722 -27.6613
5913.979192 90.601 -26.8290
5956.834323 90.459 -25.8882
6000.000000 90.296 -24.8206
6043.478473 90.114 -23.6104
6087.272010 89.915 -22.2444
6131.382892 89.701 -20.7118
6175.813420 89.474 -19.0048
6220.565910 89.237 -17.1177
6265.642695 88.991 -15.0468
6311.046124 88.738 -12.7903
6356.778566 88.480 -10.3479
6402.842404 88.220 -7.7202
6449.240040 87.958 -4.9092
6495.973891 87.696 -1.9172
6543.046396 87.436 1.2523
6590.460007 87.178 4.5959
6638.217197 86.925 8.1096
6686.320456 86.678 11.7889
6734.772290 86.437 15.6293
6783.575226 86.204 19.6254
6832.731809 85.979 23.7721
6882.244600 85.764 28.0633
6932.116181 85.559 32.4904
6982.349153 85.365 37.0384
7032.946133 85.184 41.6808
7083.909760 85.017 46.3705
7135.242690 84.865 51.0285
7186.947600 84.731 55.5339
7239.027185 84.615 59.7243
7291.484160 84.517 63.4189
7344.321260 84.436 66.4667
7397.541239 84.373 68.7974
7451.146872 84.332 70.4338
7505.140954 84.316 71.4657
7559.526299 84.327 72.0103
7614.305743 84.363 72.1873
7669.482141 84.422 72.1022
7725.058371 84.503 71.8291
7781.037328 84.611 71.4042
7837.421932 84.747 70.8308
7894.215122 84.916 70.0883
7951.419859 85.117 69.1407
8009.039125 85.350 67.9426
8067.075924 85.613 66.4432
8125.533282 85.901 64.5896
8184.414245 86.207 62.3298
8243.721885 86.521 59.6167
8303.459292 86.829 56.4115
8363.629581 87.118 52.6894
8424.235888 87.371 48.4457
8485.281374 87.569 43.7004
8546.769221 87.696 38.5025
8608.702634 87.734 32.9312
8671.084842 87.670 27.0938
8733.919097 87.495 21.1185
8797.208675 87.205 15.1448
8860.956876 86.800 9.3110
8925.167022 86.289 3.7432
8989.842461 85.682 -1.4545
9054.986566 84.992 -6.2039
9120.602731 84.235 -10.4552
9186.694378 83.427 -14.1842
9253.264952 82.584 -17.3896
9320.317925 81.720 -20.0880
9387.856790 80.847 -22.3085
9455.885071 79.977 -24.0879
9524.406312 79.118 -25.4668
9593.424086 78.276 -26.4871
9662.941992 77.456 -27.1900
9732.963653 76.661 -27.6139
9803.492719 75.892 -27.7936
9874.532869 75.150 -27.7606
9946.087805 74.435 -27.5432
10018.161257 73.747 -27.1661
10090.756983 73.084 -26.6514
10163.878768 72.447 -26.0175
10237.530423 71.832 -25.2803
10311.715789 71.241 -24.4536
10386.438732 70.670 -23.5493
10461.703149 70.119 -22.5771
10537.512962 69.586 -21.5447
10613.872125 69.072 -20.4576
10690.784618 68.574 -19.3203
10768.254450 68.092 -18.1359
10846.285661 67.626 -16.9066
10924.882318 67.175 -15.6344
11004.048518 66.739 -14.3212
11083.788390 66.317 -12.9691
11164.106090 65.908 -11.5811
11245.005805 65.513 -10.1611
11326.491752 65.132 -8.7133
11408.568180 64.764 -7.2410
11491.239368 64.408 -5.7465
11574.509626 64.066 -4.2303
11658.383294 63.735 -2.6925
11742.864745 63.417 -1.1322
11827.958384 63.112 0.4513
11913.668646 62.818 2.0583
12000.000000 62.537 3.6887
12086.956947 62.267 5.3408
12174.544019 62.010 7.0109
12262.765784 61.766 8.6955
12351.626840 61.534 10.3924
12441.131819 61.316 12.1003
12531.285389 61.112 13.8182
12622.092249 60.922 15.5455
12713.557132 60.746 17.2822
12805.684808 60.583 19.0292
12898.480079 60.434 20.7885
12991.947783 60.299 22.5615
13086.092792 60.178 24.3467
13180.920015 60.071 26.1393
13276.434395 59.979 27.9327
13372.640911 59.902 29.7206
13469.544580 59.842 31.4966
13567.150452 59.799 33.2569
13665.463617 59.775 35.0025
13764.489200 59.770 36.7383
13864.232362 59.785 38.4695
13964.698305 59.819 40.1998
14065.892266 59.876 41.9294
14167.819519 59.957 43.6553
14270.485380 60.065 45.3701
14373.895200 60.205 47.0630
14478.054370 60.380 48.7195
14582.968320 60.594 50.3233
14688.642520 60.850 51.8565
14795.082478 61.154 53.2970
14902.293745 61.514 54.6140
15010.281908 61.937 55.7635
15119.052599 62.431 56.6844
15228.611486 63.005 57.2940
15338.964283 63.662 57.4853
15450.116741 64.400 57.1273
15562.074656 65.211 56.0710
15674.843864 66.075 54.1599
15788.430244 66.964 51.2467
15902.839718 67.839 47.2124
16018.078250 68.654 41.9901
16134.151848 69.357 35.5876
16251.066563 69.895 28.1111
16368.828491 70.218 19.7821
16487.443769 70.290 10.9392
16606.918584 70.092 2.0050
16727.259161 69.627 -6.5831
16848.471777 68.920 -14.4471
16970.562748 68.012 -21.3108
17093.538442 66.948 -27.0077
17217.405268 65.777 -31.4691
17342.169684 64.545 -34.7072
17467.838194 63.295 -36.7953
17594.417350 62.063 -37.8502
17721.913751 60.881 -38.0132
17850.334044 59.771 -37.4338
17979.684923 58.746 -36.2581
18109.973131 57.814 -34.6214
18241.205462 56.975 -32.6439
18373.388756 56.226 -30.4261
18506.529905 55.559 -28.0493
18640.635849 54.966 -25.5799
18775.713581 54.436 -23.0724
18911.770141 53.958 -20.5711
19048.812624 53.521 -18.1113
19186.848172 53.118 -15.7216
19325.883983 52.744 -13.4276
19465.927305 52.400 -11.2595
19606.985439 52.098 -9.2682
19749.065738 51.853 -7.5446
19892.175609 51.681 -6.2327
20036.322514 51.593 -5.5095
