* Measurement data measured by REW V5.31.3
* Source: Headset (CX31993 HIFI AUDIO), MICROPHONE (Master Volume), R, volume: 0.400
* Format: 256k Log Swept Sine, 1 sweep at -11.9 dBFS with no timing reference
* Dated: 06 25, 25 11:59:14 AM
* REW Settings:
*  C-weighting compensation: Off
*  Target level: 75.0 dB
* Note: ; 
* Measurement: Xiaomi Buds 6 Play bass R
* Smoothing: 1/12 octave
* Frequency Step: 96 ppo
* Start Frequency: 0.36621094 Hz
*
* Freq(Hz) SPL(dB) Phase(degrees)
0.366211 21.371 -48.4946
0.368865 21.404 -48.1606
0.371538 21.452 -47.6621
0.374230 21.512 -47.0401
0.376942 21.580 -46.3304
0.379673 21.652 -45.5590
0.382424 21.727 -44.7430
0.385196 21.804 -43.8924
0.387987 21.882 -43.0125
0.390798 21.961 -42.1056
0.393630 22.041 -41.1718
0.396483 22.122 -40.2105
0.399356 22.203 -39.2200
0.402250 22.285 -38.1986
0.405165 22.367 -37.1440
0.408101 22.451 -36.0537
0.411058 22.534 -34.9253
0.414037 22.619 -33.7560
0.417037 22.703 -32.5429
0.420059 22.789 -31.2831
0.423103 22.875 -29.9735
0.426169 22.962 -28.6110
0.429257 23.049 -27.1924
0.432368 23.137 -25.7146
0.435501 23.226 -24.1744
0.438656 23.315 -22.5688
0.441835 23.405 -20.8951
0.445037 23.496 -19.1505
0.448262 23.587 -17.3331
0.451510 23.679 -15.4410
0.454782 23.772 -13.4733
0.458077 23.865 -11.4296
0.461397 23.959 -9.3105
0.464740 24.053 -7.1177
0.468108 24.149 -4.8541
0.471500 24.245 -2.5239
0.474917 24.341 -0.1325
0.478358 24.439 2.3130
0.481825 24.537 4.8043
0.485316 24.636 7.3318
0.488833 24.735 9.8847
0.492375 24.835 12.4513
0.495943 24.936 15.0192
0.499537 25.038 17.5760
0.503157 25.141 20.1090
0.506803 25.244 22.6060
0.510475 25.348 25.0555
0.514175 25.452 27.4471
0.517900 25.558 29.7714
0.521653 25.664 32.0205
0.525434 25.771 34.1876
0.529241 25.879 36.2677
0.533076 25.987 38.2569
0.536939 26.097 40.1528
0.540830 26.207 41.9538
0.544749 26.318 43.6598
0.548696 26.430 45.2712
0.552673 26.542 46.7893
0.556677 26.656 48.2160
0.560711 26.770 49.5535
0.564774 26.885 50.8047
0.568867 27.001 51.9724
0.572989 27.117 53.0598
0.577141 27.235 54.0700
0.581324 27.353 55.0063
0.585536 27.473 55.8720
0.589779 27.593 56.6702
0.594053 27.714 57.4042
0.598358 27.836 58.0769
0.602694 27.958 58.6913
0.607061 28.082 59.2502
0.611460 28.206 59.7563
0.615891 28.332 60.2123
0.620354 28.458 60.6205
0.624849 28.586 60.9834
0.629377 28.714 61.3032
0.633938 28.843 61.5819
0.638532 28.973 61.8217
0.643159 29.104 62.0244
0.647819 29.236 62.1918
0.652514 29.369 62.3257
0.657242 29.503 62.4276
0.662005 29.638 62.4992
0.666802 29.774 62.5420
0.671634 29.910 62.5572
0.676501 30.048 62.5464
0.681403 30.187 62.5107
0.686341 30.327 62.4515
0.691314 30.468 62.3699
0.696324 30.610 62.2674
0.701370 30.754 62.1451
0.706452 30.899 62.0047
0.711571 31.046 61.8480
0.716728 31.196 61.6773
0.721921 31.349 61.4955
0.727153 31.506 61.3065
0.732422 31.669 61.1149
0.737729 31.838 60.9257
0.743075 32.012 60.7431
0.748460 32.192 60.5702
0.753883 32.377 60.4085
0.759346 32.566 60.2585
0.764849 32.759 60.1197
0.770391 32.956 59.9914
0.775974 33.156 59.8723
0.781597 33.361 59.7613
0.787261 33.568 59.6573
0.792966 33.779 59.5589
0.798712 33.994 59.4651
0.804500 34.212 59.3748
0.810329 34.433 59.2870
0.816201 34.657 59.2009
0.822116 34.884 59.1155
0.828073 35.115 59.0300
0.834074 35.348 58.9437
0.840118 35.585 58.8559
0.846206 35.824 58.7659
0.852338 36.066 58.6732
0.858514 36.310 58.5770
0.864735 36.557 58.4770
0.871001 36.806 58.3725
0.877313 37.058 58.2632
0.883670 37.312 58.1486
0.890074 37.568 58.0283
0.896524 37.826 57.9018
0.903020 38.085 57.7689
0.909564 38.347 57.6291
0.916155 38.609 57.4822
0.922794 38.874 57.3279
0.929481 39.139 57.1659
0.936216 39.405 56.9959
0.943000 39.673 56.8177
0.949834 39.940 56.6311
0.956717 40.209 56.4357
0.963649 40.477 56.2315
0.970632 40.746 56.0183
0.977666 41.015 55.7958
0.984750 41.283 55.5639
0.991886 41.550 55.3224
0.999074 41.817 55.0712
1.006314 42.082 54.8102
1.013606 42.347 54.5393
1.020951 42.609 54.2582
1.028349 42.870 53.9671
1.035801 43.128 53.6657
1.043307 43.384 53.3541
1.050867 43.638 53.0324
1.058482 43.888 52.7007
1.066152 44.135 52.3593
1.073878 44.378 52.0089
1.081660 44.618 51.6505
1.089498 44.854 51.2856
1.097393 45.087 50.9163
1.105345 45.316 50.5449
1.113355 45.543 50.1741
1.121423 45.766 49.8055
1.129549 45.987 49.4406
1.137734 46.205 49.0800
1.145979 46.420 48.7240
1.154283 46.634 48.3724
1.162647 46.844 48.0251
1.171072 47.053 47.6817
1.179558 47.259 47.3419
1.188106 47.463 47.0051
1.196715 47.665 46.6709
1.205387 47.865 46.3390
1.214122 48.063 46.0088
1.222920 48.260 45.6800
1.231782 48.454 45.3521
1.240708 48.646 45.0248
1.249699 48.837 44.6975
1.258754 49.027 44.3699
1.267876 49.214 44.0416
1.277063 49.401 43.7123
1.286318 49.586 43.3815
1.295639 49.770 43.0488
1.305027 49.954 42.7140
1.314484 50.136 42.3766
1.324009 50.318 42.0362
1.333604 50.499 41.6926
1.343268 50.679 41.3454
1.353002 50.859 40.9942
1.362806 51.040 40.6388
1.372681 51.220 40.2787
1.382628 51.400 39.9137
1.392647 51.581 39.5435
1.402739 51.763 39.1679
1.412904 51.945 38.7867
1.423142 52.128 38.3998
1.433455 52.312 38.0074
1.443843 52.497 37.6100
1.454305 52.682 37.2082
1.464844 52.868 36.8032
1.475459 53.053 36.3964
1.486150 53.238 35.9891
1.496920 53.423 35.5825
1.507767 53.607 35.1770
1.518693 53.789 34.7731
1.529698 53.970 34.3708
1.540783 54.150 33.9699
1.551948 54.329 33.5702
1.563194 54.507 33.1715
1.574521 54.684 32.7732
1.585931 54.859 32.3752
1.597423 55.034 31.9769
1.608999 55.207 31.5781
1.620658 55.380 31.1783
1.632402 55.551 30.7772
1.644232 55.722 30.3743
1.656146 55.892 29.9693
1.668147 56.062 29.5619
1.680235 56.231 29.1516
1.692411 56.399 28.7380
1.704675 56.567 28.3209
1.717028 56.734 27.8998
1.729470 56.901 27.4743
1.742003 57.068 27.0441
1.754626 57.235 26.6089
1.767341 57.402 26.1685
1.780147 57.568 25.7224
1.793047 57.735 25.2708
1.806040 57.902 24.8136
1.819128 58.068 24.3510
1.832310 58.235 23.8837
1.845587 58.400 23.4122
1.858961 58.566 22.9374
1.872432 58.730 22.4601
1.886001 58.893 21.9807
1.899667 59.056 21.4997
1.913433 59.217 21.0175
1.927299 59.377 20.5343
1.941265 59.537 20.0502
1.955332 59.695 19.5654
1.969501 59.853 19.0799
1.983773 60.010 18.5937
1.998148 60.165 18.1069
2.012627 60.321 17.6193
2.027212 60.475 17.1311
2.041902 60.629 16.6420
2.056698 60.782 16.1519
2.071602 60.934 15.6608
2.086614 61.086 15.1684
2.101734 61.238 14.6746
2.116964 61.390 14.1792
2.132304 61.541 13.6820
2.147756 61.691 13.1827
2.163320 61.842 12.6810
2.178996 61.992 12.1769
2.194786 62.141 11.6701
2.210690 62.290 11.1605
2.226710 62.438 10.6482
2.242845 62.586 10.1333
2.259098 62.732 9.6161
2.275468 62.877 9.0969
2.291957 63.022 8.5759
2.308566 63.165 8.0536
2.325295 63.308 7.5302
2.342145 63.449 7.0060
2.359117 63.590 6.4812
2.376212 63.730 5.9562
2.393431 63.869 5.4310
2.410775 64.008 4.9059
2.428244 64.146 4.3810
2.445840 64.283 3.8563
2.463564 64.420 3.3319
2.481416 64.556 2.8078
2.499397 64.692 2.2840
2.517509 64.827 1.7601
2.535752 64.962 1.2360
2.554127 65.096 0.7113
2.572635 65.230 0.1855
2.591277 65.363 -0.3419
2.610055 65.495 -0.8709
2.628968 65.626 -1.4018
2.648019 65.756 -1.9343
2.667208 65.885 -2.4682
2.686535 66.013 -3.0031
2.706003 66.141 -3.5386
2.725612 66.267 -4.0743
2.745363 66.393 -4.6098
2.765257 66.518 -5.1447
2.785295 66.642 -5.6787
2.805478 66.766 -6.2115
2.825808 66.889 -6.7427
2.846285 67.011 -7.2721
2.866910 67.133 -7.7998
2.887685 67.255 -8.3258
2.908611 67.376 -8.8503
2.929688 67.497 -9.3737
2.950917 67.617 -9.8965
2.972301 67.736 -10.4193
2.993839 67.854 -10.9423
3.015534 67.971 -11.4656
3.037386 68.088 -11.9891
3.059396 68.204 -12.5126
3.081565 68.318 -13.0357
3.103896 68.433 -13.5580
3.126388 68.546 -14.0793
3.149043 68.659 -14.5990
3.171862 68.772 -15.1169
3.194847 68.884 -15.6326
3.217998 68.995 -16.1460
3.241317 69.106 -16.6568
3.264805 69.217 -17.1651
3.288463 69.328 -17.6711
3.312293 69.438 -18.1752
3.336295 69.547 -18.6776
3.360471 69.656 -19.1789
3.384822 69.764 -19.6791
3.409350 69.872 -20.1783
3.434056 69.978 -20.6765
3.458940 70.085 -21.1735
3.484005 70.191 -21.6692
3.509252 70.296 -22.1633
3.534681 70.401 -22.6558
3.560295 70.506 -23.1463
3.586094 70.610 -23.6348
3.612081 70.715 -24.1212
3.638255 70.819 -24.6055
3.664620 70.923 -25.0877
3.691175 71.026 -25.5681
3.717923 71.130 -26.0468
3.744864 71.233 -26.5240
3.772001 71.335 -26.9999
3.799335 71.438 -27.4746
3.826866 71.539 -27.9483
3.854597 71.641 -28.4210
3.882529 71.742 -28.8928
3.910664 71.844 -29.3637
3.939002 71.945 -29.8337
3.967546 72.045 -30.3030
3.996296 72.146 -30.7716
4.025255 72.247 -31.2395
4.054423 72.348 -31.7067
4.083804 72.448 -32.1734
4.113396 72.548 -32.6395
4.143204 72.648 -33.1053
4.173227 72.748 -33.5708
4.203468 72.848 -34.0363
4.233928 72.947 -34.5018
4.264609 73.046 -34.9676
4.295512 73.145 -35.4339
4.326639 73.244 -35.9008
4.357992 73.342 -36.3685
4.389572 73.441 -36.8370
4.421380 73.539 -37.3065
4.453419 73.637 -37.7771
4.485691 73.735 -38.2486
4.518196 73.832 -38.7211
4.550936 73.929 -39.1946
4.583914 74.026 -39.6689
4.617131 74.122 -40.1443
4.650589 74.219 -40.6206
4.684289 74.314 -41.0979
4.718233 74.410 -41.5765
4.752424 74.504 -42.0564
4.786862 74.599 -42.5379
4.821549 74.693 -43.0210
4.856488 74.786 -43.5056
4.891680 74.879 -43.9915
4.927127 74.971 -44.4786
4.962831 75.063 -44.9665
4.998794 75.154 -45.4549
5.035017 75.245 -45.9435
5.071503 75.335 -46.4323
5.108253 75.424 -46.9213
5.145270 75.512 -47.4106
5.182555 75.600 -47.9004
5.220110 75.687 -48.3907
5.257937 75.774 -48.8812
5.296038 75.859 -49.3717
5.334415 75.944 -49.8614
5.373071 76.029 -50.3501
5.412006 76.112 -50.8371
5.451224 76.195 -51.3223
5.490725 76.277 -51.8055
5.530514 76.359 -52.2869
5.570590 76.440 -52.7664
5.610957 76.520 -53.2442
5.651616 76.599 -53.7199
5.692570 76.678 -54.1933
5.733821 76.756 -54.6639
5.775370 76.834 -55.1312
5.817221 76.911 -55.5950
5.859375 76.988 -56.0551
5.901834 77.064 -56.5115
5.944602 77.140 -56.9644
5.987679 77.216 -57.4137
6.031068 77.291 -57.8598
6.074771 77.366 -58.3024
6.118792 77.441 -58.7417
6.163131 77.516 -59.1776
6.207792 77.591 -59.6100
6.252776 77.666 -60.0388
6.298086 77.740 -60.4644
6.343725 77.815 -60.8869
6.389694 77.890 -61.3067
6.435996 77.965 -61.7243
6.482634 78.040 -62.1401
6.529610 78.116 -62.5546
6.576926 78.191 -62.9678
6.624585 78.267 -63.3802
6.672590 78.343 -63.7919
6.720942 78.420 -64.2031
6.769645 78.496 -64.6144
6.818700 78.573 -65.0263
6.868111 78.650 -65.4394
6.917881 78.727 -65.8541
6.968010 78.804 -66.2708
7.018504 78.882 -66.6897
7.069362 78.959 -67.1109
7.120590 79.036 -67.5345
7.172189 79.113 -67.9606
7.224161 79.190 -68.3894
7.276511 79.266 -68.8211
7.329239 79.342 -69.2558
7.382350 79.417 -69.6935
7.435845 79.492 -70.1341
7.489729 79.567 -70.5772
7.544002 79.640 -71.0223
7.598669 79.713 -71.4689
7.653732 79.785 -71.9167
7.709194 79.856 -72.3653
7.765058 79.926 -72.8145
7.821327 79.995 -73.2637
7.878004 80.064 -73.7123
7.935091 80.131 -74.1594
7.992592 80.197 -74.6041
8.050510 80.263 -75.0458
8.108847 80.327 -75.4841
8.167607 80.390 -75.9185
8.226793 80.453 -76.3485
8.286408 80.515 -76.7737
8.346454 80.577 -77.1935
8.406936 80.638 -77.6073
8.467856 80.698 -78.0148
8.529218 80.759 -78.4162
8.591024 80.819 -78.8114
8.653278 80.880 -79.2009
8.715983 80.940 -79.5848
8.779143 81.001 -79.9635
8.842760 81.062 -80.3374
8.906839 81.124 -80.7070
8.971381 81.186 -81.0734
9.036392 81.249 -81.4374
9.101873 81.313 -81.8003
9.167829 81.377 -82.1631
9.234263 81.443 -82.5266
9.301178 81.508 -82.8917
9.368578 81.575 -83.2595
9.436467 81.642 -83.6311
9.504847 81.709 -84.0076
9.573723 81.776 -84.3896
9.643099 81.844 -84.7775
9.712976 81.911 -85.1717
9.783361 81.978 -85.5722
9.854255 82.044 -85.9792
9.925663 82.109 -86.3923
9.997588 82.174 -86.8113
10.070035 82.237 -87.2353
10.143007 82.299 -87.6631
10.216507 82.359 -88.0935
10.290540 82.418 -88.5254
10.365109 82.475 -88.9574
10.440219 82.530 -89.3880
10.515873 82.584 -89.8156
10.592076 82.636 -90.2383
10.668830 82.686 -90.6548
10.746141 82.735 -91.0637
10.824012 82.783 -91.4641
10.902447 82.830 -91.8548
10.981451 82.877 -92.2351
11.061027 82.923 -92.6045
11.141180 82.969 -92.9632
11.221913 83.015 -93.3117
11.303232 83.062 -93.6508
11.385140 83.110 -93.9817
11.467641 83.159 -94.3057
11.550741 83.210 -94.6248
11.634442 83.262 -94.9411
11.718750 83.315 -95.2570
11.803669 83.370 -95.5747
11.889203 83.426 -95.8962
11.975357 83.483 -96.2237
12.062136 83.541 -96.5592
12.149543 83.600 -96.9042
12.237583 83.659 -97.2597
12.326262 83.718 -97.6261
12.415583 83.776 -98.0035
12.505552 83.834 -98.3916
12.596172 83.890 -98.7893
12.687449 83.944 -99.1950
12.779387 83.997 -99.6068
12.871992 84.048 -100.0223
12.965268 84.096 -100.4393
13.059220 84.142 -100.8552
13.153852 84.187 -101.2673
13.249170 84.229 -101.6733
13.345179 84.270 -102.0713
13.441884 84.310 -102.4597
13.539289 84.349 -102.8374
13.637401 84.388 -103.2041
13.736223 84.427 -103.5602
13.835761 84.466 -103.9066
13.936021 84.506 -104.2451
14.037007 84.548 -104.5777
14.138725 84.591 -104.9071
14.241180 84.635 -105.2362
14.344377 84.681 -105.5677
14.448323 84.728 -105.9044
14.553021 84.775 -106.2483
14.658478 84.823 -106.6013
14.764700 84.871 -106.9641
14.871691 84.919 -107.3368
14.979457 84.965 -107.7185
15.088005 85.010 -108.1073
15.197339 85.053 -108.5007
15.307465 85.094 -108.8955
15.418389 85.132 -109.2880
15.530117 85.168 -109.6746
15.642655 85.203 -110.0514
15.756008 85.236 -110.4153
15.870182 85.268 -110.7638
15.985184 85.300 -111.0954
16.101019 85.332 -111.4098
16.217694 85.366 -111.7080
16.335214 85.402 -111.9924
16.453586 85.440 -112.2668
16.572815 85.482 -112.5359
16.692909 85.526 -112.8051
16.813872 85.574 -113.0802
16.935713 85.625 -113.3668
17.058436 85.678 -113.6700
17.182048 85.733 -113.9937
17.306556 85.788 -114.3404
17.431967 85.842 -114.7110
17.558286 85.895 -115.1047
17.685521 85.945 -115.5190
17.813677 85.992 -115.9495
17.942762 86.035 -116.3910
18.072783 86.073 -116.8370
18.203746 86.106 -117.2808
18.335658 86.135 -117.7153
18.468526 86.159 -118.1343
18.602356 86.180 -118.5321
18.737156 86.198 -118.9044
18.872934 86.215 -119.2485
19.009695 86.231 -119.5633
19.147447 86.248 -119.8494
19.286197 86.265 -120.1090
19.425953 86.285 -120.3457
19.566721 86.307 -120.5637
19.708510 86.331 -120.7681
19.851326 86.359 -120.9637
19.995177 86.389 -121.1549
20.140070 86.421 -121.3456
20.286013 86.455 -121.5384
20.433014 86.490 -121.7350
20.581080 86.527 -121.9360
20.730219 86.564 -122.1415
20.880439 86.601 -122.3505
21.031747 86.639 -122.5622
21.184152 86.677 -122.7755
21.337661 86.715 -122.9897
21.492282 86.753 -123.2046
21.648024 86.792 -123.4203
21.804895 86.832 -123.6377
21.962902 86.873 -123.8581
22.122054 86.914 -124.0830
22.282360 86.956 -124.3142
22.443827 86.999 -124.5533
22.606464 87.042 -124.8018
22.770280 87.086 -125.0608
22.935283 87.129 -125.3310
23.101481 87.173 -125.6125
23.268884 87.215 -125.9053
23.437500 87.257 -126.2088
23.607338 87.297 -126.5221
23.778406 87.336 -126.8443
23.950714 87.374 -127.1741
24.124271 87.410 -127.5102
24.299086 87.445 -127.8513
24.475167 87.478 -128.1959
24.652524 87.509 -128.5421
24.831166 87.539 -128.8884
25.011103 87.567 -129.2328
25.192344 87.593 -129.5733
25.374898 87.618 -129.9079
25.558775 87.641 -130.2347
25.743984 87.664 -130.5522
25.930536 87.686 -130.8591
26.118439 87.708 -131.1547
26.307704 87.730 -131.4389
26.498341 87.752 -131.7124
26.690359 87.775 -131.9762
26.883768 87.800 -132.2321
27.078579 87.825 -132.4821
27.274801 87.852 -132.7282
27.472446 87.880 -132.9724
27.671522 87.910 -133.2163
27.872042 87.939 -133.4609
28.074014 87.970 -133.7064
28.277450 88.000 -133.9528
28.482360 88.031 -134.1992
28.688755 88.062 -134.4447
28.896645 88.092 -134.6880
29.106042 88.122 -134.9283
29.316957 88.152 -135.1647
29.529400 88.182 -135.3968
29.743382 88.212 -135.6247
29.958915 88.242 -135.8488
30.176009 88.273 -136.0695
30.394677 88.303 -136.2874
30.614929 88.334 -136.5032
30.836778 88.365 -136.7171
31.060234 88.396 -136.9295
31.285309 88.427 -137.1405
31.512015 88.459 -137.3504
31.740364 88.490 -137.5593
31.970368 88.521 -137.7677
32.202039 88.553 -137.9762
32.435388 88.584 -138.1855
32.670428 88.616 -138.3966
32.907171 88.648 -138.6104
33.145630 88.681 -138.8274
33.385817 88.713 -139.0482
33.627745 88.744 -139.2727
33.871425 88.776 -139.5004
34.116871 88.807 -139.7307
34.364096 88.838 -139.9623
34.613113 88.868 -140.1943
34.863934 88.898 -140.4258
35.116572 88.928 -140.6559
35.371041 88.958 -140.8844
35.627354 88.989 -141.1114
35.885525 89.019 -141.3371
36.145566 89.051 -141.5621
36.407492 89.083 -141.7870
36.671316 89.115 -142.0124
36.937051 89.148 -142.2389
37.204712 89.182 -142.4671
37.474313 89.216 -142.6973
37.745867 89.250 -142.9295
38.019389 89.285 -143.1635
38.294893 89.320 -143.3990
38.572394 89.354 -143.6351
38.851905 89.389 -143.8713
39.133442 89.423 -144.1070
39.417019 89.458 -144.3420
39.702651 89.492 -144.5767
39.990353 89.527 -144.8115
40.280140 89.562 -145.0470
40.572026 89.598 -145.2840
40.866028 89.633 -145.5229
41.162160 89.668 -145.7645
41.460438 89.704 -146.0091
41.760877 89.739 -146.2572
42.063494 89.774 -146.5089
42.368303 89.809 -146.7637
42.675322 89.843 -147.0200
42.984565 89.877 -147.2760
43.296048 89.911 -147.5295
43.609789 89.946 -147.7796
43.925804 89.981 -148.0270
44.244108 90.019 -148.2748
44.564719 90.058 -148.5277
44.887654 90.098 -148.7904
45.212928 90.140 -149.0661
45.540560 90.182 -149.3554
45.870565 90.224 -149.6561
46.202962 90.264 -149.9640
46.537768 90.304 -150.2747
46.875000 90.343 -150.5851
47.214676 90.382 -150.8938
47.556813 90.422 -151.2013
47.901429 90.461 -151.5088
48.248542 90.501 -151.8167
48.598171 90.541 -152.1252
48.950334 90.581 -152.4336
49.305048 90.621 -152.7417
49.662333 90.662 -153.0500
50.022206 90.703 -153.3600
50.384688 90.744 -153.6736
50.749796 90.786 -153.9923
51.117550 90.828 -154.3167
51.487969 90.869 -154.6467
51.861072 90.910 -154.9812
52.236879 90.951 -155.3197
52.615409 90.992 -155.6617
52.996681 91.032 -156.0073
53.380717 91.072 -156.3566
53.767536 91.113 -156.7099
54.157158 91.153 -157.0672
54.549603 91.193 -157.4286
54.944892 91.233 -157.7940
55.343045 91.273 -158.1633
55.744084 91.313 -158.5363
56.148028 91.353 -158.9129
56.554900 91.394 -159.2935
56.964720 91.434 -159.6790
57.377510 91.475 -160.0709
57.793291 91.515 -160.4705
58.212085 91.556 -160.8786
58.633914 91.595 -161.2948
59.058799 91.635 -161.7174
59.486764 91.673 -162.1447
59.917829 91.711 -162.5753
60.352019 91.749 -163.0092
60.789354 91.786 -163.4470
61.229859 91.824 -163.8899
61.673556 91.862 -164.3384
62.120468 91.901 -164.7928
62.570618 91.939 -165.2532
63.024031 91.977 -165.7196
63.480729 92.016 -166.1920
63.940736 92.054 -166.6705
64.404077 92.093 -167.1557
64.870776 92.131 -167.6492
65.340856 92.169 -168.1531
65.814343 92.206 -168.6675
66.291261 92.240 -169.1884
66.771635 92.271 -169.7080
67.255489 92.301 -170.2193
67.742850 92.329 -170.7199
68.233743 92.359 -171.2141
68.728193 92.389 -171.7096
69.226226 92.420 -172.2132
69.727867 92.451 -172.7283
70.233144 92.481 -173.2554
70.742083 92.510 -173.7929
71.254709 92.539 -174.3391
71.771050 92.567 -174.8922
72.291132 92.594 -175.4515
72.814984 92.620 -176.0173
73.342631 92.647 -176.5901
73.874102 92.673 -177.1702
74.409424 92.698 -177.7569
74.948626 92.723 -178.3497
75.491734 92.747 -178.9479
76.038779 92.771 -179.5517
76.589787 92.794 179.8391
77.144788 92.816 179.2241
77.703811 92.837 178.6035
78.266885 92.857 177.9772
78.834039 92.875 177.3455
79.405303 92.892 176.7088
79.980706 92.909 176.0672
80.560280 92.924 175.4199
81.144053 92.938 174.7662
81.732056 92.951 174.1058
82.324320 92.963 173.4393
82.920876 92.974 172.7673
83.521755 92.984 172.0901
84.126988 92.993 171.4070
84.736607 93.001 170.7173
85.350643 93.008 170.0214
85.969129 93.013 169.3198
86.592097 93.017 168.6128
87.219579 93.020 167.9005
87.851608 93.022 167.1826
88.488217 93.022 166.4589
89.129439 93.020 165.7298
89.775308 93.016 164.9970
90.425856 93.010 164.2619
91.081119 93.003 163.5253
91.741131 92.995 162.7863
92.405925 92.985 162.0434
93.075536 92.974 161.2962
93.750000 92.961 160.5450
94.429351 92.946 159.7908
95.113625 92.930 159.0347
95.802858 92.911 158.2772
96.497085 92.892 157.5182
97.196342 92.870 156.7576
97.900667 92.846 155.9946
98.610096 92.821 155.2285
99.324665 92.794 154.4587
100.044413 92.764 153.6857
100.769376 92.733 152.9105
101.499592 92.698 152.1349
102.235100 92.662 151.3602
102.975938 92.623 150.5870
103.722144 92.583 149.8151
104.473757 92.540 149.0447
105.230817 92.496 148.2758
105.993363 92.449 147.5084
106.761435 92.401 146.7427
107.535072 92.351 145.9785
108.314315 92.299 145.2156
109.099206 92.246 144.4543
109.889783 92.190 143.6958
110.686090 92.131 142.9419
111.488167 92.071 142.1953
112.296056 92.008 141.4576
113.109800 91.944 140.7291
113.929440 91.878 140.0093
114.755020 91.810 139.2971
115.586582 91.740 138.5917
116.424170 91.667 137.8927
117.267827 91.593 137.1997
118.117598 91.517 136.5125
118.973527 91.439 135.8307
119.835658 91.360 135.1537
120.704037 91.279 134.4818
121.578708 91.196 133.8163
122.459718 91.111 133.1593
123.347111 91.024 132.5122
124.240935 90.936 131.8756
125.141236 90.846 131.2498
126.048061 90.755 130.6339
126.961458 90.662 130.0275
127.881473 90.568 129.4304
128.808154 90.473 128.8428
129.741551 90.378 128.2652
130.681712 90.281 127.6986
131.628686 90.183 127.1446
132.582521 90.084 126.6039
133.543269 89.983 126.0772
134.510979 89.879 125.5676
135.485701 89.774 125.0773
136.467486 89.667 124.6045
137.456386 89.559 124.1445
138.452451 89.449 123.6939
139.455735 89.339 123.2512
140.466288 89.229 122.8168
141.484165 89.118 122.3922
142.509418 89.007 121.9790
143.542100 88.896 121.5785
144.582265 88.785 121.1918
145.629968 88.673 120.8195
146.685262 88.561 120.4611
147.748204 88.448 120.1154
148.818849 88.335 119.7809
149.897251 88.221 119.4574
150.983469 88.107 119.1455
152.077557 87.992 118.8462
153.179574 87.877 118.5601
154.289576 87.762 118.2869
155.407622 87.646 118.0261
156.533770 87.530 117.7769
157.668078 87.414 117.5392
158.810606 87.298 117.3131
159.961413 87.182 117.0993
161.120559 87.067 116.8987
162.288105 86.951 116.7117
163.464112 86.836 116.5385
164.648640 86.721 116.3780
165.841752 86.606 116.2287
167.043510 86.492 116.0886
168.253976 86.377 115.9571
169.473213 86.262 115.8351
170.701286 86.147 115.7239
171.938258 86.032 115.6244
173.184194 85.918 115.5369
174.439158 85.804 115.4613
175.703216 85.690 115.3979
176.976434 85.577 115.3468
178.258878 85.464 115.3080
179.550615 85.352 115.2814
180.851713 85.241 115.2672
182.162239 85.132 115.2657
183.482262 85.023 115.2768
184.811850 84.915 115.2989
186.151073 84.808 115.3297
187.500000 84.701 115.3671
188.858702 84.595 115.4104
190.227250 84.488 115.4604
191.605715 84.383 115.5184
192.994169 84.277 115.5856
194.392685 84.172 115.6618
195.801334 84.068 115.7454
197.220191 83.964 115.8343
198.649330 83.861 115.9279
200.088825 83.759 116.0273
201.538751 83.660 116.1348
202.999184 83.562 116.2505
204.470200 83.468 116.3732
205.951875 83.375 116.5020
207.444287 83.283 116.6363
208.947514 83.192 116.7762
210.461634 83.101 116.9227
211.986726 83.011 117.0765
213.522869 82.922 117.2382
215.070144 82.833 117.4075
216.628631 82.745 117.5833
218.198411 82.658 117.7650
219.779567 82.571 117.9528
221.372180 82.485 118.1470
222.976334 82.401 118.3470
224.592112 82.317 118.5507
226.219600 82.234 118.7555
227.858880 82.153 118.9592
229.510039 82.074 119.1616
231.173164 81.995 119.3648
232.848340 81.919 119.5720
234.535655 81.843 119.7856
236.235197 81.767 120.0060
237.947054 81.693 120.2313
239.671317 81.619 120.4599
241.408074 81.548 120.6910
243.157416 81.478 120.9243
244.919435 81.410 121.1600
246.694223 81.344 121.3987
248.481871 81.280 121.6411
250.282473 81.217 121.8873
252.096123 81.154 122.1373
253.922915 81.090 122.3898
255.762945 81.026 122.6422
257.616309 80.961 122.8916
259.483103 80.897 123.1357
261.363424 80.834 123.3749
263.257372 80.771 123.6128
265.165043 80.711 123.8549
267.086538 80.651 124.1060
269.021957 80.593 124.3666
270.971401 80.536 124.6328
272.934972 80.480 124.8995
274.912771 80.425 125.1631
276.904902 80.370 125.4228
278.911469 80.317 125.6802
280.932577 80.264 125.9380
282.968330 80.210 126.1971
285.018835 80.158 126.4560
287.084199 80.107 126.7114
289.164530 80.057 126.9601
291.259935 80.011 127.2016
293.370525 79.966 127.4385
295.496408 79.923 127.6752
297.637697 79.881 127.9164
299.794503 79.839 128.1647
301.966937 79.798 128.4193
304.155114 79.756 128.6762
306.359147 79.714 128.9312
308.579152 79.673 129.1816
310.815244 79.632 129.4279
313.067539 79.592 129.6730
315.336156 79.552 129.9182
317.621211 79.513 130.1621
319.922826 79.475 130.4031
322.241118 79.436 130.6423
324.576210 79.398 130.8818
326.928223 79.360 131.1224
329.297280 79.322 131.3630
331.683504 79.285 131.6026
334.087019 79.247 131.8414
336.507952 79.210 132.0803
338.946427 79.175 132.3196
341.402572 79.141 132.5594
343.876516 79.108 132.8015
346.368387 79.075 133.0485
348.878315 79.042 133.3007
351.406431 79.009 133.5552
353.952867 78.976 133.8076
356.517756 78.942 134.0543
359.101230 78.909 134.2941
361.703426 78.877 134.5284
364.324478 78.845 134.7621
366.964523 78.811 135.0023
369.623699 78.776 135.2556
372.302145 78.740 135.5277
375.000000 78.704 135.8234
377.717405 78.669 136.1467
380.454501 78.636 136.5010
383.211431 78.607 136.8887
385.988339 78.582 137.3104
388.785369 78.563 137.7639
391.602668 78.549 138.2455
394.440383 78.539 138.7494
397.298660 78.533 139.2701
400.177650 78.529 139.8024
403.077502 78.528 140.3395
405.998368 78.527 140.8750
408.940400 78.526 141.4067
411.903750 78.522 141.9379
414.888575 78.515 142.4717
417.895028 78.504 143.0074
420.923268 78.491 143.5440
423.973452 78.476 144.0837
427.045738 78.460 144.6326
430.140287 78.444 145.1967
433.257261 78.429 145.7778
436.396822 78.415 146.3707
439.559133 78.401 146.9691
442.744360 78.388 147.5705
445.952668 78.375 148.1749
449.184225 78.363 148.7825
452.439199 78.350 149.3939
455.717760 78.337 150.0107
459.020079 78.324 150.6349
462.346327 78.311 151.2672
465.696680 78.298 151.9075
469.071310 78.286 152.5563
472.470394 78.276 153.2153
475.894109 78.266 153.8854
479.342634 78.258 154.5659
482.816148 78.251 155.2538
486.314833 78.244 155.9446
489.838871 78.238 156.6328
493.388445 78.233 157.3152
496.963741 78.228 157.9949
500.564945 78.223 158.6779
504.192245 78.218 159.3680
507.845830 78.214 160.0664
511.525890 78.211 160.7739
515.232618 78.208 161.4901
518.966206 78.205 162.2142
522.726849 78.203 162.9458
526.514743 78.201 163.6852
530.330086 78.199 164.4333
534.173076 78.198 165.1902
538.043915 78.197 165.9559
541.942803 78.198 166.7304
545.869944 78.199 167.5125
549.825542 78.201 168.3003
553.809805 78.205 169.0930
557.822939 78.209 169.8914
561.865154 78.215 170.6971
565.936660 78.221 171.5112
570.037671 78.229 172.3337
574.168399 78.237 173.1630
578.329060 78.245 173.9955
582.519870 78.254 174.8281
586.741049 78.263 175.6603
590.992817 78.273 176.4940
595.275394 78.283 177.3322
599.589005 78.293 178.1776
603.933874 78.304 179.0330
608.310228 78.314 179.9003
612.718295 78.325 -179.2209
617.158304 78.337 -178.3323
621.630488 78.349 -177.4363
626.135079 78.362 -176.5350
630.672311 78.375 -175.6292
635.242423 78.390 -174.7191
639.845651 78.406 -173.8050
644.482237 78.424 -172.8881
649.152421 78.441 -171.9690
653.856447 78.459 -171.0461
658.594560 78.476 -170.1147
663.367008 78.493 -169.1699
668.174039 78.511 -168.2097
673.015903 78.529 -167.2369
677.892854 78.548 -166.2578
682.805145 78.568 -165.2815
687.753032 78.590 -164.3187
692.736774 78.614 -163.3806
697.756631 78.639 -162.4775
702.812863 78.665 -161.6180
707.905735 78.692 -160.8080
713.035511 78.722 -160.0525
718.202461 78.754 -159.3551
723.406852 78.791 -158.7164
728.648956 78.831 -158.1321
733.929047 78.876 -157.5932
739.247399 78.924 -157.0873
744.604290 78.976 -156.6032
750.000000 79.029 -156.1338
755.434809 79.084 -155.6756
760.909001 79.139 -155.2265
766.422861 79.196 -154.7844
771.976677 79.253 -154.3470
777.570739 79.311 -153.9125
783.205337 79.370 -153.4802
788.880766 79.431 -153.0506
794.597321 79.493 -152.6245
800.355301 79.556 -152.2029
806.155005 79.622 -151.7867
811.996736 79.689 -151.3772
817.880799 79.758 -150.9760
823.807501 79.828 -150.5843
829.777150 79.901 -150.2032
835.790057 79.976 -149.8331
841.846536 80.053 -149.4742
847.946903 80.132 -149.1266
854.091476 80.213 -148.7911
860.280575 80.296 -148.4684
866.514523 80.381 -148.1588
872.793644 80.467 -147.8630
879.118267 80.555 -147.5822
885.488720 80.645 -147.3178
891.905336 80.736 -147.0713
898.368450 80.828 -146.8435
904.878398 80.922 -146.6349
911.435520 81.016 -146.4460
918.040157 81.112 -146.2774
924.692655 81.209 -146.1305
931.393359 81.307 -146.0063
938.142619 81.406 -145.9057
944.940787 81.505 -145.8291
951.788218 81.605 -145.7765
958.685268 81.704 -145.7484
965.632296 81.803 -145.7453
972.629666 81.902 -145.7678
979.677741 82.000 -145.8157
986.776890 82.097 -145.8886
993.927482 82.194 -145.9869
1001.129891 82.289 -146.1109
1008.384491 82.382 -146.2610
1015.691660 82.474 -146.4370
1023.051781 82.563 -146.6380
1030.465236 82.651 -146.8625
1037.932411 82.736 -147.1090
1045.453698 82.818 -147.3764
1053.029486 82.898 -147.6633
1060.660172 82.974 -147.9685
1068.346153 83.047 -148.2912
1076.087829 83.117 -148.6302
1083.885605 83.183 -148.9842
1091.739887 83.246 -149.3510
1099.651084 83.305 -149.7286
1107.619609 83.360 -150.1152
1115.645878 83.412 -150.5088
1123.730308 83.459 -150.9074
1131.873321 83.503 -151.3092
1140.075341 83.543 -151.7129
1148.336797 83.579 -152.1171
1156.658119 83.611 -152.5205
1165.039741 83.640 -152.9222
1173.482099 83.665 -153.3210
1181.985634 83.687 -153.7156
1190.550789 83.705 -154.1044
1199.178011 83.720 -154.4858
1207.867749 83.732 -154.8583
1216.620457 83.741 -155.2207
1225.436590 83.748 -155.5725
1234.316609 83.753 -155.9129
1243.260976 83.755 -156.2414
1252.270157 83.755 -156.5574
1261.344623 83.753 -156.8602
1270.484846 83.749 -157.1495
1279.691303 83.743 -157.4248
1288.964474 83.736 -157.6854
1298.304842 83.727 -157.9313
1307.712894 83.717 -158.1624
1317.189120 83.706 -158.3792
1326.734016 83.694 -158.5819
1336.348077 83.681 -158.7705
1346.031806 83.668 -158.9447
1355.785708 83.654 -159.1047
1365.610290 83.640 -159.2507
1375.506065 83.626 -159.3831
1385.473549 83.612 -159.5026
1395.513261 83.598 -159.6098
1405.625726 83.584 -159.7049
1415.811469 83.570 -159.7880
1426.071023 83.557 -159.8591
1436.404921 83.544 -159.9184
1446.813703 83.532 -159.9666
1457.297912 83.520 -160.0043
1467.858093 83.509 -160.0324
1478.494798 83.499 -160.0514
1489.208581 83.490 -160.0618
1500.000000 83.482 -160.0639
1510.869618 83.474 -160.0580
1521.818002 83.468 -160.0443
1532.845723 83.463 -160.0230
1543.953355 83.459 -159.9942
1555.141477 83.457 -159.9584
1566.410674 83.455 -159.9163
1577.761531 83.455 -159.8692
1589.194642 83.456 -159.8187
1600.710601 83.459 -159.7659
1612.310010 83.463 -159.7112
1623.993473 83.469 -159.6550
1635.761599 83.477 -159.5975
1647.615002 83.486 -159.5393
1659.554299 83.497 -159.4812
1671.580114 83.509 -159.4242
1683.693072 83.523 -159.3692
1695.893807 83.539 -159.3172
1708.182952 83.556 -159.2688
1720.561150 83.575 -159.2253
1733.029045 83.596 -159.1877
1745.587288 83.618 -159.1574
1758.236533 83.641 -159.1350
1770.977440 83.666 -159.1214
1783.810673 83.692 -159.1175
1796.736900 83.719 -159.1245
1809.756796 83.748 -159.1433
1822.871040 83.777 -159.1750
1836.080315 83.808 -159.2205
1849.385310 83.839 -159.2808
1862.786718 83.871 -159.3566
1876.285239 83.904 -159.4488
1889.881575 83.936 -159.5582
1903.576436 83.969 -159.6856
1917.370535 84.001 -159.8315
1931.264593 84.033 -159.9965
1945.259332 84.063 -160.1808
1959.355483 84.093 -160.3847
1973.553781 84.122 -160.6084
1987.854965 84.148 -160.8518
2002.259781 84.173 -161.1146
2016.768981 84.196 -161.3959
2031.383320 84.215 -161.6946
2046.103561 84.232 -162.0095
2060.930471 84.246 -162.3389
2075.864823 84.256 -162.6812
2090.907395 84.262 -163.0345
2106.058972 84.265 -163.3964
2121.320344 84.263 -163.7646
2136.692305 84.257 -164.1367
2152.175658 84.246 -164.5102
2167.771210 84.231 -164.8826
2183.479774 84.212 -165.2512
2199.302169 84.188 -165.6130
2215.239219 84.159 -165.9650
2231.291755 84.126 -166.3046
2247.460615 84.089 -166.6293
2263.746641 84.048 -166.9367
2280.150683 84.004 -167.2246
2296.673595 83.956 -167.4909
2313.316238 83.905 -167.7335
2330.079481 83.851 -167.9506
2346.964198 83.795 -168.1408
2363.971268 83.737 -168.3029
2381.101578 83.677 -168.4361
2398.356022 83.615 -168.5395
2415.735498 83.553 -168.6125
2433.240913 83.490 -168.6545
2450.873180 83.427 -168.6655
2468.633217 83.363 -168.6456
2486.521951 83.301 -168.5952
2504.540314 83.239 -168.5148
2522.689246 83.178 -168.4050
2540.969692 83.118 -168.2667
2559.382606 83.060 -168.1008
2577.928947 83.004 -167.9081
2596.609683 82.950 -167.6896
2615.425787 82.898 -167.4466
2634.378241 82.849 -167.1808
2653.468031 82.803 -166.8937
2672.696154 82.759 -166.5866
2692.063613 82.718 -166.2602
2711.571415 82.681 -165.9155
2731.220579 82.647 -165.5536
2751.012130 82.616 -165.1762
2770.947098 82.588 -164.7846
2791.026522 82.564 -164.3804
2811.251451 82.543 -163.9651
2831.622938 82.526 -163.5402
2852.142045 82.513 -163.1068
2872.809842 82.503 -162.6660
2893.627406 82.498 -162.2189
2914.595823 82.497 -161.7667
2935.716186 82.499 -161.3108
2956.989596 82.506 -160.8529
2978.417161 82.517 -160.3946
3000.000000 82.532 -159.9374
3021.739237 82.551 -159.4827
3043.636005 82.574 -159.0317
3065.691446 82.601 -158.5857
3087.906710 82.632 -158.1462
3110.282955 82.667 -157.7144
3132.821347 82.706 -157.2916
3155.523062 82.749 -156.8787
3178.389283 82.796 -156.4769
3201.421202 82.847 -156.0876
3224.620020 82.901 -155.7120
3247.986946 82.959 -155.3510
3271.523198 83.021 -155.0055
3295.230004 83.086 -154.6763
3319.108599 83.154 -154.3647
3343.160228 83.225 -154.0718
3367.386145 83.299 -153.7986
3391.787613 83.375 -153.5463
3416.365904 83.455 -153.3162
3441.122300 83.536 -153.1091
3466.058091 83.620 -152.9259
3491.174576 83.706 -152.7674
3516.473066 83.794 -152.6343
3541.954880 83.883 -152.5273
3567.621345 83.973 -152.4470
3593.473800 84.065 -152.3940
3619.513592 84.157 -152.3685
3645.742080 84.250 -152.3707
3672.160630 84.343 -152.4008
3698.770620 84.436 -152.4587
3725.573436 84.530 -152.5443
3752.570477 84.623 -152.6572
3779.763150 84.716 -152.7968
3807.152872 84.808 -152.9627
3834.741071 84.899 -153.1543
3862.529185 84.990 -153.3710
3890.518664 85.079 -153.6121
3918.710966 85.167 -153.8769
3947.107561 85.254 -154.1647
3975.709929 85.340 -154.4740
4004.519563 85.423 -154.8024
4033.537962 85.504 -155.1461
4062.766641 85.581 -155.5010
4092.207123 85.656 -155.8643
4121.860942 85.728 -156.2344
4151.729646 85.797 -156.6105
4181.814790 85.865 -156.9911
4212.117944 85.931 -157.3735
4242.640687 85.995 -157.7549
4273.384610 86.058 -158.1331
4304.351317 86.119 -158.5070
4335.542421 86.181 -158.8761
4366.959549 86.242 -159.2401
4398.604338 86.304 -159.5990
4430.478438 86.366 -159.9532
4462.583511 86.431 -160.3034
4494.921231 86.497 -160.6507
4527.493283 86.565 -160.9967
4560.301365 86.636 -161.3437
4593.347189 86.711 -161.6942
4626.632476 86.788 -162.0515
4660.158962 86.869 -162.4192
4693.928395 86.954 -162.8012
4727.942535 87.043 -163.2018
4762.203156 87.136 -163.6248
4796.712043 87.232 -164.0740
4831.470996 87.333 -164.5530
4866.481826 87.437 -165.0651
4901.746360 87.545 -165.6136
4937.266434 87.657 -166.2022
4973.043902 87.772 -166.8347
5009.080628 87.891 -167.5155
5045.378492 88.013 -168.2495
5081.939384 88.138 -169.0415
5118.765212 88.266 -169.8970
5155.857894 88.395 -170.8215
5193.219366 88.526 -171.8202
5230.851574 88.657 -172.8980
5268.756481 88.787 -174.0591
5306.936062 88.916 -175.3070
5345.392309 89.041 -176.6450
5384.127225 89.161 -178.0755
5423.142830 89.275 -179.6001
5462.441159 89.380 178.7807
5502.024259 89.476 177.0674
5541.894195 89.559 175.2625
5582.053045 89.628 173.3706
5622.502902 89.681 171.3988
5663.245876 89.716 169.3574
5704.284090 89.730 167.2592
5745.619684 89.723 165.1199
5787.254813 89.694 162.9566
5829.191647 89.642 160.7877
5871.432373 89.566 158.6321
5913.979192 89.469 156.5089
5956.834323 89.349 154.4356
6000.000000 89.210 152.4285
6043.478473 89.052 150.5015
6087.272010 88.877 148.6660
6131.382892 88.688 146.9312
6175.813420 88.486 145.3042
6220.565910 88.274 143.7896
6265.642695 88.053 142.3903
6311.046124 87.826 141.1072
6356.778566 87.594 139.9402
6402.842404 87.359 138.8879
6449.240040 87.123 137.9478
6495.973891 86.887 137.1170
6543.046396 86.653 136.3918
6590.460007 86.422 135.7679
6638.217197 86.196 135.2410
6686.320456 85.976 134.8063
6734.772290 85.762 134.4594
6783.575226 85.555 134.1959
6832.731809 85.356 134.0117
6882.244600 85.166 133.9033
6932.116181 84.987 133.8671
6982.349153 84.817 133.9003
7032.946133 84.660 134.0010
7083.909760 84.515 134.1684
7135.242690 84.385 134.4050
7186.947600 84.269 134.7203
7239.027185 84.170 135.1347
7291.484160 84.089 135.6858
7344.321260 84.028 136.4339
7397.541239 83.989 137.4667
7451.146872 83.976 138.9000
7505.140954 83.990 140.8685
7559.526299 84.034 143.5015
7614.305743 84.106 146.8808
7669.482141 84.204 151.0016
7725.058371 84.326 155.7640
7781.037328 84.472 161.0067
7837.421932 84.645 166.5538
7894.215122 84.847 172.2441
7951.419859 85.079 177.9404
8009.039125 85.343 -176.4734
8067.075924 85.634 -171.0986
8125.533282 85.950 -166.0265
8184.414245 86.282 -161.3395
8243.721885 86.621 -157.1096
8303.459292 86.954 -153.3946
8363.629581 87.267 -150.2325
8424.235888 87.543 -147.6344
8485.281374 87.765 -145.5788
8546.769221 87.915 -144.0075
8608.702634 87.976 -142.8246
8671.084842 87.936 -141.9000
8733.919097 87.784 -141.0775
8797.208675 87.518 -140.1865
8860.956876 87.139 -139.0555
8925.167022 86.653 -137.5249
8989.842461 86.071 -135.4582
9054.986566 85.407 -132.7484
9120.602731 84.676 -129.3216
9186.694378 83.895 -125.1366
9253.264952 83.079 -120.1826
9320.317925 82.241 -114.4746
9387.856790 81.395 -108.0492
9455.885071 80.551 -100.9579
9524.406312 79.718 -93.2602
9593.424086 78.902 -85.0188
9662.941992 78.108 -76.2933
9732.963653 77.339 -67.1382
9803.492719 76.597 -57.6012
9874.532869 75.882 -47.7231
9946.087805 75.194 -37.5391
10018.161257 74.532 -27.0779
10090.756983 73.897 -16.3632
10163.878768 73.286 -5.4142
10237.530423 72.698 5.7523
10311.715789 72.133 17.1227
10386.438732 71.589 28.6854
10461.703149 71.064 40.4335
10537.512962 70.558 52.3631
10613.872125 70.070 64.4741
10690.784618 69.599 76.7662
10768.254450 69.143 89.2392
10846.285661 68.703 101.8923
10924.882318 68.278 114.7238
11004.048518 67.867 127.7323
11083.788390 67.470 140.9172
11164.106090 67.086 154.2792
11245.005805 66.717 167.8177
11326.491752 66.361 -178.4691
11408.568180 66.018 -164.5836
11491.239368 65.688 -150.5284
11574.509626 65.371 -136.3053
11658.383294 65.066 -121.9144
11742.864745 64.774 -107.3516
11827.958384 64.493 -92.6098
11913.668646 64.224 -77.6816
12000.000000 63.967 -62.5612
12086.956947 63.722 -47.2450
12174.544019 63.489 -31.7313
12262.765784 63.268 -16.0212
12351.626840 63.061 -0.1208
12441.131819 62.868 15.9601
12531.285389 62.688 32.2153
12622.092249 62.523 48.6448
12713.557132 62.372 65.2556
12805.684808 62.234 82.0663
12898.480079 62.109 99.1110
12991.947783 61.998 116.4313
13086.092792 61.902 134.0542
13180.920015 61.822 151.9608
13276.434395 61.760 170.0288
13372.640911 61.715 -172.0467
13469.544580 61.688 -154.7826
13567.150452 61.677 -138.7816
13665.463617 61.680 -124.4658
13764.489200 61.694 -111.8873
13864.232362 61.722 -100.7707
13964.698305 61.768 -90.7004
14065.892266 61.838 -81.2853
14167.819519 61.936 -72.2326
14270.485380 62.064 -63.3500
14373.895200 62.223 -54.5247
14478.054370 62.419 -45.6983
14582.968320 62.652 -36.8477
14688.642520 62.930 -27.9706
14795.082478 63.256 -19.0768
14902.293745 63.637 -10.1870
15010.281908 64.082 -1.3397
15119.052599 64.599 7.3984
15228.611486 65.194 15.9209
15338.964283 65.872 24.0740
15450.116741 66.631 31.6536
15562.074656 67.461 38.4171
15674.843864 68.345 44.1129
15788.430244 69.252 48.5187
15902.839718 70.144 51.4788
16018.078250 70.975 52.9291
16134.151848 71.693 52.9137
16251.066563 72.245 51.5963
16368.828491 72.582 49.2678
16487.443769 72.668 46.3408
16606.918584 72.482 43.3145
16727.259161 72.030 40.7075
16848.471777 71.336 38.9835
16970.562748 70.442 38.5057
17093.538442 69.392 39.5248
17217.405268 68.235 42.1849
17342.169684 67.019 46.5299
17467.838194 65.784 52.5086
17594.417350 64.570 59.9822
17721.913751 63.406 68.7408
17850.334044 62.315 78.5363
17979.684923 61.311 89.1187
18109.973131 60.401 100.2650
18241.205462 59.585 111.7905
18373.388756 58.859 123.5483
18506.529905 58.215 135.4229
18640.635849 57.643 147.3248
18775.713581 57.131 159.1873
18911.770141 56.668 170.9598
19048.812624 56.243 -177.3988
19186.848172 55.844 -165.9338
19325.883983 55.463 -154.7244
19465.927305 55.100 -143.9448
19606.985439 54.760 -133.9417
19749.065738 54.461 -125.2919
19892.175609 54.233 -118.7789
20036.322514 54.108 -115.2340

