* Measurement data measured by REW V5.31.3
* Source: Headset (CX31993 HIFI AUDIO), MICROPHONE (Master Volume), R, volume: 0.400
* Format: 256k Log Swept Sine, 1 sweep at -11.9 dBFS with no timing reference
* Dated: 06 25, 25 11:50:28 AM
* REW Settings:
*  C-weighting compensation: Off
*  Target level: 75.0 dB
* Note: ; 
* Measurement: Xiaomi Buds 6 Play L
* Smoothing: 1/12 octave
* Frequency Step: 96 ppo
* Start Frequency: 0.36621094 Hz
*
* Freq(Hz) SPL(dB) Phase(degrees)
0.366211 47.603 155.3843
0.368865 47.602 155.3376
0.371538 47.601 155.2678
0.374230 47.599 155.1808
0.376942 47.597 155.0812
0.379673 47.595 154.9727
0.382424 47.593 154.8575
0.385196 47.591 154.7372
0.387987 47.588 154.6126
0.390798 47.586 154.4840
0.393630 47.584 154.3518
0.396483 47.581 154.2159
0.399356 47.579 154.0765
0.402250 47.577 153.9335
0.405165 47.574 153.7869
0.408101 47.572 153.6366
0.411058 47.569 153.4827
0.414037 47.567 153.3250
0.417037 47.564 153.1635
0.420059 47.562 152.9982
0.423103 47.559 152.8290
0.426169 47.557 152.6558
0.429257 47.554 152.4788
0.432368 47.552 152.2976
0.435501 47.549 152.1125
0.438656 47.547 151.9232
0.441835 47.544 151.7297
0.445037 47.541 151.5320
0.448262 47.539 151.3301
0.451510 47.536 151.1238
0.454782 47.533 150.9132
0.458077 47.531 150.6982
0.461397 47.528 150.4787
0.464740 47.525 150.2547
0.468108 47.522 150.0262
0.471500 47.520 149.7930
0.474917 47.517 149.5552
0.478358 47.514 149.3127
0.481825 47.511 149.0654
0.485316 47.508 148.8133
0.488833 47.505 148.5564
0.492375 47.502 148.2945
0.495943 47.499 148.0277
0.499537 47.496 147.7559
0.503157 47.493 147.4790
0.506803 47.490 147.1970
0.510475 47.487 146.9098
0.514175 47.484 146.6175
0.517900 47.481 146.3199
0.521653 47.478 146.0170
0.525434 47.475 145.7087
0.529241 47.472 145.3950
0.533076 47.469 145.0758
0.536939 47.466 144.7512
0.540830 47.462 144.4209
0.544749 47.459 144.0851
0.548696 47.456 143.7436
0.552673 47.453 143.3964
0.556677 47.449 143.0434
0.560711 47.446 142.6846
0.564774 47.443 142.3200
0.568867 47.439 141.9494
0.572989 47.436 141.5728
0.577141 47.432 141.1902
0.581324 47.429 140.8016
0.585536 47.426 140.4068
0.589779 47.422 140.0058
0.594053 47.418 139.5986
0.598358 47.415 139.1851
0.602694 47.411 138.7652
0.607061 47.408 138.3390
0.611460 47.404 137.9062
0.615891 47.400 137.4670
0.620354 47.397 137.0212
0.624849 47.393 136.5687
0.629377 47.389 136.1095
0.633938 47.386 135.6436
0.638532 47.382 135.1708
0.643159 47.378 134.6912
0.647819 47.374 134.2046
0.652514 47.370 133.7109
0.657242 47.366 133.2102
0.662005 47.362 132.7023
0.666802 47.359 132.1871
0.671634 47.355 131.6646
0.676501 47.351 131.1347
0.681403 47.347 130.5973
0.686341 47.343 130.0523
0.691314 47.339 129.4996
0.696324 47.335 128.9391
0.701370 47.331 128.3708
0.706452 47.327 127.7943
0.711571 47.324 127.2097
0.716728 47.322 126.6166
0.721921 47.322 126.0147
0.727153 47.323 125.4037
0.732422 47.327 124.7831
0.737729 47.335 124.1524
0.743075 47.345 123.5112
0.748460 47.358 122.8591
0.753883 47.372 122.1959
0.759346 47.389 121.5216
0.764849 47.406 120.8362
0.770391 47.425 120.1397
0.775974 47.444 119.4323
0.781597 47.465 118.7142
0.787261 47.486 117.9854
0.792966 47.508 117.2463
0.798712 47.531 116.4969
0.804500 47.554 115.7377
0.810329 47.579 114.9687
0.816201 47.604 114.1903
0.822116 47.630 113.4026
0.828073 47.657 112.6061
0.834074 47.685 111.8009
0.840118 47.714 110.9874
0.846206 47.744 110.1659
0.852338 47.775 109.3366
0.858514 47.807 108.4999
0.864735 47.839 107.6561
0.871001 47.873 106.8055
0.877313 47.908 105.9484
0.883670 47.943 105.0852
0.890074 47.980 104.2163
0.896524 48.018 103.3418
0.903020 48.057 102.4622
0.909564 48.096 101.5777
0.916155 48.137 100.6886
0.922794 48.179 99.7953
0.929481 48.223 98.8981
0.936216 48.267 97.9973
0.943000 48.312 97.0930
0.949834 48.359 96.1856
0.956717 48.407 95.2754
0.963649 48.456 94.3625
0.970632 48.506 93.4472
0.977666 48.557 92.5298
0.984750 48.610 91.6103
0.991886 48.664 90.6890
0.999074 48.719 89.7660
1.006314 48.775 88.8415
1.013606 48.833 87.9155
1.020951 48.892 86.9883
1.028349 48.952 86.0598
1.035801 49.014 85.1301
1.043307 49.077 84.1993
1.050867 49.142 83.2673
1.058482 49.208 82.3343
1.066152 49.275 81.4001
1.073878 49.344 80.4647
1.081660 49.415 79.5282
1.089498 49.487 78.5905
1.097393 49.562 77.6517
1.105345 49.638 76.7121
1.113355 49.717 75.7718
1.121423 49.798 74.8313
1.129549 49.882 73.8911
1.137734 49.969 72.9515
1.145979 50.058 72.0131
1.154283 50.149 71.0764
1.162647 50.244 70.1418
1.171072 50.340 69.2098
1.179558 50.440 68.2808
1.188106 50.541 67.3551
1.196715 50.646 66.4333
1.205387 50.752 65.5155
1.214122 50.861 64.6022
1.222920 50.971 63.6935
1.231782 51.084 62.7899
1.240708 51.199 61.8915
1.249699 51.316 60.9985
1.258754 51.435 60.1111
1.267876 51.555 59.2295
1.277063 51.677 58.3539
1.286318 51.801 57.4842
1.295639 51.926 56.6207
1.305027 52.052 55.7633
1.314484 52.180 54.9121
1.324009 52.309 54.0672
1.333604 52.438 53.2285
1.343268 52.569 52.3959
1.353002 52.700 51.5695
1.362806 52.832 50.7491
1.372681 52.963 49.9348
1.382628 53.096 49.1263
1.392647 53.228 48.3236
1.402739 53.360 47.5265
1.412904 53.492 46.7349
1.423142 53.623 45.9487
1.433455 53.755 45.1678
1.443843 53.885 44.3922
1.454305 54.016 43.6217
1.464844 54.146 42.8565
1.475459 54.276 42.0968
1.486150 54.407 41.3427
1.496920 54.538 40.5945
1.507767 54.670 39.8522
1.518693 54.802 39.1159
1.529698 54.936 38.3857
1.540783 55.071 37.6616
1.551948 55.206 36.9434
1.563194 55.342 36.2311
1.574521 55.479 35.5245
1.585931 55.617 34.8235
1.597423 55.755 34.1278
1.608999 55.894 33.4374
1.620658 56.033 32.7520
1.632402 56.173 32.0713
1.644232 56.314 31.3951
1.656146 56.455 30.7231
1.668147 56.596 30.0551
1.680235 56.737 29.3909
1.692411 56.879 28.7299
1.704675 57.021 28.0721
1.717028 57.163 27.4170
1.729470 57.304 26.7644
1.742003 57.446 26.1138
1.754626 57.587 25.4650
1.767341 57.729 24.8176
1.780147 57.869 24.1713
1.793047 58.010 23.5257
1.806040 58.150 22.8807
1.819128 58.289 22.2359
1.832310 58.428 21.5912
1.845587 58.567 20.9468
1.858961 58.705 20.3026
1.872432 58.843 19.6590
1.886001 58.980 19.0161
1.899667 59.117 18.3743
1.913433 59.254 17.7339
1.927299 59.390 17.0952
1.941265 59.526 16.4584
1.955332 59.662 15.8237
1.969501 59.798 15.1914
1.983773 59.933 14.5616
1.998148 60.068 13.9346
2.012627 60.203 13.3103
2.027212 60.337 12.6890
2.041902 60.471 12.0707
2.056698 60.605 11.4553
2.071602 60.738 10.8431
2.086614 60.872 10.2338
2.101734 61.005 9.6275
2.116964 61.137 9.0241
2.132304 61.270 8.4235
2.147756 61.402 7.8254
2.163320 61.534 7.2295
2.178996 61.665 6.6356
2.194786 61.796 6.0430
2.210690 61.926 5.4514
2.226710 62.056 4.8605
2.242845 62.186 4.2698
2.259098 62.314 3.6795
2.275468 62.443 3.0896
2.291957 62.570 2.5003
2.308566 62.697 1.9119
2.325295 62.823 1.3246
2.342145 62.948 0.7388
2.359117 63.073 0.1546
2.376212 63.197 -0.4276
2.393431 63.321 -1.0076
2.410775 63.445 -1.5852
2.428244 63.568 -2.1602
2.445840 63.690 -2.7324
2.463564 63.812 -3.3018
2.481416 63.934 -3.8682
2.499397 64.055 -4.4317
2.517509 64.176 -4.9923
2.535752 64.297 -5.5504
2.554127 64.417 -6.1064
2.572635 64.537 -6.6607
2.591277 64.656 -7.2139
2.610055 64.775 -7.7663
2.628968 64.893 -8.3183
2.648019 65.010 -8.8698
2.667208 65.126 -9.4207
2.686535 65.242 -9.9708
2.706003 65.357 -10.5199
2.725612 65.471 -11.0676
2.745363 65.585 -11.6136
2.765257 65.698 -12.1577
2.785295 65.811 -12.6996
2.805478 65.923 -13.2389
2.825808 66.035 -13.7755
2.846285 66.147 -14.3093
2.866910 66.258 -14.8400
2.887685 66.369 -15.3678
2.908611 66.479 -15.8929
2.929688 66.590 -16.4155
2.950917 66.699 -16.9362
2.972301 66.808 -17.4553
2.993839 66.917 -17.9732
3.015534 67.025 -18.4900
3.037386 67.132 -19.0057
3.059396 67.239 -19.5202
3.081565 67.345 -20.0334
3.103896 67.451 -20.5449
3.126388 67.556 -21.0547
3.149043 67.661 -21.5623
3.171862 67.765 -22.0677
3.194847 67.869 -22.5705
3.217998 67.973 -23.0707
3.241317 68.077 -23.5681
3.264805 68.181 -24.0627
3.288463 68.284 -24.5545
3.312293 68.387 -25.0440
3.336295 68.490 -25.5312
3.360471 68.592 -26.0165
3.384822 68.694 -26.5000
3.409350 68.795 -26.9819
3.434056 68.896 -27.4623
3.458940 68.997 -27.9413
3.484005 69.097 -28.4189
3.509252 69.197 -28.8950
3.534681 69.297 -29.3697
3.560295 69.397 -29.8429
3.586094 69.496 -30.3147
3.612081 69.596 -30.7851
3.638255 69.695 -31.2542
3.664620 69.795 -31.7218
3.691175 69.894 -32.1883
3.717923 69.993 -32.6535
3.744864 70.091 -33.1178
3.772001 70.190 -33.5811
3.799335 70.288 -34.0436
3.826866 70.386 -34.5055
3.854597 70.484 -34.9669
3.882529 70.582 -35.4279
3.910664 70.679 -35.8886
3.939002 70.777 -36.3493
3.967546 70.874 -36.8099
3.996296 70.971 -37.2706
4.025255 71.068 -37.7314
4.054423 71.165 -38.1924
4.083804 71.262 -38.6537
4.113396 71.359 -39.1151
4.143204 71.455 -39.5769
4.173227 71.551 -40.0391
4.203468 71.647 -40.5018
4.233928 71.743 -40.9651
4.264609 71.839 -41.4292
4.295512 71.934 -41.8943
4.326639 72.029 -42.3604
4.357992 72.124 -42.8279
4.389572 72.218 -43.2967
4.421380 72.313 -43.7670
4.453419 72.407 -44.2388
4.485691 72.500 -44.7122
4.518196 72.594 -45.1871
4.550936 72.686 -45.6634
4.583914 72.779 -46.1409
4.617131 72.871 -46.6196
4.650589 72.963 -47.0995
4.684289 73.054 -47.5806
4.718233 73.145 -48.0629
4.752424 73.236 -48.5466
4.786862 73.325 -49.0318
4.821549 73.415 -49.5186
4.856488 73.504 -50.0071
4.891680 73.592 -50.4971
4.927127 73.680 -50.9883
4.962831 73.767 -51.4805
4.998794 73.853 -51.9734
5.035017 73.939 -52.4668
5.071503 74.025 -52.9606
5.108253 74.110 -53.4547
5.145270 74.194 -53.9494
5.182555 74.277 -54.4446
5.220110 74.360 -54.9406
5.257937 74.442 -55.4371
5.296038 74.524 -55.9340
5.334415 74.605 -56.4309
5.373071 74.685 -56.9274
5.412006 74.765 -57.4233
5.451224 74.844 -57.9184
5.490725 74.922 -58.4126
5.530514 75.000 -58.9060
5.570590 75.077 -59.3988
5.610957 75.154 -59.8909
5.651616 75.230 -60.3824
5.692570 75.305 -60.8729
5.733821 75.380 -61.3623
5.775370 75.455 -61.8504
5.817221 75.529 -62.3369
5.859375 75.602 -62.8218
5.901834 75.675 -63.3052
5.944602 75.748 -63.7872
5.987679 75.820 -64.2679
6.031068 75.891 -64.7473
6.074771 75.963 -65.2254
6.118792 76.033 -65.7022
6.163131 76.104 -66.1776
6.207792 76.174 -66.6517
6.252776 76.244 -67.1246
6.298086 76.314 -67.5962
6.343725 76.383 -68.0667
6.389694 76.452 -68.5363
6.435996 76.521 -69.0050
6.482634 76.589 -69.4730
6.529610 76.657 -69.9403
6.576926 76.725 -70.4071
6.624585 76.793 -70.8733
6.672590 76.860 -71.3392
6.720942 76.928 -71.8048
6.769645 76.994 -72.2701
6.818700 77.061 -72.7352
6.868111 77.127 -73.2002
6.917881 77.193 -73.6652
6.968010 77.258 -74.1301
7.018504 77.324 -74.5952
7.069362 77.388 -75.0603
7.120590 77.453 -75.5255
7.172189 77.517 -75.9906
7.224161 77.580 -76.4556
7.276511 77.644 -76.9202
7.329239 77.706 -77.3846
7.382350 77.768 -77.8487
7.435845 77.830 -78.3124
7.489729 77.891 -78.7757
7.544002 77.952 -79.2381
7.598669 78.012 -79.6997
7.653732 78.072 -80.1601
7.709194 78.131 -80.6192
7.765058 78.190 -81.0770
7.821327 78.249 -81.5334
7.878004 78.306 -81.9883
7.935091 78.364 -82.4413
7.992592 78.421 -82.8925
8.050510 78.477 -83.3415
8.108847 78.534 -83.7884
8.167607 78.590 -84.2332
8.226793 78.645 -84.6758
8.286408 78.701 -85.1163
8.346454 78.756 -85.5546
8.406936 78.811 -85.9907
8.467856 78.865 -86.4247
8.529218 78.920 -86.8567
8.591024 78.974 -87.2867
8.653278 79.029 -87.7151
8.715983 79.083 -88.1419
8.779143 79.137 -88.5673
8.842760 79.191 -88.9914
8.906839 79.245 -89.4145
8.971381 79.299 -89.8366
9.036392 79.353 -90.2580
9.101873 79.407 -90.6790
9.167829 79.460 -91.0996
9.234263 79.514 -91.5200
9.301178 79.567 -91.9403
9.368578 79.621 -92.3605
9.436467 79.674 -92.7808
9.504847 79.727 -93.2012
9.573723 79.779 -93.6217
9.643099 79.831 -94.0423
9.712976 79.883 -94.4630
9.783361 79.935 -94.8836
9.854255 79.986 -95.3041
9.925663 80.037 -95.7243
9.997588 80.088 -96.1442
10.070035 80.138 -96.5635
10.143007 80.188 -96.9822
10.216507 80.237 -97.4002
10.290540 80.286 -97.8171
10.365109 80.334 -98.2331
10.440219 80.383 -98.6479
10.515873 80.430 -99.0616
10.592076 80.478 -99.4740
10.668830 80.525 -99.8850
10.746141 80.572 -100.2948
10.824012 80.619 -100.7033
10.902447 80.665 -101.1105
10.981451 80.711 -101.5166
11.061027 80.756 -101.9215
11.141180 80.802 -102.3253
11.221913 80.847 -102.7280
11.303232 80.891 -103.1298
11.385140 80.936 -103.5306
11.467641 80.980 -103.9304
11.550741 81.024 -104.3292
11.634442 81.067 -104.7270
11.718750 81.110 -105.1237
11.803669 81.153 -105.5191
11.889203 81.195 -105.9131
11.975357 81.236 -106.3056
12.062136 81.278 -106.6963
12.149543 81.319 -107.0850
12.237583 81.359 -107.4716
12.326262 81.399 -107.8559
12.415583 81.439 -108.2378
12.505552 81.479 -108.6171
12.596172 81.518 -108.9937
12.687449 81.557 -109.3677
12.779387 81.596 -109.7392
12.871992 81.635 -110.1082
12.965268 81.674 -110.4750
13.059220 81.713 -110.8398
13.153852 81.752 -111.2030
13.249170 81.791 -111.5649
13.345179 81.830 -111.9259
13.441884 81.869 -112.2865
13.539289 81.908 -112.6471
13.637401 81.947 -113.0081
13.736223 81.986 -113.3699
13.835761 82.026 -113.7328
13.936021 82.065 -114.0971
14.037007 82.103 -114.4630
14.138725 82.142 -114.8305
14.241180 82.180 -115.1997
14.344377 82.218 -115.5705
14.448323 82.256 -115.9428
14.553021 82.292 -116.3162
14.658478 82.329 -116.6905
14.764700 82.364 -117.0652
14.871691 82.399 -117.4399
14.979457 82.434 -117.8142
15.088005 82.467 -118.1874
15.197339 82.500 -118.5592
15.307465 82.532 -118.9289
15.418389 82.564 -119.2961
15.530117 82.595 -119.6603
15.642655 82.626 -120.0212
15.756008 82.656 -120.3783
15.870182 82.686 -120.7315
15.985184 82.715 -121.0807
16.101019 82.745 -121.4258
16.217694 82.774 -121.7670
16.335214 82.804 -122.1047
16.453586 82.834 -122.4392
16.572815 82.864 -122.7713
16.692909 82.894 -123.1018
16.813872 82.925 -123.4316
16.935713 82.957 -123.7617
17.058436 82.988 -124.0930
17.182048 83.020 -124.4267
17.306556 83.052 -124.7634
17.431967 83.084 -125.1039
17.558286 83.116 -125.4485
17.685521 83.147 -125.7972
17.813677 83.178 -126.1497
17.942762 83.208 -126.5054
18.072783 83.236 -126.8630
18.203746 83.264 -127.2213
18.335658 83.290 -127.5787
18.468526 83.315 -127.9335
18.602356 83.339 -128.2841
18.737156 83.362 -128.6290
18.872934 83.384 -128.9674
19.009695 83.405 -129.2984
19.147447 83.426 -129.6219
19.286197 83.447 -129.9385
19.425953 83.469 -130.2488
19.566721 83.491 -130.5542
19.708510 83.513 -130.8560
19.851326 83.535 -131.1556
19.995177 83.558 -131.4542
20.140070 83.581 -131.7525
20.286013 83.604 -132.0506
20.433014 83.627 -132.3482
20.581080 83.649 -132.6442
20.730219 83.670 -132.9374
20.880439 83.691 -133.2262
21.031747 83.712 -133.5092
21.184152 83.734 -133.7855
21.337661 83.755 -134.0551
21.492282 83.778 -134.3187
21.648024 83.801 -134.5783
21.804895 83.827 -134.8369
21.962902 83.854 -135.0982
22.122054 83.882 -135.3661
22.282360 83.912 -135.6444
22.443827 83.943 -135.9360
22.606464 83.974 -136.2427
22.770280 84.004 -136.5645
22.935283 84.032 -136.8995
23.101481 84.058 -137.2444
23.268884 84.081 -137.5942
23.437500 84.101 -137.9435
23.607338 84.119 -138.2867
23.778406 84.135 -138.6188
23.950714 84.149 -138.9367
24.124271 84.163 -139.2389
24.299086 84.178 -139.5264
24.475167 84.194 -139.8020
24.652524 84.212 -140.0703
24.831166 84.232 -140.3367
25.011103 84.254 -140.6066
25.192344 84.277 -140.8842
25.374898 84.301 -141.1722
25.558775 84.324 -141.4709
25.743984 84.347 -141.7787
25.930536 84.368 -142.0920
26.118439 84.387 -142.4064
26.307704 84.405 -142.7170
26.498341 84.421 -143.0199
26.690359 84.436 -143.3125
26.883768 84.452 -143.5943
27.078579 84.468 -143.8663
27.274801 84.486 -144.1314
27.472446 84.505 -144.3931
27.671522 84.525 -144.6551
27.872042 84.545 -144.9201
28.074014 84.566 -145.1896
28.277450 84.587 -145.4634
28.482360 84.607 -145.7397
28.688755 84.627 -146.0157
28.896645 84.645 -146.2885
29.106042 84.663 -146.5554
29.316957 84.680 -146.8147
29.529400 84.698 -147.0661
29.743382 84.716 -147.3106
29.958915 84.735 -147.5503
30.176009 84.755 -147.7879
30.394677 84.776 -148.0260
30.614929 84.798 -148.2669
30.836778 84.820 -148.5116
31.060234 84.842 -148.7605
31.285309 84.863 -149.0127
31.512015 84.884 -149.2672
31.740364 84.904 -149.5223
31.970368 84.924 -149.7766
32.202039 84.943 -150.0291
32.435388 84.962 -150.2790
32.670428 84.980 -150.5260
32.907171 84.998 -150.7700
33.145630 85.016 -151.0110
33.385817 85.034 -151.2494
33.627745 85.052 -151.4853
33.871425 85.071 -151.7194
34.116871 85.090 -151.9523
34.364096 85.109 -152.1850
34.613113 85.129 -152.4190
34.863934 85.150 -152.6554
35.116572 85.170 -152.8954
35.371041 85.191 -153.1398
35.627354 85.212 -153.3885
35.885525 85.232 -153.6408
36.145566 85.251 -153.8952
36.407492 85.270 -154.1498
36.671316 85.289 -154.4029
36.937051 85.307 -154.6530
37.204712 85.325 -154.8995
37.474313 85.344 -155.1427
37.745867 85.363 -155.3837
38.019389 85.383 -155.6241
38.294893 85.403 -155.8652
38.572394 85.423 -156.1076
38.851905 85.444 -156.3510
39.133442 85.464 -156.5943
39.417019 85.484 -156.8359
39.702651 85.505 -157.0746
39.990353 85.526 -157.3100
40.280140 85.547 -157.5432
40.572026 85.570 -157.7763
40.866028 85.593 -158.0117
41.162160 85.617 -158.2516
41.460438 85.641 -158.4966
41.760877 85.665 -158.7466
42.063494 85.689 -159.0004
42.368303 85.713 -159.2572
42.675322 85.736 -159.5168
42.984565 85.759 -159.7806
43.296048 85.782 -160.0497
43.609789 85.804 -160.3245
43.925804 85.825 -160.6029
44.244108 85.843 -160.8801
44.564719 85.860 -161.1501
44.887654 85.876 -161.4074
45.212928 85.892 -161.6500
45.540560 85.910 -161.8805
45.870565 85.930 -162.1055
46.202962 85.953 -162.3340
46.537768 85.978 -162.5737
46.875000 86.003 -162.8286
47.214676 86.029 -163.0982
47.556813 86.053 -163.3786
47.901429 86.075 -163.6647
48.248542 86.097 -163.9522
48.598171 86.117 -164.2389
48.950334 86.137 -164.5245
49.305048 86.157 -164.8098
49.662333 86.177 -165.0956
50.022206 86.196 -165.3823
50.384688 86.214 -165.6702
50.749796 86.232 -165.9592
51.117550 86.250 -166.2491
51.487969 86.267 -166.5402
51.861072 86.284 -166.8323
52.236879 86.300 -167.1258
52.615409 86.317 -167.4212
52.996681 86.333 -167.7195
53.380717 86.349 -168.0221
53.767536 86.366 -168.3303
54.157158 86.382 -168.6449
54.549603 86.398 -168.9663
54.944892 86.414 -169.2940
55.343045 86.429 -169.6275
55.744084 86.444 -169.9655
56.148028 86.459 -170.3070
56.554900 86.473 -170.6506
56.964720 86.487 -170.9953
57.377510 86.501 -171.3409
57.793291 86.515 -171.6884
58.212085 86.530 -172.0384
58.633914 86.543 -172.3913
59.058799 86.556 -172.7463
59.486764 86.568 -173.1015
59.917829 86.579 -173.4555
60.352019 86.589 -173.8080
60.789354 86.598 -174.1599
61.229859 86.606 -174.5125
61.673556 86.614 -174.8679
62.120468 86.619 -175.2279
62.570618 86.624 -175.5947
63.024031 86.627 -175.9696
63.480729 86.628 -176.3527
63.940736 86.627 -176.7433
64.404077 86.624 -177.1409
64.870776 86.620 -177.5452
65.340856 86.613 -177.9530
65.814343 86.604 -178.3574
66.291261 86.594 -178.7488
66.771635 86.585 -179.1229
67.255489 86.580 -179.4864
67.742850 86.580 -179.8557
68.233743 86.583 179.7525
68.728193 86.588 179.3316
69.226226 86.591 178.8873
69.727867 86.592 178.4320
70.233144 86.590 177.9777
70.742083 86.586 177.5315
71.254709 86.580 177.0966
71.771050 86.574 176.6731
72.291132 86.568 176.2582
72.814984 86.561 175.8470
73.342631 86.554 175.4351
73.874102 86.546 175.0203
74.409424 86.537 174.6024
74.948626 86.526 174.1818
75.491734 86.513 173.7596
76.038779 86.500 173.3369
76.589787 86.484 172.9144
77.144788 86.468 172.4922
77.703811 86.451 172.0694
78.266885 86.434 171.6451
78.834039 86.415 171.2190
79.405303 86.396 170.7919
79.980706 86.376 170.3652
80.560280 86.354 169.9410
81.144053 86.331 169.5213
81.732056 86.308 169.1074
82.324320 86.284 168.6985
82.920876 86.260 168.2927
83.521755 86.235 167.8880
84.126988 86.210 167.4835
84.736607 86.184 167.0792
85.350643 86.157 166.6757
85.969129 86.129 166.2728
86.592097 86.101 165.8695
87.219579 86.073 165.4646
87.851608 86.043 165.0570
88.488217 86.013 164.6462
89.129439 85.980 164.2338
89.775308 85.946 163.8226
90.425856 85.911 163.4163
91.081119 85.874 163.0172
91.741131 85.836 162.6256
92.405925 85.797 162.2413
93.075536 85.758 161.8637
93.750000 85.719 161.4916
94.429351 85.679 161.1234
95.113625 85.638 160.7583
95.802858 85.596 160.3974
96.497085 85.553 160.0423
97.196342 85.509 159.6932
97.900667 85.464 159.3487
98.610096 85.420 159.0065
99.324665 85.374 158.6646
100.044413 85.329 158.3216
100.769376 85.282 157.9780
101.499592 85.235 157.6357
102.235100 85.187 157.2972
102.975938 85.138 156.9644
103.722144 85.088 156.6379
104.473757 85.037 156.3175
105.230817 84.986 156.0025
105.993363 84.935 155.6917
106.761435 84.882 155.3837
107.535072 84.829 155.0769
108.314315 84.775 154.7701
109.099206 84.720 154.4630
109.889783 84.664 154.1564
110.686090 84.608 153.8516
111.488167 84.551 153.5504
112.296056 84.495 153.2552
113.109800 84.438 152.9680
113.929440 84.382 152.6897
114.755020 84.326 152.4207
115.586582 84.269 152.1611
116.424170 84.212 151.9102
117.267827 84.155 151.6666
118.117598 84.097 151.4279
118.973527 84.038 151.1908
119.835658 83.979 150.9529
120.704037 83.917 150.7147
121.578708 83.853 150.4803
122.459718 83.788 150.2538
123.347111 83.722 150.0372
124.240935 83.654 149.8301
125.141236 83.587 149.6308
126.048061 83.519 149.4368
126.961458 83.451 149.2459
127.881473 83.384 149.0568
128.808154 83.317 148.8685
129.741551 83.251 148.6807
130.681712 83.186 148.4938
131.628686 83.121 148.3104
132.582521 83.056 148.1359
133.543269 82.990 147.9772
134.510979 82.924 147.8383
135.485701 82.857 147.7156
136.467486 82.790 147.6017
137.456386 82.723 147.4910
138.452451 82.653 147.3810
139.455735 82.583 147.2704
140.466288 82.511 147.1595
141.484165 82.438 147.0507
142.509418 82.364 146.9476
143.542100 82.291 146.8536
144.582265 82.219 146.7703
145.629968 82.147 146.6968
146.685262 82.076 146.6305
147.748204 82.006 146.5690
148.818849 81.935 146.5113
149.897251 81.865 146.4572
150.983469 81.793 146.4075
152.077557 81.722 146.3638
153.179574 81.650 146.3279
154.289576 81.578 146.3005
155.407622 81.506 146.2814
156.533770 81.433 146.2697
157.668078 81.360 146.2645
158.810606 81.287 146.2645
159.961413 81.214 146.2690
161.120559 81.141 146.2792
162.288105 81.068 146.2974
163.464112 80.995 146.3259
164.648640 80.923 146.3655
165.841752 80.851 146.4156
167.043510 80.780 146.4747
168.253976 80.709 146.5411
169.473213 80.638 146.6127
170.701286 80.568 146.6882
171.938258 80.498 146.7676
173.184194 80.428 146.8522
174.439158 80.359 146.9435
175.703216 80.290 147.0424
176.976434 80.220 147.1493
178.258878 80.151 147.2635
179.550615 80.082 147.3832
180.851713 80.014 147.5062
182.162239 79.946 147.6309
183.482262 79.879 147.7582
184.811850 79.812 147.8906
186.151073 79.746 148.0309
187.500000 79.680 148.1809
188.858702 79.615 148.3407
190.227250 79.551 148.5079
191.605715 79.488 148.6797
192.994169 79.427 148.8542
194.392685 79.367 149.0325
195.801334 79.309 149.2188
197.220191 79.250 149.4188
198.649330 79.190 149.6370
200.088825 79.129 149.8706
201.538751 79.067 150.1073
202.999184 79.005 150.3322
204.470200 78.941 150.5391
205.951875 78.878 150.7343
207.444287 78.815 150.9290
208.947514 78.755 151.1326
210.461634 78.696 151.3492
211.986726 78.638 151.5783
213.522869 78.582 151.8170
215.070144 78.526 152.0621
216.628631 78.471 152.3121
218.198411 78.416 152.5666
219.779567 78.362 152.8249
221.372180 78.308 153.0863
222.976334 78.255 153.3499
224.592112 78.202 153.6158
226.219600 78.150 153.8853
227.858880 78.098 154.1597
229.510039 78.049 154.4397
231.173164 78.000 154.7253
232.848340 77.953 155.0165
234.535655 77.905 155.3121
236.235197 77.858 155.6097
237.947054 77.810 155.9055
239.671317 77.763 156.1956
241.408074 77.718 156.4790
243.157416 77.673 156.7586
244.919435 77.630 157.0390
246.694223 77.587 157.3235
248.481871 77.545 157.6132
250.282473 77.503 157.9072
252.096123 77.463 158.2057
253.922915 77.424 158.5095
255.762945 77.387 158.8187
257.616309 77.351 159.1319
259.483103 77.317 159.4457
261.363424 77.284 159.7574
263.257372 77.252 160.0671
265.165043 77.220 160.3767
267.086538 77.186 160.6882
269.021957 77.150 161.0048
270.971401 77.113 161.3292
272.934972 77.075 161.6602
274.912771 77.037 161.9950
276.904902 77.001 162.3314
278.911469 76.967 162.6668
280.932577 76.935 162.9976
282.968330 76.906 163.3200
285.018835 76.878 163.6339
287.084199 76.849 163.9428
289.164530 76.818 164.2527
291.259935 76.787 164.5699
293.370525 76.755 164.8978
295.496408 76.725 165.2343
297.637697 76.697 165.5742
299.794503 76.670 165.9139
301.966937 76.645 166.2556
304.155114 76.621 166.6035
306.359147 76.599 166.9586
308.579152 76.577 167.3172
310.815244 76.555 167.6740
313.067539 76.533 168.0254
315.336156 76.508 168.3702
317.621211 76.483 168.7082
319.922826 76.458 169.0398
322.241118 76.434 169.3659
324.576210 76.410 169.6869
326.928223 76.386 170.0036
329.297280 76.363 170.3187
331.683504 76.341 170.6364
334.087019 76.319 170.9608
336.507952 76.299 171.2935
338.946427 76.279 171.6323
341.402572 76.261 171.9747
343.876516 76.244 172.3198
346.368387 76.228 172.6671
348.878315 76.211 173.0148
351.406431 76.193 173.3613
353.952867 76.174 173.7067
356.517756 76.155 174.0567
359.101230 76.135 174.4219
361.703426 76.115 174.8113
364.324478 76.095 175.2253
366.964523 76.077 175.6572
369.623699 76.060 176.0994
372.302145 76.046 176.5460
375.000000 76.033 176.9919
377.717405 76.023 177.4326
380.454501 76.017 177.8636
383.211431 76.013 178.2800
385.988339 76.014 178.6777
388.785369 76.018 179.0539
391.602668 76.024 179.4067
394.440383 76.033 179.7381
397.298660 76.042 -179.9451
400.177650 76.050 -179.6344
403.077502 76.056 -179.3247
405.998368 76.058 -179.0177
408.940400 76.058 -178.7177
411.903750 76.055 -178.4247
414.888575 76.050 -178.1338
417.895028 76.042 -177.8387
420.923268 76.033 -177.5356
423.973452 76.023 -177.2239
427.045738 76.014 -176.9055
430.140287 76.005 -176.5830
433.257261 75.997 -176.2577
436.396822 75.990 -175.9290
439.559133 75.984 -175.5966
442.744360 75.979 -175.2609
445.952668 75.975 -174.9225
449.184225 75.971 -174.5819
452.439199 75.969 -174.2401
455.717760 75.967 -173.8978
459.020079 75.965 -173.5558
462.346327 75.964 -173.2146
465.696680 75.962 -172.8748
469.071310 75.960 -172.5354
472.470394 75.958 -172.1945
475.894109 75.957 -171.8499
479.342634 75.957 -171.5006
482.816148 75.958 -171.1479
486.314833 75.960 -170.7942
489.838871 75.962 -170.4406
493.388445 75.964 -170.0846
496.963741 75.965 -169.7219
500.564945 75.965 -169.3506
504.192245 75.965 -168.9725
507.845830 75.966 -168.5905
511.525890 75.968 -168.2073
515.232618 75.972 -167.8266
518.966206 75.976 -167.4507
522.726849 75.981 -167.0790
526.514743 75.987 -166.7092
530.330086 75.992 -166.3385
534.173076 75.998 -165.9665
538.043915 76.003 -165.5946
541.942803 76.010 -165.2233
545.869944 76.018 -164.8502
549.825542 76.028 -164.4730
553.809805 76.039 -164.0914
557.822939 76.051 -163.7070
561.865154 76.064 -163.3216
565.936660 76.076 -162.9360
570.037671 76.089 -162.5519
574.168399 76.101 -162.1707
578.329060 76.113 -161.7922
582.519870 76.124 -161.4148
586.741049 76.135 -161.0370
590.992817 76.146 -160.6584
595.275394 76.158 -160.2788
599.589005 76.171 -159.8975
603.933874 76.185 -159.5128
608.310228 76.200 -159.1227
612.718295 76.216 -158.7264
617.158304 76.233 -158.3252
621.630488 76.252 -157.9221
626.135079 76.271 -157.5215
630.672311 76.292 -157.1271
635.242423 76.314 -156.7425
639.845651 76.336 -156.3703
644.482237 76.357 -156.0116
649.152421 76.377 -155.6652
653.856447 76.395 -155.3252
658.594560 76.409 -154.9818
663.367008 76.420 -154.6208
668.174039 76.428 -154.2257
673.015903 76.435 -153.7818
677.892854 76.443 -153.2848
682.805145 76.455 -152.7425
687.753032 76.471 -152.1682
692.736774 76.492 -151.5738
697.756631 76.518 -150.9669
702.812863 76.549 -150.3526
707.905735 76.585 -149.7354
713.035511 76.625 -149.1212
718.202461 76.669 -148.5165
723.406852 76.717 -147.9268
728.648956 76.767 -147.3549
733.929047 76.820 -146.7994
739.247399 76.874 -146.2560
744.604290 76.928 -145.7204
750.000000 76.983 -145.1904
755.434809 77.038 -144.6649
760.909001 77.093 -144.1428
766.422861 77.149 -143.6234
771.976677 77.206 -143.1068
777.570739 77.264 -142.5934
783.205337 77.323 -142.0833
788.880766 77.384 -141.5755
794.597321 77.446 -141.0689
800.355301 77.510 -140.5623
806.155005 77.577 -140.0557
811.996736 77.645 -139.5506
817.880799 77.715 -139.0492
823.807501 77.788 -138.5533
829.777150 77.863 -138.0636
835.790057 77.941 -137.5803
841.846536 78.021 -137.1039
847.946903 78.103 -136.6354
854.091476 78.187 -136.1760
860.280575 78.274 -135.7273
866.514523 78.363 -135.2904
872.793644 78.454 -134.8656
879.118267 78.548 -134.4531
885.488720 78.643 -134.0540
891.905336 78.741 -133.6704
898.368450 78.841 -133.3047
904.878398 78.943 -132.9590
911.435520 79.048 -132.6348
918.040157 79.154 -132.3332
924.692655 79.261 -132.0546
931.393359 79.369 -131.7995
938.142619 79.479 -131.5686
944.940787 79.589 -131.3635
951.788218 79.700 -131.1854
958.685268 79.811 -131.0355
965.632296 79.922 -130.9140
972.629666 80.033 -130.8211
979.677741 80.143 -130.7566
986.776890 80.252 -130.7203
993.927482 80.360 -130.7119
1001.129891 80.467 -130.7310
1008.384491 80.571 -130.7773
1015.691660 80.674 -130.8502
1023.051781 80.774 -130.9487
1030.465236 80.871 -131.0723
1037.932411 80.965 -131.2199
1045.453698 81.056 -131.3903
1053.029486 81.143 -131.5814
1060.660172 81.226 -131.7907
1068.346153 81.305 -132.0153
1076.087829 81.380 -132.2527
1083.885605 81.450 -132.5005
1091.739887 81.516 -132.7566
1099.651084 81.577 -133.0186
1107.619609 81.634 -133.2837
1115.645878 81.687 -133.5494
1123.730308 81.735 -133.8133
1131.873321 81.779 -134.0732
1140.075341 81.820 -134.3272
1148.336797 81.857 -134.5734
1156.658119 81.890 -134.8108
1165.039741 81.920 -135.0381
1173.482099 81.946 -135.2550
1181.985634 81.970 -135.4610
1190.550789 81.991 -135.6571
1199.178011 82.010 -135.8446
1207.867749 82.027 -136.0259
1216.620457 82.042 -136.2032
1225.436590 82.054 -136.3783
1234.316609 82.064 -136.5522
1243.260976 82.072 -136.7249
1252.270157 82.078 -136.8962
1261.344623 82.083 -137.0647
1270.484846 82.087 -137.2287
1279.691303 82.090 -137.3857
1288.964474 82.093 -137.5337
1298.304842 82.095 -137.6712
1307.712894 82.097 -137.7971
1317.189120 82.098 -137.9109
1326.734016 82.100 -138.0127
1336.348077 82.101 -138.1031
1346.031806 82.102 -138.1829
1355.785708 82.103 -138.2526
1365.610290 82.103 -138.3125
1375.506065 82.104 -138.3628
1385.473549 82.105 -138.4037
1395.513261 82.105 -138.4355
1405.625726 82.106 -138.4586
1415.811469 82.107 -138.4734
1426.071023 82.108 -138.4804
1436.404921 82.110 -138.4798
1446.813703 82.112 -138.4717
1457.297912 82.114 -138.4561
1467.858093 82.116 -138.4330
1478.494798 82.119 -138.4022
1489.208581 82.123 -138.3637
1500.000000 82.127 -138.3176
1510.869618 82.131 -138.2639
1521.818002 82.136 -138.2032
1532.845723 82.141 -138.1358
1543.953355 82.147 -138.0621
1555.141477 82.154 -137.9822
1566.410674 82.161 -137.8960
1577.761531 82.169 -137.8036
1589.194642 82.178 -137.7052
1600.710601 82.187 -137.6008
1612.310010 82.198 -137.4909
1623.993473 82.210 -137.3758
1635.761599 82.223 -137.2558
1647.615002 82.237 -137.1314
1659.554299 82.252 -137.0029
1671.580114 82.269 -136.8708
1683.693072 82.287 -136.7353
1695.893807 82.306 -136.5967
1708.182952 82.326 -136.4555
1720.561150 82.348 -136.3124
1733.029045 82.372 -136.1680
1745.587288 82.397 -136.0231
1758.236533 82.424 -135.8783
1770.977440 82.453 -135.7343
1783.810673 82.484 -135.5922
1796.736900 82.517 -135.4530
1809.756796 82.552 -135.3182
1822.871040 82.589 -135.1889
1836.080315 82.628 -135.0669
1849.385310 82.669 -134.9538
1862.786718 82.712 -134.8515
1876.285239 82.758 -134.7617
1889.881575 82.805 -134.6865
1903.576436 82.853 -134.6278
1917.370535 82.904 -134.5878
1931.264593 82.956 -134.5685
1945.259332 83.009 -134.5723
1959.355483 83.063 -134.6011
1973.553781 83.117 -134.6569
1987.854965 83.171 -134.7413
2002.259781 83.225 -134.8555
2016.768981 83.278 -135.0005
2031.383320 83.328 -135.1765
2046.103561 83.377 -135.3830
2060.930471 83.422 -135.6190
2075.864823 83.464 -135.8828
2090.907395 83.501 -136.1723
2106.058972 83.534 -136.4846
2121.320344 83.561 -136.8160
2136.692305 83.581 -137.1620
2152.175658 83.596 -137.5175
2167.771210 83.604 -137.8770
2183.479774 83.605 -138.2348
2199.302169 83.599 -138.5851
2215.239219 83.587 -138.9222
2231.291755 83.569 -139.2406
2247.460615 83.545 -139.5354
2263.746641 83.516 -139.8019
2280.150683 83.483 -140.0365
2296.673595 83.445 -140.2361
2313.316238 83.405 -140.3986
2330.079481 83.362 -140.5226
2346.964198 83.317 -140.6071
2363.971268 83.272 -140.6519
2381.101578 83.226 -140.6572
2398.356022 83.180 -140.6242
2415.735498 83.135 -140.5547
2433.240913 83.092 -140.4506
2450.873180 83.050 -140.3142
2468.633217 83.011 -140.1476
2486.521951 82.974 -139.9528
2504.540314 82.939 -139.7320
2522.689246 82.908 -139.4877
2540.969692 82.880 -139.2223
2559.382606 82.855 -138.9384
2577.928947 82.834 -138.6378
2596.609683 82.815 -138.3226
2615.425787 82.801 -137.9945
2634.378241 82.789 -137.6554
2653.468031 82.781 -137.3068
2672.696154 82.776 -136.9501
2692.063613 82.774 -136.5867
2711.571415 82.775 -136.2180
2731.220579 82.780 -135.8454
2751.012130 82.788 -135.4705
2770.947098 82.798 -135.0947
2791.026522 82.812 -134.7189
2811.251451 82.829 -134.3438
2831.622938 82.849 -133.9698
2852.142045 82.872 -133.5979
2872.809842 82.898 -133.2291
2893.627406 82.927 -132.8646
2914.595823 82.958 -132.5051
2935.716186 82.993 -132.1515
2956.989596 83.030 -131.8047
2978.417161 83.069 -131.4655
3000.000000 83.112 -131.1351
3021.739237 83.157 -130.8144
3043.636005 83.204 -130.5047
3065.691446 83.254 -130.2068
3087.906710 83.307 -129.9215
3110.282955 83.362 -129.6494
3132.821347 83.418 -129.3911
3155.523062 83.477 -129.1475
3178.389283 83.538 -128.9194
3201.421202 83.601 -128.7075
3224.620020 83.666 -128.5125
3247.986946 83.732 -128.3347
3271.523198 83.799 -128.1745
3295.230004 83.868 -128.0323
3319.108599 83.938 -127.9085
3343.160228 84.008 -127.8035
3367.386145 84.079 -127.7175
3391.787613 84.151 -127.6510
3416.365904 84.223 -127.6040
3441.122300 84.295 -127.5769
3466.058091 84.366 -127.5696
3491.174576 84.437 -127.5822
3516.473066 84.508 -127.6145
3541.954880 84.577 -127.6663
3567.621345 84.646 -127.7373
3593.473800 84.713 -127.8267
3619.513592 84.779 -127.9339
3645.742080 84.843 -128.0576
3672.160630 84.905 -128.1964
3698.770620 84.965 -128.3487
3725.573436 85.023 -128.5129
3752.570477 85.079 -128.6870
3779.763150 85.132 -128.8691
3807.152872 85.183 -129.0570
3834.741071 85.233 -129.2488
3862.529185 85.280 -129.4429
3890.518664 85.326 -129.6376
3918.710966 85.370 -129.8309
3947.107561 85.412 -130.0201
3975.709929 85.453 -130.2019
4004.519563 85.492 -130.3744
4033.537962 85.529 -130.5369
4062.766641 85.565 -130.6899
4092.207123 85.600 -130.8338
4121.860942 85.636 -130.9692
4151.729646 85.671 -131.0970
4181.814790 85.707 -131.2182
4212.117944 85.744 -131.3338
4242.640687 85.781 -131.4438
4273.384610 85.819 -131.5483
4304.351317 85.858 -131.6468
4335.542421 85.898 -131.7389
4366.959549 85.940 -131.8242
4398.604338 85.984 -131.9029
4430.478438 86.030 -131.9756
4462.583511 86.078 -132.0435
4494.921231 86.130 -132.1080
4527.493283 86.184 -132.1713
4560.301365 86.243 -132.2359
4593.347189 86.305 -132.3051
4626.632476 86.372 -132.3827
4660.158962 86.443 -132.4730
4693.928395 86.518 -132.5807
4727.942535 86.597 -132.7109
4762.203156 86.679 -132.8681
4796.712043 86.766 -133.0562
4831.470996 86.855 -133.2781
4866.481826 86.947 -133.5363
4901.746360 87.041 -133.8322
4937.266434 87.136 -134.1673
4973.043902 87.233 -134.5419
5009.080628 87.331 -134.9563
5045.378492 87.429 -135.4100
5081.939384 87.528 -135.9024
5118.765212 87.627 -136.4331
5155.857894 87.727 -137.0018
5193.219366 87.826 -137.6092
5230.851574 87.927 -138.2568
5268.756481 88.028 -138.9474
5306.936062 88.129 -139.6848
5345.392309 88.230 -140.4740
5384.127225 88.331 -141.3204
5423.142830 88.430 -142.2293
5462.441159 88.527 -143.2053
5502.024259 88.620 -144.2520
5541.894195 88.708 -145.3714
5582.053045 88.789 -146.5638
5622.502902 88.862 -147.8274
5663.245876 88.925 -149.1588
5704.284090 88.976 -150.5526
5745.619684 89.015 -152.0021
5787.254813 89.040 -153.4983
5829.191647 89.050 -155.0308
5871.432373 89.044 -156.5877
5913.979192 89.023 -158.1563
5956.834323 88.984 -159.7233
6000.000000 88.930 -161.2759
6043.478473 88.860 -162.8013
6087.272010 88.774 -164.2878
6131.382892 88.674 -165.7248
6175.813420 88.561 -167.1029
6220.565910 88.436 -168.4139
6265.642695 88.299 -169.6511
6311.046124 88.154 -170.8088
6356.778566 88.000 -171.8828
6402.842404 87.840 -172.8699
6449.240040 87.675 -173.7683
6495.973891 87.506 -174.5771
6543.046396 87.336 -175.2965
6590.460007 87.166 -175.9276
6638.217197 86.996 -176.4716
6686.320456 86.830 -176.9305
6734.772290 86.667 -177.3064
6783.575226 86.509 -177.6020
6832.731809 86.358 -177.8212
6882.244600 86.215 -177.9686
6932.116181 86.080 -178.0493
6982.349153 85.955 -178.0682
7032.946133 85.840 -178.0298
7083.909760 85.737 -177.9382
7135.242690 85.647 -177.7973
7186.947600 85.570 -177.6101
7239.027185 85.508 -177.3804
7291.484160 85.465 -177.1151
7344.321260 85.444 -176.8290
7397.541239 85.447 -176.5485
7451.146872 85.476 -176.3107
7505.140954 85.530 -176.1522
7559.526299 85.606 -176.0925
7614.305743 85.700 -176.1309
7669.482141 85.813 -176.2607
7725.058371 85.947 -176.4850
7781.037328 86.106 -176.8230
7837.421932 86.291 -177.3080
7894.215122 86.504 -177.9836
7951.419859 86.744 -178.8991
8009.039125 87.010 179.8926
8067.075924 87.295 178.3382
8125.533282 87.594 176.3869
8184.414245 87.895 173.9941
8243.721885 88.187 171.1260
8303.459292 88.455 167.7645
8363.629581 88.683 163.9117
8424.235888 88.854 159.5944
8485.281374 88.952 154.8661
8546.769221 88.962 149.8079
8608.702634 88.871 144.5255
8671.084842 88.673 139.1426
8733.919097 88.365 133.7915
8797.208675 87.948 128.6021
8860.956876 87.429 123.6925
8925.167022 86.819 119.1609
8989.842461 86.131 115.0814
9054.986566 85.379 111.5028
9120.602731 84.579 108.4494
9186.694378 83.745 105.9241
9253.264952 82.890 103.9121
9320.317925 82.027 102.3854
9387.856790 81.165 101.3074
9455.885071 80.313 100.6373
9524.406312 79.479 100.3335
9593.424086 78.665 100.3557
9662.941992 77.876 100.6653
9732.963653 77.113 101.2268
9803.492719 76.377 102.0080
9874.532869 75.668 102.9801
9946.087805 74.986 104.1178
10018.161257 74.329 105.3992
10090.756983 73.697 106.8054
10163.878768 73.088 108.3203
10237.530423 72.501 109.9308
10311.715789 71.935 111.6256
10386.438732 71.389 113.3959
10461.703149 70.860 115.2354
10537.512962 70.349 117.1393
10613.872125 69.855 119.1047
10690.784618 69.376 121.1295
10768.254450 68.913 123.2109
10846.285661 68.465 125.3464
10924.882318 68.032 127.5332
11004.048518 67.613 129.7685
11083.788390 67.208 132.0490
11164.106090 66.817 134.3708
11245.005805 66.440 136.7297
11326.491752 66.077 139.1223
11408.568180 65.727 141.5473
11491.239368 65.391 144.0046
11574.509626 65.067 146.4947
11658.383294 64.756 149.0175
11742.864745 64.458 151.5730
11827.958384 64.173 154.1602
11913.668646 63.901 156.7779
12000.000000 63.642 159.4250
12086.956947 63.396 162.0998
12174.544019 63.163 164.7997
12262.765784 62.943 167.5226
12351.626840 62.737 170.2671
12441.131819 62.546 173.0316
12531.285389 62.369 175.8141
12622.092249 62.206 178.6099
12713.557132 62.058 -178.5879
12805.684808 61.926 -175.7890
12898.480079 61.809 -173.0070
12991.947783 61.708 -170.2627
13086.092792 61.625 -167.5870
13180.920015 61.558 -165.0207
13276.434395 61.509 -162.6059
13372.640911 61.477 -160.3716
13469.544580 61.461 -158.3218
13567.150452 61.461 -156.4367
13665.463617 61.478 -154.6818
13764.489200 61.514 -153.0211
13864.232362 61.573 -151.4264
13964.698305 61.658 -149.8812
14065.892266 61.771 -148.3781
14167.819519 61.916 -146.9176
14270.485380 62.094 -145.5057
14373.895200 62.309 -144.1537
14478.054370 62.566 -142.8787
14582.968320 62.868 -141.7044
14688.642520 63.222 -140.6610
14795.082478 63.634 -139.7861
14902.293745 64.114 -139.1283
15010.281908 64.668 -138.7537
15119.052599 65.303 -138.7515
15228.611486 66.021 -139.2363
15338.964283 66.819 -140.3442
15450.116741 67.683 -142.2247
15562.074656 68.589 -145.0277
15674.843864 69.502 -148.8871
15788.430244 70.380 -153.9009
15902.839718 71.173 -160.1065
16018.078250 71.828 -167.4568
16134.151848 72.295 -175.7978
16251.066563 72.527 175.1437
16368.828491 72.495 165.7477
16487.443769 72.192 156.4496
16606.918584 71.632 147.6640
16727.259161 70.847 139.7199
16848.471777 69.882 132.8355
16970.562748 68.785 127.1227
17093.538442 67.604 122.6040
17217.405268 66.385 119.2330
17342.169684 65.167 116.9117
17467.838194 63.986 115.5093
17594.417350 62.868 114.8803
17721.913751 61.831 114.8809
17850.334044 60.887 115.3788
17979.684923 60.039 116.2561
18109.973131 59.285 117.4079
18241.205462 58.620 118.7434
18373.388756 58.036 120.1873
18506.529905 57.522 121.6785
18640.635849 57.068 123.1686
18775.713581 56.664 124.6226
18911.770141 56.299 126.0187
19048.812624 55.963 127.3466
19186.848172 55.648 128.6040
19325.883983 55.348 129.7906
19465.927305 55.065 130.9021
19606.985439 54.804 131.9199
19749.065738 54.582 132.7990
19892.175609 54.418 133.4659
20036.322514 54.331 133.8323
