* Measurement data measured by REW V5.31.3
* Source: Headset (CX31993 HIFI AUDIO), MICROPHONE (Master Volume), R, volume: 0.400
* Format: 256k Log Swept Sine, 1 sweep at -11.9 dBFS with no timing reference
* Dated: 06 25, 25 12:02:24 PM
* REW Settings:
*  C-weighting compensation: Off
*  Target level: 75.0 dB
* Note: 
* Measurement: Xiaomi Buds 6 Play vol R
* Smoothing: 1/12 octave
* Frequency Step: 96 ppo
* Start Frequency: 0.36621094 Hz
*
* Freq(Hz) SPL(dB) Phase(degrees)
0.366211 30.919 -102.9110
0.368865 30.896 -102.9063
0.371538 30.862 -102.9003
0.374230 30.820 -102.8946
0.376942 30.771 -102.8907
0.379673 30.720 -102.8897
0.382424 30.666 -102.8922
0.385196 30.610 -102.8988
0.387987 30.554 -102.9097
0.390798 30.497 -102.9250
0.393630 30.439 -102.9448
0.396483 30.380 -102.9691
0.399356 30.322 -102.9980
0.402250 30.262 -103.0314
0.405165 30.203 -103.0692
0.408101 30.143 -103.1116
0.411058 30.082 -103.1584
0.414037 30.021 -103.2096
0.417037 29.960 -103.2651
0.420059 29.898 -103.3249
0.423103 29.836 -103.3890
0.426169 29.773 -103.4572
0.429257 29.710 -103.5295
0.432368 29.646 -103.6059
0.435501 29.582 -103.6861
0.438656 29.517 -103.7703
0.441835 29.452 -103.8581
0.445037 29.387 -103.9496
0.448262 29.321 -104.0446
0.451510 29.254 -104.1430
0.454782 29.187 -104.2447
0.458077 29.120 -104.3495
0.461397 29.052 -104.4573
0.464740 28.983 -104.5679
0.468108 28.914 -104.6812
0.471500 28.845 -104.7971
0.474917 28.775 -104.9152
0.478358 28.705 -105.0354
0.481825 28.634 -105.1576
0.485316 28.562 -105.2815
0.488833 28.490 -105.4069
0.492375 28.418 -105.5336
0.495943 28.345 -105.6612
0.499537 28.271 -105.7896
0.503157 28.197 -105.9185
0.506803 28.122 -106.0476
0.510475 28.047 -106.1765
0.514175 27.971 -106.3050
0.517900 27.895 -106.4327
0.521653 27.818 -106.5593
0.525434 27.741 -106.6844
0.529241 27.663 -106.8076
0.533076 27.585 -106.9285
0.536939 27.506 -107.0465
0.540830 27.426 -107.1614
0.544749 27.346 -107.2724
0.548696 27.265 -107.3792
0.552673 27.184 -107.4811
0.556677 27.102 -107.5776
0.560711 27.019 -107.6679
0.564774 26.936 -107.7514
0.568867 26.852 -107.8273
0.572989 26.768 -107.8949
0.577141 26.683 -107.9531
0.581324 26.597 -108.0011
0.585536 26.511 -108.0378
0.589779 26.424 -108.0621
0.594053 26.337 -108.0727
0.598358 26.249 -108.0684
0.602694 26.160 -108.0475
0.607061 26.071 -108.0084
0.611460 25.981 -107.9493
0.615891 25.890 -107.8682
0.620354 25.799 -107.7627
0.624849 25.707 -107.6303
0.629377 25.614 -107.4681
0.633938 25.521 -107.2728
0.638532 25.427 -107.0407
0.643159 25.332 -106.7676
0.647819 25.237 -106.4486
0.652514 25.141 -106.0780
0.657242 25.044 -105.6495
0.662005 24.946 -105.1555
0.666802 24.848 -104.5871
0.671634 24.749 -103.9339
0.676501 24.650 -103.1836
0.681403 24.550 -102.3217
0.686341 24.449 -101.3307
0.691314 24.348 -100.1898
0.696324 24.248 -98.8738
0.701370 24.148 -97.3528
0.706452 24.050 -95.5908
0.711571 23.957 -93.5451
0.716728 23.873 -91.1660
0.721921 23.803 -88.3963
0.727153 23.755 -85.1731
0.732422 23.736 -81.4292
0.737729 23.751 -77.0967
0.743075 23.800 -72.1114
0.748460 23.879 -66.4221
0.753883 23.981 -60.0095
0.759346 24.104 -52.9127
0.764849 24.243 -45.2543
0.770391 24.397 -37.2502
0.775974 24.565 -29.1861
0.781597 24.746 -21.3619
0.787261 24.940 -14.0295
0.792966 25.145 -7.3521
0.798712 25.362 -1.3995
0.804500 25.591 3.8322
0.810329 25.832 8.3924
0.816201 26.083 12.3521
0.822116 26.346 15.7879
0.828073 26.620 18.7727
0.834074 26.904 21.3719
0.840118 27.198 23.6419
0.846206 27.503 25.6307
0.852338 27.817 27.3784
0.858514 28.141 28.9184
0.864735 28.473 30.2788
0.871001 28.815 31.4828
0.877313 29.164 32.5499
0.883670 29.522 33.4964
0.890074 29.888 34.3362
0.896524 30.260 35.0810
0.903020 30.639 35.7406
0.909564 31.024 36.3236
0.916155 31.415 36.8373
0.922794 31.812 37.2881
0.929481 32.212 37.6812
0.936216 32.617 38.0216
0.943000 33.026 38.3134
0.949834 33.437 38.5602
0.956717 33.850 38.7654
0.963649 34.265 38.9316
0.970632 34.681 39.0615
0.977666 35.097 39.1574
0.984750 35.512 39.2212
0.991886 35.926 39.2549
0.999074 36.337 39.2600
1.006314 36.746 39.2382
1.013606 37.150 39.1907
1.020951 37.550 39.1188
1.028349 37.944 39.0237
1.035801 38.332 38.9065
1.043307 38.712 38.7683
1.050867 39.084 38.6103
1.058482 39.446 38.4337
1.066152 39.799 38.2398
1.073878 40.141 38.0306
1.081660 40.474 37.8084
1.089498 40.796 37.5763
1.097393 41.110 37.3379
1.105345 41.416 37.0975
1.113355 41.716 36.8587
1.121423 42.011 36.6245
1.129549 42.301 36.3964
1.137734 42.589 36.1749
1.145979 42.872 35.9601
1.154283 43.153 35.7512
1.162647 43.431 35.5476
1.171072 43.707 35.3483
1.179558 43.979 35.1525
1.188106 44.249 34.9591
1.196715 44.517 34.7674
1.205387 44.782 34.5765
1.214122 45.044 34.3856
1.222920 45.304 34.1941
1.231782 45.562 34.0013
1.240708 45.817 33.8065
1.249699 46.070 33.6091
1.258754 46.321 33.4087
1.267876 46.570 33.2045
1.277063 46.817 32.9962
1.286318 47.063 32.7833
1.295639 47.306 32.5653
1.305027 47.548 32.3419
1.314484 47.788 32.1125
1.324009 48.027 31.8769
1.333604 48.265 31.6346
1.343268 48.501 31.3852
1.353002 48.737 31.1286
1.362806 48.972 30.8643
1.372681 49.206 30.5920
1.382628 49.439 30.3114
1.392647 49.672 30.0224
1.402739 49.905 29.7246
1.412904 50.138 29.4182
1.423142 50.371 29.1031
1.433455 50.603 28.7797
1.443843 50.835 28.4488
1.454305 51.067 28.1115
1.464844 51.298 27.7694
1.475459 51.527 27.4246
1.486150 51.754 27.0789
1.496920 51.979 26.7338
1.507767 52.201 26.3900
1.518693 52.421 26.0479
1.529698 52.637 25.7077
1.540783 52.851 25.3689
1.551948 53.062 25.0314
1.563194 53.270 24.6946
1.574521 53.476 24.3581
1.585931 53.679 24.0214
1.597423 53.880 23.6841
1.608999 54.078 23.3455
1.620658 54.275 23.0054
1.632402 54.469 22.6631
1.644232 54.662 22.3183
1.656146 54.853 21.9705
1.668147 55.043 21.6192
1.680235 55.231 21.2642
1.692411 55.418 20.9048
1.704675 55.604 20.5408
1.717028 55.790 20.1717
1.729470 55.975 19.7972
1.742003 56.160 19.4169
1.754626 56.345 19.0305
1.767341 56.529 18.6376
1.780147 56.714 18.2383
1.793047 56.900 17.8323
1.806040 57.085 17.4199
1.819128 57.271 17.0015
1.832310 57.457 16.5779
1.845587 57.642 16.1500
1.858961 57.826 15.7187
1.872432 58.009 15.2851
1.886001 58.190 14.8496
1.899667 58.370 14.4129
1.913433 58.548 13.9751
1.927299 58.725 13.5364
1.941265 58.901 13.0970
1.955332 59.074 12.6569
1.969501 59.247 12.2159
1.983773 59.418 11.7742
1.998148 59.588 11.3315
2.012627 59.757 10.8878
2.027212 59.924 10.4430
2.041902 60.091 9.9968
2.056698 60.257 9.5492
2.071602 60.422 9.0998
2.086614 60.586 8.6486
2.101734 60.750 8.1952
2.116964 60.914 7.7394
2.132304 61.077 7.2810
2.147756 61.239 6.8197
2.163320 61.401 6.3554
2.178996 61.563 5.8878
2.194786 61.725 5.4170
2.210690 61.885 4.9429
2.226710 62.045 4.4658
2.242845 62.203 3.9858
2.259098 62.361 3.5034
2.275468 62.517 3.0189
2.291957 62.671 2.5325
2.308566 62.825 2.0447
2.325295 62.977 1.5556
2.342145 63.128 1.0655
2.359117 63.278 0.5747
2.376212 63.427 0.0833
2.393431 63.575 -0.4085
2.410775 63.722 -0.9007
2.428244 63.869 -1.3930
2.445840 64.014 -1.8856
2.463564 64.159 -2.3783
2.481416 64.304 -2.8712
2.499397 64.447 -3.3645
2.517509 64.591 -3.8584
2.535752 64.733 -4.3530
2.554127 64.875 -4.8488
2.572635 65.016 -5.3463
2.591277 65.157 -5.8456
2.610055 65.296 -6.3471
2.628968 65.434 -6.8506
2.648019 65.571 -7.3561
2.667208 65.707 -7.8633
2.686535 65.842 -8.3717
2.706003 65.975 -8.8809
2.725612 66.108 -9.3906
2.745363 66.240 -9.9004
2.765257 66.371 -10.4097
2.785295 66.501 -10.9184
2.805478 66.630 -11.4262
2.825808 66.758 -11.9326
2.846285 66.886 -12.4377
2.866910 67.013 -12.9413
2.887685 67.140 -13.4436
2.908611 67.266 -13.9447
2.929688 67.392 -14.4452
2.950917 67.516 -14.9456
2.972301 67.640 -15.4462
2.993839 67.763 -15.9475
3.015534 67.884 -16.4494
3.037386 68.005 -16.9519
3.059396 68.125 -17.4545
3.081565 68.244 -17.9571
3.103896 68.361 -18.4591
3.126388 68.478 -18.9601
3.149043 68.595 -19.4598
3.171862 68.710 -19.9578
3.194847 68.825 -20.4537
3.217998 68.940 -20.9473
3.241317 69.054 -21.4385
3.264805 69.168 -21.9273
3.288463 69.281 -22.4141
3.312293 69.393 -22.8992
3.336295 69.504 -23.3831
3.360471 69.615 -23.8660
3.384822 69.725 -24.3482
3.409350 69.834 -24.8297
3.434056 69.943 -25.3103
3.458940 70.051 -25.7899
3.484005 70.158 -26.2680
3.509252 70.264 -26.7445
3.534681 70.370 -27.2190
3.560295 70.476 -27.6914
3.586094 70.581 -28.1613
3.612081 70.685 -28.6286
3.638255 70.790 -29.0935
3.664620 70.894 -29.5560
3.691175 70.997 -30.0163
3.717923 71.101 -30.4749
3.744864 71.203 -30.9318
3.772001 71.305 -31.3873
3.799335 71.406 -31.8413
3.826866 71.507 -32.2939
3.854597 71.608 -32.7450
3.882529 71.708 -33.1946
3.910664 71.808 -33.6425
3.939002 71.907 -34.0887
3.967546 72.007 -34.5332
3.996296 72.106 -34.9758
4.025255 72.205 -35.4168
4.054423 72.303 -35.8562
4.083804 72.401 -36.2941
4.113396 72.499 -36.7306
4.143204 72.597 -37.1660
4.173227 72.694 -37.6003
4.203468 72.791 -38.0336
4.233928 72.888 -38.4659
4.264609 72.984 -38.8974
4.295512 73.081 -39.3282
4.326639 73.177 -39.7582
4.357992 73.273 -40.1875
4.389572 73.368 -40.6163
4.421380 73.464 -41.0446
4.453419 73.559 -41.4724
4.485691 73.654 -41.8999
4.518196 73.749 -42.3271
4.550936 73.843 -42.7540
4.583914 73.938 -43.1807
4.617131 74.031 -43.6072
4.650589 74.125 -44.0338
4.684289 74.219 -44.4604
4.718233 74.312 -44.8871
4.752424 74.405 -45.3140
4.786862 74.497 -45.7413
4.821549 74.590 -46.1690
4.856488 74.682 -46.5970
4.891680 74.774 -47.0255
4.927127 74.865 -47.4543
4.962831 74.956 -47.8833
4.998794 75.047 -48.3127
5.035017 75.137 -48.7422
5.071503 75.227 -49.1720
5.108253 75.317 -49.6021
5.145270 75.407 -50.0325
5.182555 75.495 -50.4635
5.220110 75.584 -50.8949
5.257937 75.672 -51.3268
5.296038 75.760 -51.7591
5.334415 75.847 -52.1915
5.373071 75.934 -52.6239
5.412006 76.020 -53.0563
5.451224 76.107 -53.4885
5.490725 76.192 -53.9207
5.530514 76.277 -54.3527
5.570590 76.362 -54.7849
5.610957 76.447 -55.2170
5.651616 76.531 -55.6490
5.692570 76.614 -56.0809
5.733821 76.697 -56.5125
5.775370 76.780 -56.9437
5.817221 76.862 -57.3743
5.859375 76.944 -57.8044
5.901834 77.026 -58.2339
5.944602 77.107 -58.6631
5.987679 77.187 -59.0919
6.031068 77.268 -59.5202
6.074771 77.348 -59.9482
6.118792 77.428 -60.3756
6.163131 77.507 -60.8026
6.207792 77.586 -61.2290
6.252776 77.665 -61.6549
6.298086 77.743 -62.0804
6.343725 77.821 -62.5055
6.389694 77.899 -62.9303
6.435996 77.977 -63.3549
6.482634 78.054 -63.7793
6.529610 78.131 -64.2035
6.576926 78.207 -64.6276
6.624585 78.284 -65.0516
6.672590 78.360 -65.4756
6.720942 78.436 -65.8997
6.769645 78.511 -66.3239
6.818700 78.586 -66.7483
6.868111 78.661 -67.1728
6.917881 78.736 -67.5975
6.968010 78.810 -68.0226
7.018504 78.884 -68.4479
7.069362 78.957 -68.8737
7.120590 79.031 -69.2997
7.172189 79.103 -69.7260
7.224161 79.176 -70.1526
7.276511 79.248 -70.5794
7.329239 79.320 -71.0064
7.382350 79.391 -71.4335
7.435845 79.462 -71.8609
7.489729 79.532 -72.2884
7.544002 79.602 -72.7158
7.598669 79.672 -73.1432
7.653732 79.741 -73.5702
7.709194 79.810 -73.9970
7.765058 79.878 -74.4235
7.821327 79.946 -74.8496
7.878004 80.013 -75.2753
7.935091 80.080 -75.7004
7.992592 80.147 -76.1249
8.050510 80.213 -76.5487
8.108847 80.279 -76.9718
8.167607 80.345 -77.3942
8.226793 80.410 -77.8159
8.286408 80.475 -78.2370
8.346454 80.540 -78.6573
8.406936 80.604 -79.0771
8.467856 80.668 -79.4962
8.529218 80.732 -79.9149
8.591024 80.796 -80.3331
8.653278 80.859 -80.7510
8.715983 80.922 -81.1687
8.779143 80.985 -81.5864
8.842760 81.047 -82.0040
8.906839 81.110 -82.4218
8.971381 81.172 -82.8397
9.036392 81.234 -83.2579
9.101873 81.295 -83.6764
9.167829 81.356 -84.0954
9.234263 81.417 -84.5148
9.301178 81.477 -84.9347
9.368578 81.537 -85.3550
9.436467 81.597 -85.7756
9.504847 81.656 -86.1964
9.573723 81.715 -86.6174
9.643099 81.773 -87.0385
9.712976 81.831 -87.4594
9.783361 81.888 -87.8801
9.854255 81.945 -88.3001
9.925663 82.001 -88.7194
9.997588 82.057 -89.1378
10.070035 82.113 -89.5551
10.143007 82.167 -89.9711
10.216507 82.222 -90.3856
10.290540 82.276 -90.7985
10.365109 82.330 -91.2096
10.440219 82.383 -91.6190
10.515873 82.436 -92.0266
10.592076 82.489 -92.4324
10.668830 82.542 -92.8366
10.746141 82.594 -93.2392
10.824012 82.646 -93.6404
10.902447 82.699 -94.0406
10.981451 82.751 -94.4399
11.061027 82.803 -94.8387
11.141180 82.855 -95.2372
11.221913 82.907 -95.6357
11.303232 82.959 -96.0345
11.385140 83.010 -96.4339
11.467641 83.062 -96.8341
11.550741 83.113 -97.2353
11.634442 83.164 -97.6375
11.718750 83.215 -98.0407
11.803669 83.265 -98.4449
11.889203 83.315 -98.8499
11.975357 83.364 -99.2555
12.062136 83.412 -99.6612
12.149543 83.460 -100.0667
12.237583 83.508 -100.4715
12.326262 83.554 -100.8750
12.415583 83.600 -101.2768
12.505552 83.645 -101.6762
12.596172 83.690 -102.0728
12.687449 83.734 -102.4661
12.779387 83.778 -102.8556
12.871992 83.822 -103.2411
12.965268 83.865 -103.6224
13.059220 83.908 -103.9996
13.153852 83.951 -104.3727
13.249170 83.994 -104.7420
13.345179 84.038 -105.1080
13.441884 84.081 -105.4712
13.539289 84.126 -105.8325
13.637401 84.170 -106.1925
13.736223 84.215 -106.5522
13.835761 84.260 -106.9123
13.936021 84.306 -107.2739
14.037007 84.352 -107.6376
14.138725 84.398 -108.0042
14.241180 84.444 -108.3740
14.344377 84.491 -108.7475
14.448323 84.536 -109.1248
14.553021 84.582 -109.5057
14.658478 84.626 -109.8898
14.764700 84.670 -110.2766
14.871691 84.714 -110.6653
14.979457 84.756 -111.0549
15.088005 84.797 -111.4445
15.197339 84.837 -111.8328
15.307465 84.877 -112.2188
15.418389 84.915 -112.6015
15.530117 84.953 -112.9801
15.642655 84.990 -113.3538
15.756008 85.027 -113.7223
15.870182 85.063 -114.0855
15.985184 85.100 -114.4436
16.101019 85.137 -114.7973
16.217694 85.174 -115.1473
16.335214 85.212 -115.4948
16.453586 85.250 -115.8412
16.572815 85.288 -116.1877
16.692909 85.327 -116.5358
16.813872 85.366 -116.8867
16.935713 85.406 -117.2413
17.058436 85.445 -117.6004
17.182048 85.484 -117.9642
17.306556 85.522 -118.3324
17.431967 85.560 -118.7044
17.558286 85.596 -119.0791
17.685521 85.631 -119.4550
17.813677 85.665 -119.8304
17.942762 85.697 -120.2035
18.072783 85.728 -120.5724
18.203746 85.758 -120.9357
18.335658 85.788 -121.2921
18.468526 85.817 -121.6410
18.602356 85.846 -121.9824
18.737156 85.875 -122.3168
18.872934 85.905 -122.6456
19.009695 85.935 -122.9705
19.147447 85.966 -123.2937
19.286197 85.998 -123.6174
19.425953 86.031 -123.9439
19.566721 86.064 -124.2750
19.708510 86.097 -124.6119
19.851326 86.129 -124.9550
19.995177 86.161 -125.3038
20.140070 86.192 -125.6571
20.286013 86.222 -126.0126
20.433014 86.249 -126.3678
20.581080 86.276 -126.7196
20.730219 86.301 -127.0652
20.880439 86.325 -127.4024
21.031747 86.348 -127.7294
21.184152 86.371 -128.0456
21.337661 86.395 -128.3518
21.492282 86.420 -128.6497
21.648024 86.447 -128.9422
21.804895 86.475 -129.2328
21.962902 86.505 -129.5254
22.122054 86.536 -129.8237
22.282360 86.568 -130.1308
22.443827 86.601 -130.4486
22.606464 86.633 -130.7780
22.770280 86.665 -131.1181
22.935283 86.695 -131.4671
23.101481 86.723 -131.8218
23.268884 86.750 -132.1784
23.437500 86.774 -132.5330
23.607338 86.796 -132.8817
23.778406 86.817 -133.2216
23.950714 86.837 -133.5503
24.124271 86.856 -133.8670
24.299086 86.876 -134.1719
24.475167 86.896 -134.4664
24.652524 86.917 -134.7527
24.831166 86.939 -135.0333
25.011103 86.963 -135.3114
25.192344 86.988 -135.5896
25.374898 87.014 -135.8702
25.558775 87.040 -136.1550
25.743984 87.067 -136.4451
25.930536 87.094 -136.7409
26.118439 87.120 -137.0420
26.307704 87.146 -137.3475
26.498341 87.171 -137.6562
26.690359 87.195 -137.9666
26.883768 87.218 -138.2769
27.078579 87.240 -138.5855
27.274801 87.262 -138.8910
27.472446 87.282 -139.1924
27.671522 87.302 -139.4890
27.872042 87.322 -139.7808
28.074014 87.341 -140.0683
28.277450 87.360 -140.3522
28.482360 87.380 -140.6333
28.688755 87.400 -140.9124
28.896645 87.419 -141.1903
29.106042 87.439 -141.4669
29.316957 87.458 -141.7424
29.529400 87.478 -142.0163
29.743382 87.497 -142.2882
29.958915 87.516 -142.5580
30.176009 87.535 -142.8258
30.394677 87.555 -143.0922
30.614929 87.575 -143.3581
30.836778 87.595 -143.6246
31.060234 87.616 -143.8927
31.285309 87.636 -144.1628
31.512015 87.657 -144.4349
31.740364 87.677 -144.7082
31.970368 87.696 -144.9816
32.202039 87.716 -145.2536
32.435388 87.735 -145.5228
32.670428 87.754 -145.7881
32.907171 87.773 -146.0493
33.145630 87.792 -146.3070
33.385817 87.812 -146.5623
33.627745 87.834 -146.8170
33.871425 87.855 -147.0731
34.116871 87.878 -147.3324
34.364096 87.900 -147.5961
34.613113 87.923 -147.8648
34.863934 87.945 -148.1380
35.116572 87.967 -148.4142
35.371041 87.988 -148.6914
35.627354 88.007 -148.9669
35.885525 88.026 -149.2386
36.145566 88.045 -149.5046
36.407492 88.064 -149.7646
36.671316 88.083 -150.0197
36.937051 88.103 -150.2719
37.204712 88.123 -150.5243
37.474313 88.145 -150.7797
37.745867 88.167 -151.0404
38.019389 88.188 -151.3069
38.294893 88.210 -151.5785
38.572394 88.230 -151.8528
38.851905 88.250 -152.1270
39.133442 88.269 -152.3987
39.417019 88.288 -152.6663
39.702651 88.308 -152.9301
39.990353 88.328 -153.1919
40.280140 88.349 -153.4545
40.572026 88.371 -153.7207
40.866028 88.394 -153.9924
41.162160 88.416 -154.2700
41.460438 88.439 -154.5523
41.760877 88.461 -154.8374
42.063494 88.483 -155.1235
42.368303 88.505 -155.4100
42.675322 88.528 -155.6979
42.984565 88.551 -155.9891
43.296048 88.574 -156.2858
43.609789 88.597 -156.5887
43.925804 88.618 -156.8963
44.244108 88.639 -157.2052
44.564719 88.658 -157.5108
44.887654 88.676 -157.8096
45.212928 88.694 -158.1001
45.540560 88.713 -158.3836
45.870565 88.732 -158.6635
46.202962 88.753 -158.9442
46.537768 88.774 -159.2292
46.875000 88.796 -159.5203
47.214676 88.817 -159.8175
47.556813 88.837 -160.1191
47.901429 88.857 -160.4231
48.248542 88.876 -160.7277
48.598171 88.895 -161.0318
48.950334 88.913 -161.3349
49.305048 88.932 -161.6375
49.662333 88.950 -161.9404
50.022206 88.968 -162.2449
50.384688 88.986 -162.5520
50.749796 89.005 -162.8620
51.117550 89.022 -163.1747
51.487969 89.040 -163.4893
51.861072 89.057 -163.8050
52.236879 89.074 -164.1214
52.615409 89.090 -164.4389
52.996681 89.107 -164.7578
53.380717 89.123 -165.0785
53.767536 89.140 -165.4008
54.157158 89.156 -165.7242
54.549603 89.172 -166.0482
54.944892 89.188 -166.3730
55.343045 89.204 -166.6988
55.744084 89.220 -167.0258
56.148028 89.236 -167.3538
56.554900 89.252 -167.6822
56.964720 89.267 -168.0103
57.377510 89.282 -168.3378
57.793291 89.298 -168.6649
58.212085 89.313 -168.9921
58.633914 89.327 -169.3194
59.058799 89.341 -169.6466
59.486764 89.353 -169.9731
59.917829 89.365 -170.2981
60.352019 89.376 -170.6217
60.789354 89.386 -170.9447
61.229859 89.395 -171.2683
61.673556 89.403 -171.5936
62.120468 89.410 -171.9216
62.570618 89.416 -172.2531
63.024031 89.421 -172.5888
63.480729 89.425 -172.9301
63.940736 89.428 -173.2785
64.404077 89.430 -173.6356
64.870776 89.431 -174.0017
65.340856 89.430 -174.3745
65.814343 89.428 -174.7473
66.291261 89.424 -175.1117
66.771635 89.419 -175.4606
67.255489 89.417 -175.7934
67.742850 89.416 -176.1165
68.233743 89.419 -176.4392
68.728193 89.423 -176.7685
69.226226 89.428 -177.1054
69.727867 89.433 -177.4469
70.233144 89.436 -177.7899
70.742083 89.438 -178.1331
71.254709 89.439 -178.4763
71.771050 89.438 -178.8186
72.291132 89.434 -179.1581
72.814984 89.429 -179.4935
73.342631 89.421 -179.8247
73.874102 89.413 179.8470
74.409424 89.403 179.5200
74.948626 89.392 179.1930
75.491734 89.380 178.8646
76.038779 89.368 178.5335
76.589787 89.355 178.1988
77.144788 89.342 177.8611
77.703811 89.328 177.5220
78.266885 89.314 177.1837
78.834039 89.299 176.8480
79.405303 89.283 176.5159
79.980706 89.267 176.1879
80.560280 89.250 175.8641
81.144053 89.233 175.5444
81.732056 89.214 175.2288
82.324320 89.195 174.9173
82.920876 89.174 174.6098
83.521755 89.153 174.3058
84.126988 89.131 174.0048
84.736607 89.109 173.7066
85.350643 89.086 173.4111
85.969129 89.063 173.1183
86.592097 89.039 172.8273
87.219579 89.016 172.5370
87.851608 88.992 172.2464
88.488217 88.968 171.9554
89.129439 88.944 171.6652
89.775308 88.918 171.3773
90.425856 88.892 171.0929
91.081119 88.865 170.8118
91.741131 88.837 170.5326
92.405925 88.808 170.2538
93.075536 88.778 169.9746
93.750000 88.748 169.6949
94.429351 88.716 169.4155
95.113625 88.683 169.1371
95.802858 88.649 168.8606
96.497085 88.615 168.5859
97.196342 88.580 168.3127
97.900667 88.545 168.0403
98.610096 88.510 167.7676
99.324665 88.474 167.4934
100.044413 88.438 167.2161
100.769376 88.400 166.9355
101.499592 88.360 166.6530
102.235100 88.319 166.3705
102.975938 88.275 166.0892
103.722144 88.231 165.8094
104.473757 88.186 165.5303
105.230817 88.140 165.2510
105.993363 88.094 164.9713
106.761435 88.049 164.6918
107.535072 88.004 164.4139
108.314315 87.959 164.1395
109.099206 87.914 163.8705
109.889783 87.869 163.6081
110.686090 87.824 163.3524
111.488167 87.779 163.1031
112.296056 87.733 162.8606
113.109800 87.685 162.6259
113.929440 87.638 162.3991
114.755020 87.589 162.1775
115.586582 87.541 161.9563
116.424170 87.493 161.7307
117.267827 87.444 161.5006
118.117598 87.394 161.2721
118.973527 87.345 161.0512
119.835658 87.296 160.8367
120.704037 87.248 160.6216
121.578708 87.200 160.4055
122.459718 87.149 160.2025
123.347111 87.097 160.0292
124.240935 87.045 159.8871
125.141236 86.993 159.7632
126.048061 86.939 159.6473
126.961458 86.884 159.5339
127.881473 86.826 159.4149
128.808154 86.763 159.2858
129.741551 86.695 159.1556
130.681712 86.625 159.0394
131.628686 86.555 158.9418
132.582521 86.491 158.8542
133.543269 86.434 158.7664
134.510979 86.383 158.6706
135.485701 86.338 158.5589
136.467486 86.294 158.4312
137.456386 86.249 158.2973
138.452451 86.200 158.1660
139.455735 86.148 158.0390
140.466288 86.092 157.9174
141.484165 86.031 157.8054
142.509418 85.969 157.7058
143.542100 85.906 157.6176
144.582265 85.844 157.5419
145.629968 85.782 157.4847
146.685262 85.721 157.4484
147.748204 85.661 157.4299
148.818849 85.601 157.4265
149.897251 85.541 157.4344
150.983469 85.480 157.4484
152.077557 85.419 157.4641
153.179574 85.358 157.4787
154.289576 85.298 157.4921
155.407622 85.238 157.5057
156.533770 85.178 157.5218
157.668078 85.120 157.5411
158.810606 85.062 157.5637
159.961413 85.004 157.5915
161.120559 84.946 157.6264
162.288105 84.888 157.6681
163.464112 84.831 157.7155
164.648640 84.773 157.7685
165.841752 84.715 157.8263
167.043510 84.658 157.8877
168.253976 84.600 157.9518
169.473213 84.543 158.0194
170.701286 84.486 158.0927
171.938258 84.430 158.1736
173.184194 84.374 158.2635
174.439158 84.318 158.3630
175.703216 84.262 158.4726
176.976434 84.207 158.5913
178.258878 84.152 158.7169
179.550615 84.098 158.8475
180.851713 84.044 158.9824
182.162239 83.990 159.1211
183.482262 83.936 159.2635
184.811850 83.882 159.4099
186.151073 83.829 159.5602
187.500000 83.777 159.7149
188.858702 83.726 159.8743
190.227250 83.675 160.0385
191.605715 83.625 160.2075
192.994169 83.576 160.3814
194.392685 83.527 160.5609
195.801334 83.478 160.7467
197.220191 83.429 160.9407
198.649330 83.381 161.1437
200.088825 83.333 161.3554
201.538751 83.286 161.5726
202.999184 83.240 161.7911
204.470200 83.195 162.0084
205.951875 83.151 162.2254
207.444287 83.107 162.4450
208.947514 83.065 162.6693
210.461634 83.023 162.8994
211.986726 82.982 163.1346
213.522869 82.942 163.3741
215.070144 82.902 163.6180
216.628631 82.862 163.8665
218.198411 82.822 164.1192
219.779567 82.782 164.3739
221.372180 82.743 164.6286
222.976334 82.705 164.8840
224.592112 82.667 165.1437
226.219600 82.630 165.4100
227.858880 82.593 165.6800
229.510039 82.556 165.9431
231.173164 82.519 166.1870
232.848340 82.485 166.4073
234.535655 82.456 166.6165
236.235197 82.431 166.8401
237.947054 82.409 167.0992
239.671317 82.386 167.3930
241.408074 82.360 167.6998
243.157416 82.332 167.9923
244.919435 82.303 168.2603
246.694223 82.276 168.5215
248.481871 82.252 168.8062
250.282473 82.228 169.1313
252.096123 82.204 169.4882
253.922915 82.179 169.8472
255.762945 82.156 170.1771
257.616309 82.135 170.4674
259.483103 82.117 170.7305
261.363424 82.101 170.9863
263.257372 82.084 171.2503
265.165043 82.066 171.5257
267.086538 82.045 171.8049
269.021957 82.024 172.0802
270.971401 82.002 172.3504
272.934972 81.982 172.6174
274.912771 81.965 172.8844
276.904902 81.950 173.1563
278.911469 81.937 173.4394
280.932577 81.923 173.7368
282.968330 81.910 174.0492
285.018835 81.895 174.3773
287.084199 81.879 174.7174
289.164530 81.861 175.0592
291.259935 81.840 175.3884
293.370525 81.817 175.6923
295.496408 81.795 175.9586
297.637697 81.777 176.1769
299.794503 81.765 176.3587
301.966937 81.760 176.5416
304.155114 81.762 176.7596
306.359147 81.766 177.0308
308.579152 81.766 177.3583
310.815244 81.762 177.7158
313.067539 81.753 178.0562
315.336156 81.742 178.3571
317.621211 81.732 178.6353
319.922826 81.724 178.9160
322.241118 81.717 179.2057
324.576210 81.708 179.4952
326.928223 81.698 179.7752
329.297280 81.689 -179.9553
331.683504 81.682 -179.6920
334.087019 81.677 -179.4308
336.507952 81.673 -179.1702
338.946427 81.668 -178.9100
341.402572 81.664 -178.6498
343.876516 81.660 -178.3897
346.368387 81.655 -178.1290
348.878315 81.650 -177.8640
351.406431 81.645 -177.5917
353.952867 81.640 -177.3121
356.517756 81.636 -177.0253
359.101230 81.633 -176.7309
361.703426 81.630 -176.4276
364.324478 81.629 -176.1155
366.964523 81.628 -175.7973
369.623699 81.628 -175.4759
372.302145 81.628 -175.1523
375.000000 81.628 -174.8250
377.717405 81.629 -174.4933
380.454501 81.631 -174.1596
383.211431 81.634 -173.8267
385.988339 81.639 -173.4943
388.785369 81.647 -173.1637
391.602668 81.658 -172.8430
394.440383 81.672 -172.5413
397.298660 81.689 -172.2572
400.177650 81.708 -171.9821
403.077502 81.728 -171.7146
405.998368 81.748 -171.4606
408.940400 81.766 -171.2218
411.903750 81.784 -170.9925
414.888575 81.800 -170.7665
417.895028 81.816 -170.5418
420.923268 81.830 -170.3193
423.973452 81.844 -170.0994
427.045738 81.855 -169.8801
430.140287 81.865 -169.6566
433.257261 81.871 -169.4237
436.396822 81.876 -169.1807
439.559133 81.879 -168.9333
442.744360 81.884 -168.6894
445.952668 81.890 -168.4540
449.184225 81.897 -168.2266
452.439199 81.907 -168.0031
455.717760 81.916 -167.7787
459.020079 81.926 -167.5507
462.346327 81.936 -167.3190
465.696680 81.946 -167.0849
469.071310 81.956 -166.8505
472.470394 81.967 -166.6169
475.894109 81.979 -166.3840
479.342634 81.992 -166.1507
482.816148 82.007 -165.9157
486.314833 82.022 -165.6788
489.838871 82.038 -165.4407
493.388445 82.053 -165.2032
496.963741 82.068 -164.9676
500.564945 82.082 -164.7334
504.192245 82.097 -164.4988
507.845830 82.111 -164.2627
511.525890 82.127 -164.0250
515.232618 82.143 -163.7859
518.966206 82.160 -163.5455
522.726849 82.178 -163.3034
526.514743 82.196 -163.0593
530.330086 82.214 -162.8136
534.173076 82.233 -162.5685
538.043915 82.251 -162.3273
541.942803 82.269 -162.0923
545.869944 82.288 -161.8630
549.825542 82.307 -161.6378
553.809805 82.326 -161.4141
557.822939 82.346 -161.1897
561.865154 82.367 -160.9635
565.936660 82.389 -160.7354
570.037671 82.412 -160.5068
574.168399 82.434 -160.2789
578.329060 82.458 -160.0525
582.519870 82.481 -159.8285
586.741049 82.505 -159.6082
590.992817 82.529 -159.3927
595.275394 82.554 -159.1822
599.589005 82.578 -158.9759
603.933874 82.602 -158.7726
608.310228 82.626 -158.5714
612.718295 82.649 -158.3722
617.158304 82.673 -158.1755
621.630488 82.697 -157.9814
626.135079 82.722 -157.7886
630.672311 82.747 -157.5951
635.242423 82.773 -157.3997
639.845651 82.799 -157.2032
644.482237 82.825 -157.0083
649.152421 82.851 -156.8188
653.856447 82.876 -156.6371
658.594560 82.901 -156.4638
663.367008 82.925 -156.2966
668.174039 82.947 -156.1312
673.015903 82.967 -155.9603
677.892854 82.985 -155.7752
682.805145 83.002 -155.5676
687.753032 83.019 -155.3338
692.736774 83.037 -155.0750
697.756631 83.058 -154.7963
702.812863 83.082 -154.5041
707.905735 83.110 -154.2041
713.035511 83.142 -153.9018
718.202461 83.178 -153.6033
723.406852 83.217 -153.3152
728.648956 83.259 -153.0436
733.929047 83.304 -152.7922
739.247399 83.349 -152.5618
744.604290 83.396 -152.3502
750.000000 83.442 -152.1538
755.434809 83.487 -151.9685
760.909001 83.532 -151.7909
766.422861 83.577 -151.6190
771.976677 83.621 -151.4521
777.570739 83.665 -151.2899
783.205337 83.710 -151.1320
788.880766 83.754 -150.9777
794.597321 83.799 -150.8260
800.355301 83.843 -150.6759
806.155005 83.888 -150.5270
811.996736 83.934 -150.3789
817.880799 83.980 -150.2318
823.807501 84.026 -150.0867
829.777150 84.073 -149.9449
835.790057 84.121 -149.8073
841.846536 84.169 -149.6745
847.946903 84.218 -149.5470
854.091476 84.268 -149.4249
860.280575 84.318 -149.3080
866.514523 84.369 -149.1965
872.793644 84.422 -149.0911
879.118267 84.474 -148.9918
885.488720 84.528 -148.8990
891.905336 84.582 -148.8132
898.368450 84.636 -148.7343
904.878398 84.691 -148.6625
911.435520 84.747 -148.5979
918.040157 84.803 -148.5416
924.692655 84.860 -148.4942
931.393359 84.918 -148.4555
938.142619 84.976 -148.4244
944.940787 85.035 -148.4007
951.788218 85.095 -148.3853
958.685268 85.156 -148.3803
965.632296 85.218 -148.3881
972.629666 85.280 -148.4104
979.677741 85.343 -148.4472
986.776890 85.405 -148.4974
993.927482 85.467 -148.5585
1001.129891 85.529 -148.6274
1008.384491 85.589 -148.7012
1015.691660 85.650 -148.7782
1023.051781 85.709 -148.8576
1030.465236 85.767 -148.9395
1037.932411 85.825 -149.0240
1045.453698 85.882 -149.1109
1053.029486 85.939 -149.1996
1060.660172 85.997 -149.2901
1068.346153 86.053 -149.3835
1076.087829 86.109 -149.4813
1083.885605 86.164 -149.5855
1091.739887 86.217 -149.6977
1099.651084 86.269 -149.8187
1107.619609 86.319 -149.9486
1115.645878 86.368 -150.0874
1123.730308 86.415 -150.2350
1131.873321 86.461 -150.3920
1140.075341 86.505 -150.5583
1148.336797 86.547 -150.7327
1156.658119 86.588 -150.9138
1165.039741 86.627 -151.1002
1173.482099 86.664 -151.2910
1181.985634 86.699 -151.4855
1190.550789 86.731 -151.6839
1199.178011 86.761 -151.8864
1207.867749 86.789 -152.0928
1216.620457 86.814 -152.3027
1225.436590 86.838 -152.5152
1234.316609 86.859 -152.7291
1243.260976 86.877 -152.9436
1252.270157 86.894 -153.1581
1261.344623 86.909 -153.3717
1270.484846 86.921 -153.5832
1279.691303 86.932 -153.7919
1288.964474 86.940 -153.9973
1298.304842 86.946 -154.1989
1307.712894 86.950 -154.3961
1317.189120 86.952 -154.5883
1326.734016 86.952 -154.7753
1336.348077 86.949 -154.9565
1346.031806 86.945 -155.1315
1355.785708 86.939 -155.2997
1365.610290 86.931 -155.4606
1375.506065 86.921 -155.6134
1385.473549 86.910 -155.7574
1395.513261 86.896 -155.8921
1405.625726 86.881 -156.0171
1415.811469 86.865 -156.1319
1426.071023 86.847 -156.2366
1436.404921 86.827 -156.3308
1446.813703 86.805 -156.4144
1457.297912 86.783 -156.4867
1467.858093 86.759 -156.5475
1478.494798 86.734 -156.5964
1489.208581 86.708 -156.6336
1500.000000 86.680 -156.6589
1510.869618 86.652 -156.6724
1521.818002 86.622 -156.6736
1532.845723 86.591 -156.6621
1543.953355 86.560 -156.6377
1555.141477 86.527 -156.5999
1566.410674 86.494 -156.5485
1577.761531 86.460 -156.4834
1589.194642 86.426 -156.4044
1600.710601 86.391 -156.3116
1612.310010 86.355 -156.2050
1623.993473 86.319 -156.0847
1635.761599 86.282 -155.9505
1647.615002 86.245 -155.8024
1659.554299 86.208 -155.6401
1671.580114 86.170 -155.4634
1683.693072 86.132 -155.2723
1695.893807 86.094 -155.0668
1708.182952 86.056 -154.8467
1720.561150 86.017 -154.6123
1733.029045 85.979 -154.3636
1745.587288 85.941 -154.1007
1758.236533 85.903 -153.8237
1770.977440 85.865 -153.5326
1783.810673 85.827 -153.2278
1796.736900 85.790 -152.9097
1809.756796 85.753 -152.5792
1822.871040 85.716 -152.2379
1836.080315 85.680 -151.8877
1849.385310 85.644 -151.5318
1862.786718 85.609 -151.1754
1876.285239 85.575 -150.8243
1889.881575 85.540 -150.4835
1903.576436 85.506 -150.1557
1917.370535 85.473 -149.8394
1931.264593 85.439 -149.5294
1945.259332 85.407 -149.2190
1959.355483 85.375 -148.9027
1973.553781 85.344 -148.5782
1987.854965 85.313 -148.2456
2002.259781 85.284 -147.9052
2016.768981 85.256 -147.5569
2031.383320 85.230 -147.2003
2046.103561 85.206 -146.8343
2060.930471 85.183 -146.4582
2075.864823 85.162 -146.0720
2090.907395 85.142 -145.6759
2106.058972 85.124 -145.2706
2121.320344 85.107 -144.8562
2136.692305 85.093 -144.4333
2152.175658 85.079 -144.0018
2167.771210 85.068 -143.5623
2183.479774 85.058 -143.1152
2199.302169 85.051 -142.6607
2215.239219 85.044 -142.1990
2231.291755 85.040 -141.7303
2247.460615 85.038 -141.2551
2263.746641 85.037 -140.7738
2280.150683 85.039 -140.2867
2296.673595 85.043 -139.7945
2313.316238 85.049 -139.2973
2330.079481 85.057 -138.7956
2346.964198 85.068 -138.2898
2363.971268 85.081 -137.7805
2381.101578 85.096 -137.2679
2398.356022 85.114 -136.7523
2415.735498 85.134 -136.2342
2433.240913 85.156 -135.7141
2450.873180 85.181 -135.1926
2468.633217 85.209 -134.6705
2486.521951 85.239 -134.1484
2504.540314 85.271 -133.6270
2522.689246 85.306 -133.1068
2540.969692 85.344 -132.5883
2559.382606 85.385 -132.0727
2577.928947 85.429 -131.5614
2596.609683 85.476 -131.0556
2615.425787 85.525 -130.5553
2634.378241 85.577 -130.0594
2653.468031 85.630 -129.5671
2672.696154 85.685 -129.0785
2692.063613 85.742 -128.5948
2711.571415 85.800 -128.1176
2731.220579 85.860 -127.6479
2751.012130 85.921 -127.1861
2770.947098 85.985 -126.7324
2791.026522 86.050 -126.2869
2811.251451 86.118 -125.8496
2831.622938 86.187 -125.4206
2852.142045 86.258 -125.0003
2872.809842 86.331 -124.5890
2893.627406 86.405 -124.1867
2914.595823 86.481 -123.7939
2935.716186 86.559 -123.4107
2956.989596 86.639 -123.0376
2978.417161 86.721 -122.6748
3000.000000 86.804 -122.3224
3021.739237 86.889 -121.9805
3043.636005 86.976 -121.6492
3065.691446 87.064 -121.3286
3087.906710 87.154 -121.0188
3110.282955 87.246 -120.7199
3132.821347 87.340 -120.4320
3155.523062 87.435 -120.1552
3178.389283 87.532 -119.8895
3201.421202 87.631 -119.6354
3224.620020 87.732 -119.3936
3247.986946 87.835 -119.1647
3271.523198 87.940 -118.9495
3295.230004 88.047 -118.7489
3319.108599 88.156 -118.5634
3343.160228 88.267 -118.3939
3367.386145 88.379 -118.2412
3391.787613 88.494 -118.1062
3416.365904 88.610 -117.9897
3441.122300 88.728 -117.8928
3466.058091 88.847 -117.8162
3491.174576 88.968 -117.7612
3516.473066 89.090 -117.7287
3541.954880 89.213 -117.7199
3567.621345 89.338 -117.7357
3593.473800 89.464 -117.7769
3619.513592 89.590 -117.8444
3645.742080 89.717 -117.9388
3672.160630 89.845 -118.0608
3698.770620 89.973 -118.2107
3725.573436 90.102 -118.3893
3752.570477 90.230 -118.5974
3779.763150 90.358 -118.8359
3807.152872 90.486 -119.1056
3834.741071 90.614 -119.4071
3862.529185 90.741 -119.7412
3890.518664 90.866 -120.1085
3918.710966 90.991 -120.5092
3947.107561 91.113 -120.9437
3975.709929 91.233 -121.4116
4004.519563 91.351 -121.9121
4033.537962 91.466 -122.4439
4062.766641 91.577 -123.0050
4092.207123 91.684 -123.5932
4121.860942 91.787 -124.2057
4151.729646 91.885 -124.8396
4181.814790 91.979 -125.4912
4212.117944 92.068 -126.1569
4242.640687 92.152 -126.8328
4273.384610 92.231 -127.5148
4304.351317 92.305 -128.1989
4335.542421 92.376 -128.8814
4366.959549 92.442 -129.5585
4398.604338 92.504 -130.2270
4430.478438 92.563 -130.8840
4462.583511 92.620 -131.5272
4494.921231 92.675 -132.1550
4527.493283 92.729 -132.7669
4560.301365 92.782 -133.3628
4593.347189 92.836 -133.9438
4626.632476 92.891 -134.5121
4660.158962 92.948 -135.0705
4693.928395 93.007 -135.6227
4727.942535 93.069 -136.1729
4762.203156 93.135 -136.7255
4796.712043 93.203 -137.2854
4831.470996 93.276 -137.8572
4866.481826 93.352 -138.4457
4901.746360 93.432 -139.0556
4937.266434 93.517 -139.6920
4973.043902 93.605 -140.3598
5009.080628 93.698 -141.0644
5045.378492 93.794 -141.8115
5081.939384 93.895 -142.6070
5118.765212 93.998 -143.4574
5155.857894 94.105 -144.3688
5193.219366 94.213 -145.3476
5230.851574 94.322 -146.4001
5268.756481 94.432 -147.5318
5306.936062 94.540 -148.7477
5345.392309 94.646 -150.0524
5384.127225 94.747 -151.4494
5423.142830 94.842 -152.9416
5462.441159 94.929 -154.5299
5502.024259 95.006 -156.2138
5541.894195 95.069 -157.9899
5582.053045 95.118 -159.8524
5622.502902 95.149 -161.7923
5663.245876 95.161 -163.7976
5704.284090 95.151 -165.8535
5745.619684 95.120 -167.9431
5787.254813 95.065 -170.0479
5829.191647 94.988 -172.1489
5871.432373 94.887 -174.2271
5913.979192 94.763 -176.2644
5956.834323 94.619 -178.2440
6000.000000 94.454 179.8488
6043.478473 94.271 178.0270
6087.272010 94.072 176.3014
6131.382892 93.858 174.6808
6175.813420 93.632 173.1718
6220.565910 93.395 171.7791
6265.642695 93.149 170.5055
6311.046124 92.897 169.3522
6356.778566 92.639 168.3194
6402.842404 92.379 167.4059
6449.240040 92.117 166.6097
6495.973891 91.855 165.9279
6543.046396 91.594 165.3570
6590.460007 91.337 164.8929
6638.217197 91.084 164.5311
6686.320456 90.836 164.2668
6734.772290 90.595 164.0950
6783.575226 90.361 164.0108
6832.731809 90.136 164.0099
6882.244600 89.920 164.0885
6932.116181 89.713 164.2428
6982.349153 89.518 164.4691
7032.946133 89.334 164.7634
7083.909760 89.163 165.1220
7135.242690 89.005 165.5414
7186.947600 88.862 166.0187
7239.027185 88.735 166.5518
7291.484160 88.626 167.1374
7344.321260 88.537 167.7692
7397.541239 88.472 168.4323
7451.146872 88.433 169.0995
7505.140954 88.422 169.7324
7559.526299 88.437 170.2946
7614.305743 88.474 170.7683
7669.482141 88.532 171.1564
7725.058371 88.612 171.4651
7781.037328 88.716 171.6891
7837.421932 88.848 171.8069
7894.215122 89.012 171.7835
7951.419859 89.207 171.5742
8009.039125 89.435 171.1282
8067.075924 89.692 170.3904
8125.533282 89.975 169.3042
8184.414245 90.275 167.8141
8243.721885 90.584 165.8696
8303.459292 90.890 163.4297
8363.629581 91.178 160.4692
8424.235888 91.430 156.9836
8485.281374 91.629 152.9941
8546.769221 91.756 148.5518
8608.702634 91.795 143.7386
8671.084842 91.733 138.6645
8733.919097 91.560 133.4616
8797.208675 91.272 128.2729
8860.956876 90.870 123.2407
8925.167022 90.363 118.4938
8989.842461 89.761 114.1395
9054.986566 89.079 110.2576
9120.602731 88.333 106.8994
9186.694378 87.539 104.0892
9253.264952 86.712 101.8279
9320.317925 85.867 100.0974
9387.856790 85.018 98.8658
9455.885071 84.174 98.0923
9524.406312 83.343 97.7318
9593.424086 82.532 97.7379
9662.941992 81.746 98.0660
9732.963653 80.988 98.6745
9803.492719 80.260 99.5258
9874.532869 79.562 100.5864
9946.087805 78.895 101.8264
10018.161257 78.257 103.2191
10090.756983 77.649 104.7410
10163.878768 77.068 106.3710
10237.530423 76.513 108.0905
10311.715789 75.984 109.8834
10386.438732 75.478 111.7353
10461.703149 74.994 113.6344
10537.512962 74.531 115.5712
10613.872125 74.087 117.5397
10690.784618 73.661 119.5363
10768.254450 73.252 121.5584
10846.285661 72.860 123.6037
10924.882318 72.483 125.6694
11004.048518 72.120 127.7520
11083.788390 71.771 129.8477
11164.106090 71.436 131.9522
11245.005805 71.114 134.0616
11326.491752 70.803 136.1728
11408.568180 70.504 138.2836
11491.239368 70.216 140.3932
11574.509626 69.939 142.5024
11658.383294 69.671 144.6126
11742.864745 69.412 146.7254
11827.958384 69.161 148.8424
11913.668646 68.919 150.9655
12000.000000 68.684 153.0963
12086.956947 68.457 155.2368
12174.544019 68.237 157.3885
12262.765784 68.026 159.5527
12351.626840 67.824 161.7301
12441.131819 67.630 163.9206
12531.285389 67.445 166.1228
12622.092249 67.269 168.3358
12713.557132 67.102 170.5593
12805.684808 66.944 172.7946
12898.480079 66.796 175.0434
12991.947783 66.657 177.3078
13086.092792 66.527 179.5887
13180.920015 66.407 -178.1139
13276.434395 66.299 -175.7999
13372.640911 66.202 -173.4680
13469.544580 66.117 -171.1133
13567.150452 66.044 -168.7302
13665.463617 65.983 -166.3167
13764.489200 65.937 -163.8761
13864.232362 65.906 -161.4120
13964.698305 65.893 -158.9256
14065.892266 65.900 -156.4164
14167.819519 65.930 -153.8859
14270.485380 65.985 -151.3396
14373.895200 66.069 -148.7863
14478.054370 66.185 -146.2377
14582.968320 66.337 -143.7077
14688.642520 66.529 -141.2119
14795.082478 66.767 -138.7706
14902.293745 67.058 -136.4132
15010.281908 67.410 -134.1835
15119.052599 67.831 -132.1441
15228.611486 68.330 -130.3810
15338.964283 68.912 -129.0066
15450.116741 69.576 -128.1599
15562.074656 70.316 -128.0011
15674.843864 71.113 -128.6996
15788.430244 71.941 -130.4154
15902.839718 72.761 -133.2764
16018.078250 73.526 -137.3552
16134.151848 74.183 -142.6453
16251.066563 74.679 -149.0380
16368.828491 74.964 -156.3054
16487.443769 74.998 -164.0996
16606.918584 74.761 -171.9860
16727.259161 74.259 -179.5128
16848.471777 73.514 173.7133
16970.562748 72.565 167.9816
17093.538442 71.458 163.4702
17217.405268 70.240 160.2586
17342.169684 68.955 158.3443
17467.838194 67.647 157.6613
17594.417350 66.352 158.0964
17721.913751 65.101 159.5056
17850.334044 63.918 161.7306
17979.684923 62.818 164.6139
18109.973131 61.811 168.0090
18241.205462 60.898 171.7858
18373.388756 60.076 175.8314
18506.529905 59.339 -179.9485
18640.635849 58.679 -175.6304
18775.713581 58.085 -171.2749
18911.770141 57.545 -166.9301
19048.812624 57.048 -162.6338
19186.848172 56.584 -158.4184
19325.883983 56.148 -154.3188
19465.927305 55.739 -150.3916
19606.985439 55.364 -146.7444
19749.065738 55.045 -143.5664
19892.175609 54.808 -141.1414
20036.322514 54.681 -139.8039
