* Measurement data measured by REW V5.30.4
* Source: Headset (2- CX31993 HIFI AUDIO), MICROPHONE (Master Volume), L, volume: 0.500
* Format: 256k Log Swept Sine, 1 sweep at -12.0 dBFS with no timing reference
* Dated: 06 20, 24 5:56:40 PM
* REW Settings:
*  C-weighting compensation: Off
*  Target level: 75.0 dB
* Note: ; 
* Measurement: Audio Hekili L
* Smoothing: 1/12 octave
* Frequency Step: 96 ppo
* Start Frequency: 20.141602 Hz
*
* Freq(Hz) SPL(dB) Phase(degrees)
20.141602 104.068 178.2635
20.287556 104.067 178.2990
20.434568 104.067 178.3012
20.582645 104.066 178.2790
20.731796 104.066 178.2392
20.882027 104.065 178.1860
21.033346 104.065 178.1192
21.185762 104.065 178.0343
21.339283 104.066 177.9384
21.493916 104.066 177.8320
21.649670 104.067 177.7156
21.806553 104.068 177.5905
21.964573 104.068 177.4588
22.123737 104.069 177.3158
22.284056 104.069 177.1692
22.445536 104.069 177.0234
22.608185 104.069 176.8808
22.772013 104.069 176.7434
22.937029 104.069 176.6127
23.103241 104.069 176.4846
23.270657 104.069 176.3612
23.439285 104.069 176.2451
23.609137 104.069 176.1355
23.780218 104.070 176.0313
23.952539 104.070 175.9311
24.126110 104.070 175.8281
24.300938 104.070 175.7245
24.477032 104.069 175.6211
24.654402 104.068 175.5172
24.833057 104.067 175.4120
25.013008 104.065 175.3047
25.194263 104.063 175.1892
25.376831 104.060 175.0721
25.560722 104.057 174.9538
25.745945 104.054 174.8350
25.932510 104.050 174.7165
26.120428 104.047 174.5940
26.309708 104.043 174.4704
26.500359 104.040 174.3486
26.692390 104.037 174.2289
26.885815 104.034 174.1109
27.080641 104.032 173.9918
27.276878 104.030 173.8699
27.474539 104.028 173.7488
27.673630 104.026 173.6284
27.874165 104.024 173.5089
28.076153 104.021 173.3889
28.279604 104.018 173.2678
28.484529 104.014 173.1499
28.690941 104.009 173.0359
28.898848 104.004 172.9262
29.108261 103.999 172.8179
29.319191 103.993 172.7106
29.531651 103.987 172.6055
29.745649 103.981 172.5015
29.961199 103.974 172.3977
30.178310 103.967 172.2893
30.396996 103.959 172.1798
30.617264 103.950 172.0708
30.839128 103.941 171.9640
31.062601 103.930 171.8600
31.287693 103.919 171.7593
31.514416 103.907 171.6673
31.742783 103.895 171.5864
31.972803 103.884 171.5186
32.204491 103.875 171.4619
32.437859 103.867 171.4192
32.672916 103.863 171.3895
32.909679 103.862 171.3691
33.148155 103.866 171.3491
33.388359 103.875 171.3225
33.630306 103.888 171.2817
33.874004 103.906 171.2175
34.119469 103.925 171.1209
34.366711 103.946 170.9886
34.615746 103.965 170.8242
34.866585 103.980 170.6339
35.119244 103.991 170.4259
35.373734 103.997 170.2117
35.630066 103.998 170.0033
35.888256 103.996 169.8081
36.148315 103.992 169.6264
36.410259 103.987 169.4571
36.674103 103.982 169.2973
36.939857 103.977 169.1409
37.207539 103.972 168.9808
37.477161 103.966 168.8155
37.748737 103.959 168.6450
38.022282 103.951 168.4704
38.297806 103.941 168.2908
38.575329 103.931 168.1114
38.854862 103.920 167.9331
39.136421 103.910 167.7555
39.420021 103.899 167.5789
39.705673 103.888 167.4055
39.993397 103.877 167.2372
40.283207 103.866 167.0738
40.575115 103.856 166.9196
40.869141 103.846 166.7752
41.165295 103.836 166.6377
41.463596 103.827 166.5051
41.764057 103.819 166.3763
42.066696 103.811 166.2483
42.371529 103.803 166.1179
42.678570 103.794 165.9851
42.987835 103.785 165.8488
43.299343 103.775 165.7059
43.613110 103.765 165.5587
43.929150 103.754 165.4074
44.247478 103.743 165.2503
44.568115 103.732 165.0906
44.891075 103.721 164.9312
45.216373 103.709 164.7736
45.544029 103.697 164.6208
45.874062 103.686 164.4750
46.206486 103.675 164.3353
46.541317 103.665 164.2010
46.878574 103.655 164.0704
47.218277 103.646 163.9381
47.560440 103.637 163.8011
47.905083 103.627 163.6581
48.252224 103.617 163.5076
48.601879 103.606 163.3528
48.954067 103.593 163.1976
49.308807 103.580 163.0450
49.666119 103.566 162.8973
50.026020 103.552 162.7540
50.388531 103.539 162.6105
50.753666 103.527 162.4657
51.121449 103.515 162.3159
51.491894 103.504 162.1592
51.865025 103.492 161.9974
52.240860 103.481 161.8320
52.619419 103.468 161.6667
53.000721 103.455 161.5052
53.384785 103.442 161.3479
53.771633 103.428 161.1977
54.161285 103.413 161.0536
54.553761 103.399 160.9134
54.949081 103.383 160.7756
55.347263 103.368 160.6364
55.748333 103.353 160.4951
56.152309 103.338 160.3498
56.559212 103.324 160.1993
56.969063 103.309 160.0442
57.381886 103.293 159.8830
57.797699 103.277 159.7210
58.216526 103.260 159.5618
58.638386 103.242 159.4086
59.063305 103.223 159.2619
59.491302 103.204 159.1187
59.922401 103.185 158.9770
60.356625 103.168 158.8315
60.793995 103.152 158.6814
61.234531 103.136 158.5265
61.678261 103.120 158.3685
62.125206 103.105 158.2108
62.575390 103.089 158.0558
63.028835 103.072 157.9056
63.485569 103.053 157.7600
63.945610 103.035 157.6201
64.408989 103.015 157.4821
64.875725 102.996 157.3435
65.345840 102.976 157.2007
65.819366 102.956 157.0526
66.296318 102.936 156.8991
66.776726 102.916 156.7433
67.260620 102.895 156.5893
67.748016 102.874 156.4382
68.238945 102.854 156.2885
68.733429 102.834 156.1387
69.231499 102.815 155.9875
69.733177 102.795 155.8316
70.238495 102.775 155.6682
70.747475 102.755 155.4989
71.260139 102.733 155.3286
71.776520 102.710 155.1645
72.296638 102.686 155.0125
72.820526 102.662 154.8719
73.348213 102.639 154.7380
73.879723 102.615 154.6056
74.415085 102.591 154.4700
74.954330 102.567 154.3309
75.497482 102.542 154.1888
76.044571 102.517 154.0443
76.595619 102.492 153.8993
77.150665 102.467 153.7552
77.709732 102.442 153.6118
78.272850 102.416 153.4675
78.840050 102.390 153.3212
79.411354 102.364 153.1738
79.986801 102.337 153.0262
80.566422 102.310 152.8788
81.150238 102.283 152.7325
81.738289 102.256 152.5875
82.330597 102.229 152.4418
82.927200 102.201 152.2963
83.528122 102.174 152.1539
84.133400 102.145 152.0130
84.743065 102.117 151.8717
85.357147 102.089 151.7303
85.975677 102.060 151.5890
86.598694 102.032 151.4507
87.226227 102.003 151.3127
87.858307 101.975 151.1740
88.494965 101.946 151.0370
89.136238 101.916 150.9014
89.782158 101.886 150.7675
90.432755 101.855 150.6340
91.088066 101.824 150.5009
91.748131 101.793 150.3685
92.412979 101.762 150.2351
93.082642 101.731 150.1008
93.757156 101.699 149.9662
94.436562 101.667 149.8344
95.120888 101.634 149.7059
95.810173 101.601 149.5801
96.504456 101.567 149.4578
97.203766 101.533 149.3363
97.908142 101.499 149.2130
98.617622 101.464 149.0921
99.332245 101.430 148.9728
100.052048 101.396 148.8548
100.777069 101.361 148.7361
101.507339 101.326 148.6193
102.242905 101.291 148.5047
102.983795 101.255 148.3927
103.730057 101.219 148.2804
104.481728 101.183 148.1717
105.238846 101.146 148.0656
106.001450 101.110 147.9607
106.769577 101.073 147.8534
107.543274 101.037 147.7469
108.322578 101.000 147.6429
109.107529 100.963 147.5424
109.898170 100.926 147.4418
110.694534 100.888 147.3419
111.496674 100.850 147.2449
112.304626 100.811 147.1515
113.118431 100.772 147.0629
113.938133 100.732 146.9813
114.763779 100.692 146.9071
115.595406 100.652 146.8436
116.433060 100.612 146.7887
117.276779 100.573 146.7448
118.126617 100.532 146.7118
118.982613 100.491 146.6718
119.844810 100.447 146.6131
120.713257 100.402 146.5271
121.587997 100.355 146.4125
122.469070 100.308 146.2754
123.356529 100.263 146.1274
124.250420 100.220 145.9808
125.150787 100.180 145.8448
126.057678 100.145 145.7319
126.971146 100.112 145.6524
127.891228 100.082 145.6086
128.817978 100.050 145.6049
129.751450 100.014 145.6320
130.691681 99.971 145.6708
131.638733 99.922 145.6965
132.592636 99.866 145.6863
133.553452 99.807 145.6273
134.521240 99.749 145.5260
135.496033 99.695 145.4068
136.477890 99.646 145.2986
137.466858 99.600 145.2245
138.462997 99.555 145.1867
139.466354 99.508 145.1675
140.476990 99.460 145.1459
141.494949 99.410 145.1078
142.520279 99.360 145.0581
143.553040 99.310 145.0107
144.593277 99.260 144.9730
145.641052 99.210 144.9462
146.696426 99.158 144.9285
147.759445 99.106 144.9186
148.830170 99.053 144.9123
149.908661 99.000 144.9110
150.994965 98.946 144.9193
152.089142 98.892 144.9352
153.191238 98.838 144.9628
154.301331 98.783 145.0012
155.419464 98.728 145.0484
156.545700 98.672 145.1081
157.680099 98.616 145.1806
158.822708 98.561 145.2636
159.973602 98.507 145.3608
161.132843 98.455 145.4695
162.300476 98.403 145.5908
163.476578 98.354 145.7244
164.661194 98.308 145.8682
165.854401 98.265 146.0205
167.056244 98.225 146.1809
168.266800 98.188 146.3415
169.486130 98.154 146.4949
170.714294 98.122 146.6295
171.951355 98.092 146.7321
173.197388 98.063 146.8006
174.452454 98.037 146.8457
175.716614 98.012 146.8882
176.989929 97.986 146.9470
178.272476 97.956 147.0146
179.564316 97.919 147.0765
180.865509 97.878 147.1188
182.176132 97.835 147.1319
183.496262 97.790 147.1367
184.825958 97.744 147.1425
186.165283 97.698 147.1552
187.514313 97.650 147.1771
188.873123 97.602 147.2067
190.241776 97.554 147.2594
191.620346 97.505 147.3273
193.008911 97.457 147.4179
194.407532 97.408 147.5105
195.816284 97.360 147.6130
197.235245 97.310 147.7169
198.664490 97.260 147.8266
200.104095 97.209 147.9441
201.554138 97.159 148.0687
203.014679 97.109 148.1980
204.485809 97.061 148.3261
205.967590 97.013 148.4494
207.460114 96.964 148.5687
208.963455 96.914 148.6991
210.477692 96.865 148.8455
212.002899 96.816 149.0093
213.539154 96.769 149.1863
215.086548 96.724 149.3686
216.645157 96.680 149.5534
218.215057 96.635 149.7304
219.796341 96.591 149.9037
221.389069 96.546 150.0797
222.993347 96.501 150.2584
224.609253 96.456 150.4423
226.236862 96.412 150.6314
227.876266 96.369 150.8255
229.527557 96.326 151.0250
231.190811 96.285 151.2282
232.866119 96.244 151.4365
234.553558 96.203 151.6444
236.253235 96.163 151.8591
237.965225 96.124 152.0800
239.689621 96.084 152.3021
241.426514 96.045 152.5299
243.175995 96.007 152.7622
244.938141 95.969 152.9977
246.713058 95.932 153.2344
248.500839 95.895 153.4751
250.301575 95.859 153.7126
252.115356 95.824 153.9518
253.942291 95.789 154.1960
255.782455 95.755 154.4422
257.635956 95.721 154.6944
259.502899 95.689 154.9439
261.383362 95.657 155.1907
263.277466 95.625 155.4424
265.185272 95.594 155.6914
267.106903 95.563 155.9410
269.042480 95.533 156.1894
270.992065 95.503 156.4430
272.955780 95.474 156.6978
274.933716 95.445 156.9549
276.925995 95.416 157.2187
278.932709 95.389 157.4819
280.953979 95.362 157.7524
282.989899 95.336 158.0326
285.040558 95.310 158.3107
287.106079 95.285 158.5887
289.186554 95.261 158.8651
291.282104 95.236 159.1406
293.392853 95.213 159.4147
295.518890 95.190 159.6895
297.660339 95.167 159.9616
299.817322 95.145 160.2321
301.989929 95.124 160.5058
304.178284 95.103 160.7773
306.382477 95.083 161.0468
308.602661 95.063 161.3174
310.838928 95.044 161.5878
313.091400 95.026 161.8574
315.360199 95.008 162.1277
317.645416 94.990 162.3951
319.947205 94.973 162.6653
322.265686 94.957 162.9348
324.600952 94.940 163.2047
326.953156 94.924 163.4769
329.322388 94.909 163.7476
331.708801 94.893 164.0172
334.112488 94.878 164.2875
336.533600 94.863 164.5598
338.972260 94.849 164.8314
341.428589 94.835 165.1022
343.902710 94.822 165.3703
346.394775 94.809 165.6387
348.904907 94.796 165.9071
351.433228 94.784 166.1808
353.979858 94.771 166.4565
356.544952 94.758 166.7382
359.128632 94.745 167.0254
361.731018 94.732 167.3167
364.352264 94.720 167.6151
366.992523 94.709 167.9184
369.651917 94.699 168.2318
372.330566 94.691 168.5427
375.028625 94.684 168.8658
377.746246 94.679 169.1897
380.483551 94.677 169.5192
383.240692 94.677 169.8470
386.017822 94.681 170.1721
388.815063 94.687 170.4913
391.632568 94.696 170.7904
394.470490 94.707 171.0715
397.328979 94.719 171.3296
400.208191 94.731 171.5605
403.108276 94.743 171.7727
406.029358 94.754 171.9611
408.971619 94.763 172.1325
411.935181 94.770 172.2940
414.920227 94.776 172.4543
417.926910 94.779 172.6077
420.955383 94.781 172.7650
424.005798 94.782 172.9207
427.078308 94.781 173.0826
430.173096 94.780 173.2497
433.290314 94.779 173.4207
436.430115 94.778 173.5992
439.592682 94.777 173.7778
442.778137 94.777 173.9560
445.986694 94.775 174.1337
449.218506 94.774 174.3150
452.473724 94.771 174.4940
455.752533 94.768 174.6708
459.055115 94.765 174.8448
462.381622 94.762 175.0250
465.732239 94.759 175.2027
469.107117 94.755 175.3813
472.506470 94.752 175.5676
475.930450 94.748 175.7504
479.379242 94.744 175.9353
482.853027 94.740 176.1217
486.351990 94.736 176.3063
489.876282 94.732 176.4966
493.426117 94.728 176.6875
497.001678 94.724 176.8720
500.603149 94.720 177.0639
504.230713 94.717 177.2546
507.884583 94.713 177.4469
511.564911 94.709 177.6381
515.271912 94.706 177.8326
519.005798 94.702 178.0303
522.766724 94.698 178.2231
526.554932 94.694 178.4229
530.370544 94.691 178.6156
534.213806 94.687 178.8154
538.084961 94.683 179.0100
541.984131 94.680 179.2042
545.911560 94.676 179.4053
549.867432 94.673 179.6034
553.851990 94.669 179.8014
557.865417 94.666 -179.9985
561.907959 94.662 -179.7943
565.979797 94.659 -179.5913
570.081116 94.655 -179.3870
574.212158 94.651 -179.1811
578.373108 94.648 -178.9737
582.564209 94.644 -178.7640
586.785706 94.640 -178.5511
591.037781 94.637 -178.3398
595.320679 94.633 -178.1266
599.634644 94.630 -177.9091
603.979858 94.626 -177.6905
608.356567 94.623 -177.4689
612.764954 94.619 -177.2433
617.205322 94.616 -177.0198
621.677856 94.612 -176.7917
626.182800 94.609 -176.5624
630.720398 94.606 -176.3289
635.290833 94.602 -176.0945
639.894409 94.599 -175.8579
644.531372 94.595 -175.6172
649.201904 94.592 -175.3739
653.906311 94.589 -175.1294
658.644775 94.585 -174.8787
663.417603 94.582 -174.6270
668.224976 94.579 -174.3715
673.067200 94.576 -174.1126
677.944519 94.573 -173.8501
682.857178 94.571 -173.5843
687.805420 94.568 -173.3140
692.789551 94.566 -173.0332
697.809814 94.563 -172.7524
702.866455 94.561 -172.4619
707.959717 94.560 -172.1641
713.089905 94.559 -171.8612
718.257263 94.559 -171.5532
723.462036 94.560 -171.2300
728.704529 94.562 -170.9056
733.985046 94.565 -170.5781
739.303833 94.570 -170.2426
744.661133 94.576 -169.9066
750.057251 94.583 -169.5731
755.492493 94.591 -169.2393
760.967102 94.600 -168.9095
766.481384 94.610 -168.5807
772.035645 94.620 -168.2534
777.630127 94.630 -167.9227
783.265137 94.641 -167.5941
788.940979 94.652 -167.2573
794.657959 94.664 -166.9222
800.416382 94.676 -166.5840
806.216553 94.689 -166.2371
812.058716 94.703 -165.8892
817.943237 94.719 -165.5333
823.870361 94.735 -165.1743
829.840454 94.752 -164.8165
835.853821 94.770 -164.4541
841.910767 94.789 -164.0907
848.011597 94.810 -163.7208
854.156616 94.832 -163.3536
860.346191 94.855 -162.9825
866.580627 94.880 -162.6092
872.860229 94.905 -162.2341
879.185364 94.933 -161.8630
885.556274 94.961 -161.4879
891.973389 94.991 -161.1188
898.437012 95.023 -160.7429
904.947449 95.056 -160.3698
911.505066 95.090 -160.0033
918.110229 95.126 -159.6328
924.763245 95.164 -159.2681
931.464478 95.203 -158.8991
938.214233 95.244 -158.5380
945.012939 95.286 -158.1812
951.860901 95.330 -157.8326
958.758484 95.375 -157.4822
965.706055 95.422 -157.1418
972.703979 95.470 -156.8021
979.752563 95.520 -156.4667
986.852234 95.571 -156.1445
994.003357 95.623 -155.8257
1001.206299 95.677 -155.5152
1008.461426 95.732 -155.2108
1015.769165 95.788 -154.9232
1023.129822 95.846 -154.6395
1030.543823 95.904 -154.3643
1038.011597 95.963 -154.1014
1045.533447 96.023 -153.8477
1053.109863 96.083 -153.6004
1060.741089 96.145 -153.3698
1068.427612 96.207 -153.1476
1076.169922 96.269 -152.9304
1083.968262 96.331 -152.7279
1091.823120 96.394 -152.5375
1099.734863 96.457 -152.3545
1107.703979 96.520 -152.1810
1115.730835 96.584 -152.0203
1123.815918 96.647 -151.8646
1131.959595 96.710 -151.7159
1140.162231 96.772 -151.5832
1148.424316 96.834 -151.4457
1156.746216 96.896 -151.3205
1165.128418 96.958 -151.1987
1173.571411 97.019 -151.0829
1182.075562 97.081 -150.9742
1190.641357 97.142 -150.8632
1199.269287 97.203 -150.7634
1207.959717 97.264 -150.6666
1216.713135 97.325 -150.5703
1225.529907 97.387 -150.4822
1234.410645 97.448 -150.3933
1243.355713 97.509 -150.3124
1252.365601 97.570 -150.2322
1261.440796 97.631 -150.1619
1270.581665 97.693 -150.0871
1279.788818 97.755 -150.0216
1289.062744 97.816 -149.9634
1298.403809 97.878 -149.9072
1307.812622 97.940 -149.8543
1317.289551 98.002 -149.8127
1326.835205 98.064 -149.7672
1336.449951 98.126 -149.7288
1346.134399 98.187 -149.6940
1355.889038 98.249 -149.6677
1365.714355 98.311 -149.6408
1375.610840 98.372 -149.6155
1385.579102 98.434 -149.5904
1395.619629 98.496 -149.5743
1405.732910 98.558 -149.5590
1415.919434 98.620 -149.5500
1426.179810 98.683 -149.5404
1436.514526 98.745 -149.5383
1446.924072 98.808 -149.5289
1457.409058 98.871 -149.5320
1467.970093 98.934 -149.5348
1478.607666 98.998 -149.5437
1489.322266 99.062 -149.5468
1500.114502 99.126 -149.5555
1510.984985 99.191 -149.5687
1521.934204 99.256 -149.5935
1532.962769 99.322 -149.6122
1544.071289 99.388 -149.6405
1555.260254 99.455 -149.6710
1566.530273 99.522 -149.7062
1577.881958 99.591 -149.7367
1589.315918 99.659 -149.7874
1600.832764 99.729 -149.8378
1612.433105 99.799 -149.8871
1624.117432 99.870 -149.9494
1635.886475 99.941 -150.0155
1647.740723 100.014 -150.0916
1659.680908 100.087 -150.1696
1671.707642 100.161 -150.2597
1683.821533 100.235 -150.3597
1696.023193 100.310 -150.4699
1708.313232 100.386 -150.5791
1720.692383 100.463 -150.7037
1733.161255 100.540 -150.8364
1745.720459 100.617 -150.9881
1758.370728 100.695 -151.1450
1771.112549 100.774 -151.3188
1783.946777 100.852 -151.4927
1796.874023 100.932 -151.6763
1809.894897 101.011 -151.8915
1823.010132 101.091 -152.1071
1836.220459 101.172 -152.3328
1849.526489 101.252 -152.5755
1862.928955 101.333 -152.8240
1876.428467 101.413 -153.0933
1890.025879 101.494 -153.3681
1903.721802 101.575 -153.6614
1917.516968 101.656 -153.9625
1931.412109 101.738 -154.2815
1945.407959 101.820 -154.6091
1959.505127 101.902 -154.9551
1973.704468 101.985 -155.3182
1988.006714 102.069 -155.6964
2002.412598 102.152 -156.1019
2016.922852 102.236 -156.5273
2031.538330 102.319 -156.9802
2046.259644 102.401 -157.4559
2061.087646 102.481 -157.9554
2076.023193 102.560 -158.4710
2091.066895 102.638 -159.0188
2106.219727 102.713 -159.5770
2121.482178 102.787 -160.1615
2136.855225 102.860 -160.7460
2152.339844 102.932 -161.3470
2167.936523 103.005 -161.9576
2183.646240 103.079 -162.6147
2199.469727 103.153 -163.2899
2215.407959 103.229 -164.0106
2231.461670 103.304 -164.7806
2247.631836 103.376 -165.6052
2263.919189 103.446 -166.4915
2280.324463 103.508 -167.4367
2296.848633 103.563 -168.4496
2313.492432 103.607 -169.5164
2330.256836 103.639 -170.6212
2347.142822 103.659 -171.7482
2364.151123 103.666 -172.8824
2381.282715 103.661 -174.0134
2398.538574 103.645 -175.1444
2415.919434 103.617 -176.2535
2433.426270 103.579 -177.3337
2451.059814 103.531 -178.3860
2468.821289 103.475 -179.4132
2486.711426 103.410 179.6033
2504.731201 103.339 178.6352
2522.881592 103.261 177.7118
2541.163330 103.176 176.8352
2559.577637 103.086 176.0037
2578.125488 102.992 175.2290
2596.807617 102.892 174.4470
2615.625244 102.789 173.7308
2634.579102 102.682 173.0534
2653.670410 102.571 172.4338
2672.899902 102.458 171.8614
2692.268799 102.341 171.3288
2711.778076 102.223 170.8264
2731.428711 102.102 170.3808
2751.221680 101.980 169.9917
2771.158203 101.857 169.6512
2791.239258 101.734 169.3505
2811.465820 101.610 169.1103
2831.838867 101.487 168.9234
2852.359619 101.365 168.7729
2873.029053 101.244 168.6829
2893.848145 101.125 168.6378
2914.818115 101.008 168.6256
2935.940186 100.894 168.6980
2957.215332 100.784 168.7847
2978.644531 100.677 168.9260
3000.229004 100.574 169.1085
3021.969971 100.477 169.3529
3043.868408 100.386 169.6259
3065.925537 100.302 169.9225
3088.142578 100.225 170.2694
3110.520508 100.157 170.6503
3133.060547 100.099 171.0313
3155.763916 100.050 171.4211
3178.631836 100.011 171.8277
3201.665527 99.981 172.2154
3224.866211 99.962 172.5731
3248.234863 99.951 172.8891
3271.772949 99.946 173.1582
3295.481445 99.947 173.3691
3319.361816 99.951 173.5161
3343.415283 99.955 173.5941
3367.643066 99.956 173.6095
3392.046387 99.953 173.5848
3416.626465 99.943 173.5099
3441.384766 99.925 173.4024
3466.322510 99.898 173.3068
3491.440918 99.863 173.2024
3516.741455 99.821 173.1197
3542.225098 99.773 173.0824
3567.893555 99.720 173.0875
3593.748047 99.664 173.1166
3619.789795 99.607 173.2267
3646.020264 99.550 173.3780
3672.440918 99.494 173.5538
3699.052979 99.442 173.7861
3725.857910 99.393 174.0672
3752.856934 99.349 174.3703
3780.051758 99.309 174.7215
3807.443604 99.275 175.0865
3835.033936 99.247 175.4744
3862.824219 99.225 175.8871
3890.815918 99.208 176.3005
3919.010254 99.197 176.7247
3947.408936 99.193 177.1712
3976.013428 99.194 177.5964
4004.825195 99.202 178.0492
4033.845703 99.215 178.4941
4063.076660 99.235 178.9263
4092.519287 99.262 179.3748
4122.175293 99.295 179.8143
4152.046387 99.335 -179.7520
4182.133789 99.381 -179.3452
4212.439453 99.435 -178.9495
4242.964355 99.495 -178.5687
4273.710449 99.563 -178.1978
4304.679688 99.637 -177.8519
4335.873047 99.719 -177.5444
4367.292480 99.809 -177.2431
4398.939453 99.908 -176.9868
4430.815918 100.015 -176.7659
4462.923340 100.132 -176.5858
4495.263672 100.258 -176.4758
4527.838379 100.394 -176.4229
4560.648926 100.538 -176.4571
4593.697266 100.690 -176.5861
4626.984863 100.848 -176.8245
4660.513672 101.011 -177.1672
4694.285645 101.177 -177.6681
4728.302246 101.342 -178.2673
4762.565430 101.505 -179.0300
4797.077148 101.662 -179.9308
4831.838867 101.809 179.0168
4866.852539 101.945 177.8345
4902.119629 102.064 176.5014
4937.642578 102.163 175.0609
4973.422852 102.240 173.5017
5009.462402 102.290 171.8686
5045.763184 102.312 170.1680
5082.326660 102.304 168.4476
5119.155273 102.265 166.7369
5156.250977 102.197 165.0575
5193.615234 102.100 163.4499
5231.250488 101.977 161.9547
5269.158203 101.832 160.5902
5307.340820 101.668 159.3573
5345.799805 101.491 158.3084
5384.537598 101.306 157.4199
5423.556152 101.118 156.7017
5462.857422 100.934 156.1539
5502.443359 100.759 155.7424
5542.316406 100.597 155.4468
5582.478516 100.453 155.2490
5622.931641 100.328 155.0611
5663.677734 100.222 154.8742
5704.719238 100.134 154.6299
5746.058105 100.057 154.2878
5787.696289 99.985 153.8227
5829.636230 99.909 153.1874
5871.880371 99.820 152.4276
5914.430664 99.709 151.5535
5957.289062 99.568 150.6108
6000.458008 99.393 149.6680
6043.939941 99.182 148.8171
6087.736816 98.937 148.0581
6131.851074 98.663 147.5270
6176.285156 98.365 147.2113
6221.041016 98.053 147.1796
6266.121094 97.735 147.4252
6311.527832 97.418 147.9549
6357.263672 97.112 148.7538
6403.331055 96.822 149.7912
6449.732422 96.554 151.0491
6496.469727 96.310 152.4978
6543.545898 96.094 154.1302
6590.962891 95.908 155.8595
6638.723633 95.752 157.7110
6686.830566 95.627 159.6554
6735.286133 95.533 161.6442
6784.092773 95.471 163.6842
6833.252930 95.442 165.7803
6882.769531 95.445 167.8844
6932.645020 95.481 169.9845
6982.881836 95.550 172.0487
7033.482910 95.653 174.0928
7084.450195 95.790 176.0770
7135.787109 95.960 177.9933
7187.496094 96.166 179.8423
7239.579590 96.409 -178.4144
7292.040527 96.691 -176.7951
7344.881836 97.013 -175.3390
7398.105957 97.378 -174.0614
7451.715820 97.784 -173.0334
7505.713867 98.232 -172.3238
7560.103516 98.716 -171.9667
7614.887207 99.232 -172.0662
7670.067871 99.767 -172.6872
7725.648438 100.311 -173.8577
7781.631836 100.846 -175.6257
7838.020508 101.354 -178.0219
7894.817871 101.815 178.9759
7952.026855 102.210 175.3869
8009.650391 102.519 171.3121
8067.691406 102.726 166.8218
8126.153320 102.820 162.0997
8185.038574 102.794 157.2789
8244.350586 102.650 152.4926
8304.092773 102.392 147.9255
8364.267578 102.031 143.6716
8424.878906 101.582 139.8415
8485.928711 101.062 136.5193
8547.420898 100.488 133.7226
8609.359375 99.876 131.4820
8671.746094 99.243 129.7724
8734.584961 98.602 128.5834
8797.878906 97.963 127.8749
8861.631836 97.335 127.6103
8925.846680 96.725 127.7390
8990.527344 96.139 128.2401
9055.676758 95.580 129.0557
9121.297852 95.052 130.1667
9187.394531 94.556 131.5446
9253.969727 94.096 133.1308
9321.027344 93.672 134.9247
9388.571289 93.286 136.8808
9456.604492 92.937 138.9695
9525.130859 92.627 141.1707
9594.154297 92.355 143.4302
9663.677734 92.121 145.7568
9733.705078 91.924 148.1182
9804.239258 91.762 150.4651
9875.285156 91.634 152.8097
9946.845703 91.535 155.1060
10018.924805 91.463 157.3429
10091.526367 91.413 159.5353
10164.653320 91.383 161.6932
10238.310547 91.369 163.8479
10312.501953 91.373 166.0307
10387.230469 91.400 168.3020
10462.500977 91.457 170.6891
10538.316406 91.555 173.1786
10614.681641 91.707 175.7403
10691.599609 91.919 178.3174
10769.075195 92.198 -179.2015
10847.112305 92.545 -176.9394
10925.714844 92.955 -174.9639
11004.886719 93.423 -173.3905
11084.632812 93.936 -172.3007
11164.957031 94.482 -171.7670
11245.863281 95.044 -171.8893
11327.355469 95.602 -172.6749
11409.438477 96.133 -174.1135
11492.116211 96.615 -176.2344
11575.392578 97.025 -178.9251
11659.272461 97.343 177.9030
11743.760742 97.555 174.4073
11828.861328 97.650 170.7551
11914.578125 97.631 167.1343
12000.916016 97.504 163.7300
12087.879883 97.286 160.6816
12175.473633 96.998 158.0879
12263.702148 96.663 155.9971
12352.570312 96.301 154.3934
12442.082031 95.929 153.2458
12532.242188 95.558 152.5255
12623.055664 95.196 152.1363
12714.527344 94.848 152.1014
12806.662109 94.516 152.3404
12899.464844 94.205 152.8771
12992.939453 93.919 153.6874
13087.091797 93.666 154.7340
13181.925781 93.450 156.0116
13277.447266 93.280 157.4589
13373.661133 93.160 159.0281
13470.572266 93.096 160.6611
13568.185547 93.093 162.2805
13666.505859 93.151 163.8152
13765.539062 93.272 165.1857
13865.290039 93.453 166.2932
13965.763672 93.690 167.0731
14066.965820 93.975 167.4227
14168.900391 94.297 167.2512
14271.574219 94.639 166.5138
14374.992188 94.985 165.1465
14479.159180 95.312 163.1728
14584.081055 95.596 160.5559
14689.763672 95.815 157.3907
14796.211914 95.947 153.7842
14903.431641 95.977 149.8942
15011.427734 95.893 145.8714
15120.207031 95.694 141.9251
15229.774414 95.383 138.2600
15340.135742 94.976 135.0465
15451.296875 94.492 132.4761
15563.263672 93.961 130.5945
15676.041016 93.415 129.4759
15789.635742 92.887 129.0502
15904.053711 92.405 129.2643
16019.300781 91.988 129.9211
16135.382812 91.646 130.9017
16252.306641 91.380 132.0719
16370.077148 91.184 133.3567
16488.701172 91.054 134.7568
16608.185547 90.991 136.2260
16728.535156 91.003 137.7749
16849.757812 91.103 139.3442
16971.857422 91.301 140.7940
17094.841797 91.602 141.9725
17218.718750 91.999 142.6433
17343.492188 92.477 142.6531
17469.169922 93.007 141.8109
17595.757812 93.553 140.0185
17723.263672 94.076 137.2076
17851.693359 94.533 133.4546
17981.054688 94.889 128.8598
18111.353516 95.118 123.6522
18242.595703 95.219 118.0949
18374.789062 95.215 112.4163
18507.939453 95.157 106.7335
18642.054688 95.096 100.9666
18777.142578 95.054 94.8049
18913.208984 94.996 88.0280
19050.261719 94.851 80.5229
19188.308594 94.547 72.5399
19327.355469 94.048 64.4293
19467.410156 93.367 56.6737
19608.478516 92.558 49.6304
19750.570312 91.723 43.6576
19893.691406 91.010 39.1495
20037.849609 0.000 396.5340
