* Measurement data measured by REW V5.30.4
* Source: EXCL: Headset (CX31993 HIFI AUDIO), MICROPHONE (Master Volume), 0, volume: 0.360
* Format: 256k Log Swept Sine, 1 sweep at -12.0 dBFS with no timing reference
* Dated: 01 19, 24 2:37:57 PM
* REW Settings:
*  C-weighting compensation: Off
*  Target level: 75.0 dB
* Note: ; 
* Measurement: Binary x Gizaudio Chopin L
* Smoothing: 1/12 octave
* Frequency Step: 96 ppo
* Start Frequency: 20.141602 Hz
*
* Freq(Hz) SPL(dB) Phase(degrees)
20.141602 91.752 -140.2327
20.287556 91.758 -140.4204
20.434568 91.766 -140.7008
20.582645 91.776 -141.0538
20.731796 91.785 -141.4613
20.882027 91.794 -141.9081
21.033346 91.802 -142.3818
21.185762 91.809 -142.8721
21.339283 91.816 -143.3696
21.493916 91.823 -143.8660
21.649670 91.831 -144.3535
21.806553 91.841 -144.8255
21.964573 91.853 -145.2765
22.123737 91.868 -145.7023
22.284056 91.885 -146.1006
22.445536 91.906 -146.4707
22.608185 91.929 -146.8140
22.772013 91.955 -147.1333
22.937029 91.982 -147.4333
23.103241 92.011 -147.7194
23.270657 92.040 -147.9982
23.439285 92.068 -148.2764
23.609137 92.094 -148.5605
23.780218 92.119 -148.8563
23.952539 92.140 -149.1687
24.126110 92.158 -149.5010
24.300938 92.173 -149.8552
24.477032 92.185 -150.2318
24.654402 92.194 -150.6301
24.833057 92.201 -151.0486
25.013008 92.208 -151.4854
25.194263 92.216 -151.9384
25.376831 92.224 -152.4059
25.560722 92.235 -152.8865
25.745945 92.249 -153.3788
25.932510 92.265 -153.8816
26.120428 92.282 -154.3929
26.309708 92.300 -154.9097
26.500359 92.318 -155.4280
26.692390 92.334 -155.9425
26.885815 92.347 -156.4477
27.080641 92.356 -156.9380
27.276878 92.362 -157.4092
27.474539 92.364 -157.8594
27.673630 92.364 -158.2891
27.874165 92.361 -158.7016
28.076153 92.357 -159.1023
28.279604 92.352 -159.4971
28.484529 92.346 -159.8911
28.690941 92.340 -160.2872
28.898848 92.333 -160.6852
29.108261 92.326 -161.0822
29.319191 92.319 -161.4738
29.531651 92.312 -161.8560
29.745649 92.308 -162.2275
29.961199 92.308 -162.5907
30.178310 92.311 -162.9521
30.396996 92.318 -163.3202
30.617264 92.326 -163.7032
30.839128 92.335 -164.1048
31.062601 92.340 -164.5218
31.287693 92.340 -164.9427
31.514416 92.333 -165.3496
31.742783 92.320 -165.7220
31.972803 92.303 -166.0423
32.204491 92.286 -166.3014
32.437859 92.275 -166.5034
32.672916 92.272 -166.6660
32.909679 92.281 -166.8173
33.148155 92.301 -166.9891
33.388359 92.330 -167.2086
33.630306 92.365 -167.4920
33.874004 92.400 -167.8420
34.119469 92.433 -168.2495
34.366711 92.463 -168.6988
34.615746 92.489 -169.1738
34.866585 92.512 -169.6632
35.119244 92.533 -170.1616
35.373734 92.553 -170.6684
35.630066 92.571 -171.1828
35.888256 92.585 -171.7001
36.148315 92.594 -172.2095
36.410259 92.596 -172.6959
36.674103 92.593 -173.1455
36.939857 92.588 -173.5522
37.207539 92.583 -173.9224
37.477161 92.582 -174.2753
37.748737 92.584 -174.6374
38.022282 92.589 -175.0332
38.297806 92.592 -175.4755
38.575329 92.591 -175.9598
38.854862 92.583 -176.4653
39.136421 92.567 -176.9621
39.420021 92.545 -177.4214
39.705673 92.521 -177.8267
39.993397 92.501 -178.1781
40.283207 92.487 -178.4920
40.575115 92.479 -178.7935
40.869141 92.476 -179.1066
41.165295 92.475 -179.4460
41.463596 92.472 -179.8146
41.764057 92.466 179.7948
42.066696 92.456 179.3936
42.371529 92.443 178.9916
42.678570 92.428 178.5949
42.987835 92.412 178.2052
43.299343 92.396 177.8226
43.613110 92.379 177.4474
43.929150 92.362 177.0809
44.247478 92.344 176.7239
44.568115 92.326 176.3743
44.891075 92.308 176.0267
45.216373 92.290 175.6735
45.544029 92.273 175.3081
45.874062 92.255 174.9290
46.206486 92.236 174.5406
46.541317 92.216 174.1531
46.878574 92.195 173.7776
47.218277 92.175 173.4222
47.560440 92.157 173.0882
47.905083 92.142 172.7705
48.252224 92.129 172.4596
48.601879 92.118 172.1458
48.954067 92.107 171.8218
49.308807 92.096 171.4843
49.666119 92.082 171.1323
50.026020 92.067 170.7664
50.388531 92.050 170.3872
50.753666 92.031 169.9957
51.121449 92.011 169.5943
51.491894 91.989 169.1879
51.865025 91.966 168.7831
52.240860 91.942 168.3873
52.619419 91.918 168.0054
53.000721 91.893 167.6389
53.384785 91.868 167.2852
53.771633 91.842 166.9401
54.161285 91.817 166.5992
54.553761 91.791 166.2598
54.949081 91.764 165.9199
55.347263 91.739 165.5773
55.748333 91.717 165.2283
56.152309 91.696 164.8693
56.559212 91.678 164.4992
56.969063 91.660 164.1215
57.381886 91.641 163.7436
57.797699 91.620 163.3743
58.216526 91.595 163.0199
58.638386 91.566 162.6827
59.063305 91.535 162.3613
59.491302 91.501 162.0523
59.922401 91.466 161.7508
60.356625 91.430 161.4512
60.793995 91.396 161.1483
61.234531 91.361 160.8391
61.678261 91.327 160.5237
62.125206 91.292 160.2054
62.575390 91.257 159.8868
63.028835 91.222 159.5674
63.485569 91.187 159.2437
63.945610 91.153 158.9128
64.408989 91.118 158.5761
64.875725 91.082 158.2401
65.345840 91.046 157.9135
65.819366 91.010 157.6023
66.296318 90.973 157.3066
66.776726 90.937 157.0213
67.260620 90.901 156.7388
67.748016 90.865 156.4525
68.238945 90.827 156.1590
68.733429 90.789 155.8576
69.231499 90.749 155.5496
69.733177 90.709 155.2377
70.238495 90.668 154.9262
70.747475 90.627 154.6192
71.260139 90.586 154.3199
71.776520 90.544 154.0291
72.296638 90.502 153.7460
72.820526 90.460 153.4689
73.348213 90.419 153.1959
73.879723 90.379 152.9252
74.415085 90.339 152.6551
74.954330 90.298 152.3844
75.497482 90.257 152.1135
76.044571 90.215 151.8436
76.595619 90.172 151.5767
77.150665 90.128 151.3140
77.709732 90.084 151.0557
78.272850 90.039 150.8011
78.840050 89.993 150.5489
79.411354 89.947 150.2978
79.986801 89.900 150.0465
80.566422 89.853 149.7938
81.150238 89.805 149.5390
81.738289 89.757 149.2834
82.330597 89.708 149.0298
82.927200 89.660 148.7815
83.528122 89.610 148.5402
84.133400 89.560 148.3058
84.743065 89.510 148.0766
85.357147 89.459 147.8505
85.975677 89.408 147.6264
86.598694 89.357 147.4048
87.226227 89.306 147.1870
87.858307 89.255 146.9738
88.494965 89.204 146.7650
89.136238 89.153 146.5600
89.782158 89.102 146.3579
90.432755 89.050 146.1582
91.088066 88.998 145.9604
91.748131 88.945 145.7643
92.412979 88.890 145.5700
93.082642 88.835 145.3788
93.757156 88.779 145.1928
94.436562 88.724 145.0133
95.120888 88.668 144.8406
95.810173 88.613 144.6730
96.504456 88.558 144.5076
97.203766 88.504 144.3418
97.908142 88.450 144.1748
98.617622 88.395 144.0082
99.332245 88.340 143.8448
100.052048 88.283 143.6862
100.777069 88.225 143.5322
101.507339 88.166 143.3823
102.242905 88.105 143.2373
102.983795 88.045 143.0981
103.730057 87.985 142.9647
104.481728 87.926 142.8352
105.238846 87.866 142.7071
106.001450 87.807 142.5791
106.769577 87.747 142.4522
107.543274 87.687 142.3299
108.322578 87.628 142.2155
109.107529 87.570 142.1097
109.898170 87.512 142.0117
110.694534 87.455 141.9201
111.496674 87.398 141.8339
112.304626 87.339 141.7522
113.118431 87.279 141.6761
113.938133 87.218 141.6079
114.763779 87.155 141.5499
115.595406 87.094 141.5014
116.433060 87.033 141.4589
117.276779 86.974 141.4185
118.126617 86.916 141.3778
118.982613 86.858 141.3351
119.844810 86.799 141.2899
120.713257 86.738 141.2434
121.587997 86.677 141.1971
122.469070 86.617 141.1511
123.356529 86.558 141.1042
124.250420 86.500 141.0557
125.150787 86.440 141.0053
126.057678 86.377 140.9562
126.971146 86.311 140.9141
127.891228 86.243 140.8837
128.817978 86.174 140.8661
129.751450 86.104 140.8592
130.691681 86.034 140.8591
131.638733 85.965 140.8623
132.592636 85.897 140.8669
133.553452 85.830 140.8737
134.521240 85.762 140.8859
135.496033 85.694 140.9070
136.477890 85.625 140.9388
137.466858 85.555 140.9805
138.462997 85.483 141.0292
139.466354 85.412 141.0819
140.476990 85.341 141.1373
141.494949 85.270 141.1973
142.520279 85.198 141.2657
143.553040 85.124 141.3473
144.593277 85.047 141.4463
145.641052 84.968 141.5648
146.696426 84.886 141.7045
147.759445 84.802 141.8701
148.830170 84.717 142.0703
149.908661 84.632 142.3155
150.994965 84.548 142.6158
152.089142 84.467 142.9775
153.191238 84.391 143.4012
154.301331 84.321 143.8842
155.419464 84.260 144.4199
156.545700 84.210 144.9951
157.680099 84.172 145.5863
158.822708 84.148 146.1619
159.973602 84.139 146.6866
161.132843 84.144 147.1270
162.300476 84.160 147.4570
163.476578 84.181 147.6637
164.661194 84.201 147.7523
165.854401 84.213 147.7462
167.056244 84.215 147.6774
168.266800 84.207 147.5768
169.486130 84.187 147.4703
170.714294 84.160 147.3786
171.951355 84.126 147.3167
173.197388 84.087 147.2914
174.452454 84.045 147.3032
175.716614 84.001 147.3482
176.989929 83.956 147.4199
178.272476 83.910 147.5108
179.564316 83.864 147.6153
180.865509 83.817 147.7305
182.176132 83.770 147.8546
183.496262 83.724 147.9855
184.825958 83.678 148.1214
186.165283 83.634 148.2620
187.514313 83.591 148.4084
188.873123 83.549 148.5615
190.241776 83.507 148.7213
191.620346 83.466 148.8870
193.008911 83.426 149.0580
194.407532 83.386 149.2338
195.816284 83.346 149.4149
197.235245 83.307 149.6021
198.664490 83.269 149.7958
200.104095 83.229 149.9949
201.554138 83.190 150.1981
203.014679 83.150 150.4055
204.485809 83.111 150.6182
205.967590 83.071 150.8372
207.460114 83.033 151.0637
208.963455 82.995 151.2968
210.477692 82.959 151.5335
212.002899 82.924 151.7714
213.539154 82.890 152.0096
215.086548 82.858 152.2489
216.645157 82.827 152.4882
218.215057 82.797 152.7256
219.796341 82.768 152.9615
221.389069 82.740 153.1980
222.993347 82.712 153.4373
224.609253 82.684 153.6805
226.236862 82.657 153.9279
227.876266 82.631 154.1788
229.527557 82.606 154.4313
231.190811 82.583 154.6833
232.866119 82.560 154.9344
234.553558 82.539 155.1852
236.253235 82.520 155.4359
237.965225 82.501 155.6863
239.689621 82.483 155.9352
241.426514 82.466 156.1815
243.175995 82.450 156.4246
244.938141 82.435 156.6643
246.713058 82.420 156.9010
248.500839 82.406 157.1362
250.301575 82.392 157.3716
252.115356 82.378 157.6084
253.942291 82.364 157.8465
255.782455 82.351 158.0848
257.635956 82.338 158.3223
259.502899 82.325 158.5579
261.383362 82.313 158.7905
263.277466 82.303 159.0194
265.185272 82.293 159.2448
267.106903 82.283 159.4672
269.042480 82.274 159.6876
270.992065 82.265 159.9065
272.955780 82.257 160.1244
274.933716 82.249 160.3416
276.925995 82.242 160.5580
278.932709 82.236 160.7737
280.953979 82.229 160.9884
282.989899 82.223 161.2016
285.040558 82.218 161.4130
287.106079 82.213 161.6222
289.186554 82.209 161.8293
291.282104 82.205 162.0345
293.392853 82.201 162.2375
295.518890 82.198 162.4373
297.660339 82.195 162.6332
299.817322 82.192 162.8248
301.989929 82.189 163.0131
304.178284 82.187 163.1990
306.382477 82.186 163.3831
308.602661 82.184 163.5655
310.838928 82.183 163.7465
313.091400 82.182 163.9261
315.360199 82.182 164.1042
317.645416 82.181 164.2808
319.947205 82.181 164.4557
322.265686 82.182 164.6295
324.600952 82.183 164.8034
326.953156 82.183 164.9786
329.322388 82.184 165.1555
331.708801 82.185 165.3328
334.112488 82.185 165.5085
336.533600 82.186 165.6809
338.972260 82.187 165.8497
341.428589 82.188 166.0156
343.902710 82.189 166.1805
346.394775 82.190 166.3459
348.904907 82.192 166.5121
351.433228 82.195 166.6787
353.979858 82.198 166.8444
356.544952 82.201 167.0080
359.128632 82.205 167.1689
361.731018 82.210 167.3273
364.352264 82.215 167.4834
366.992523 82.221 167.6368
369.651917 82.228 167.7871
372.330566 82.235 167.9332
375.028625 82.243 168.0739
377.746246 82.251 168.2087
380.483551 82.258 168.3376
383.240692 82.266 168.4609
386.017822 82.274 168.5795
388.815063 82.281 168.6944
391.632568 82.288 168.8066
394.470490 82.294 168.9172
397.328979 82.301 169.0273
400.208191 82.307 169.1382
403.108276 82.312 169.2503
406.029358 82.318 169.3635
408.971619 82.324 169.4780
411.935181 82.329 169.5938
414.920227 82.335 169.7106
417.926910 82.341 169.8274
420.955383 82.348 169.9431
424.005798 82.355 170.0566
427.078308 82.363 170.1670
430.173096 82.372 170.2737
433.290314 82.381 170.3757
436.430115 82.391 170.4720
439.592682 82.401 170.5616
442.778137 82.411 170.6443
445.986694 82.421 170.7205
449.218506 82.430 170.7910
452.473724 82.439 170.8573
455.752533 82.446 170.9207
459.055115 82.452 170.9825
462.381622 82.458 171.0439
465.732239 82.463 171.1057
469.107117 82.468 171.1685
472.506470 82.472 171.2326
475.930450 82.476 171.2987
479.379242 82.481 171.3670
482.853027 82.485 171.4374
486.351990 82.489 171.5095
489.876282 82.493 171.5832
493.426117 82.497 171.6589
497.001678 82.501 171.7369
500.603149 82.505 171.8168
504.230713 82.510 171.8976
507.884583 82.515 171.9782
511.564911 82.521 172.0580
515.271912 82.528 172.1364
519.005798 82.536 172.2120
522.766724 82.543 172.2839
526.554932 82.551 172.3521
530.370544 82.558 172.4190
534.213806 82.565 172.4885
538.084961 82.571 172.5641
541.984131 82.576 172.6481
545.911560 82.581 172.7396
549.867432 82.586 172.8354
553.851990 82.591 172.9314
557.865417 82.595 173.0234
561.907959 82.599 173.1095
565.979797 82.602 173.1898
570.081116 82.606 173.2667
574.212158 82.609 173.3434
578.373108 82.613 173.4229
582.564209 82.618 173.5073
586.785706 82.623 173.5970
591.037781 82.628 173.6904
595.320679 82.634 173.7842
599.634644 82.640 173.8749
603.979858 82.646 173.9600
608.356567 82.652 174.0403
612.764954 82.658 174.1194
617.205322 82.664 174.2018
621.677856 82.670 174.2913
626.182800 82.676 174.3890
630.720398 82.682 174.4941
635.290833 82.688 174.6044
639.894409 82.693 174.7173
644.531372 82.699 174.8300
649.201904 82.704 174.9400
653.906311 82.710 175.0468
658.644775 82.717 175.1511
663.417603 82.725 175.2551
668.224976 82.733 175.3607
673.067200 82.742 175.4691
677.944519 82.751 175.5801
682.857178 82.760 175.6935
687.805420 82.769 175.8096
692.789551 82.778 175.9293
697.809814 82.787 176.0536
702.866455 82.797 176.1827
707.959717 82.806 176.3163
713.089905 82.817 176.4542
718.257263 82.828 176.5965
723.462036 82.839 176.7437
728.704529 82.852 176.8967
733.985046 82.865 177.0571
739.303833 82.879 177.2272
744.661133 82.894 177.4093
750.057251 82.911 177.6055
755.492493 82.929 177.8160
760.967102 82.949 178.0388
766.481384 82.972 178.2691
772.035645 82.998 178.5013
777.630127 83.027 178.7289
783.265137 83.061 178.9454
788.940979 83.098 179.1442
794.657959 83.138 179.3192
800.416382 83.181 179.4667
806.216553 83.226 179.5869
812.058716 83.272 179.6830
817.943237 83.317 179.7601
823.870361 83.361 179.8235
829.840454 83.403 179.8789
835.853821 83.443 179.9314
841.910767 83.483 179.9852
848.011597 83.521 -179.9574
854.156616 83.558 -179.8963
860.346191 83.595 -179.8325
866.580627 83.631 -179.7670
872.860229 83.668 -179.7000
879.185364 83.706 -179.6309
885.556274 83.744 -179.5592
891.973389 83.783 -179.4848
898.437012 83.823 -179.4081
904.947449 83.864 -179.3296
911.505066 83.906 -179.2502
918.110229 83.950 -179.1716
924.763245 83.994 -179.0952
931.464478 84.040 -179.0227
938.214233 84.087 -178.9555
945.012939 84.136 -178.8946
951.860901 84.186 -178.8406
958.758484 84.237 -178.7939
965.706055 84.290 -178.7552
972.703979 84.345 -178.7254
979.752563 84.401 -178.7051
986.852234 84.458 -178.6942
994.003357 84.515 -178.6922
1001.206299 84.574 -178.6986
1008.461426 84.634 -178.7133
1015.769165 84.695 -178.7370
1023.129822 84.756 -178.7707
1030.543823 84.817 -178.8151
1038.011597 84.879 -178.8709
1045.533447 84.941 -178.9378
1053.109863 85.003 -179.0156
1060.741089 85.066 -179.1041
1068.427612 85.129 -179.2036
1076.169922 85.193 -179.3144
1083.968262 85.257 -179.4371
1091.823120 85.321 -179.5714
1099.734863 85.385 -179.7170
1107.703979 85.450 -179.8731
1115.730835 85.513 179.9608
1123.815918 85.577 179.7844
1131.959595 85.640 179.5975
1140.162231 85.703 179.3998
1148.424316 85.766 179.1914
1156.746216 85.827 178.9726
1165.128418 85.888 178.7442
1173.571411 85.949 178.5070
1182.075562 86.009 178.2617
1190.641357 86.068 178.0087
1199.269287 86.126 177.7487
1207.959717 86.183 177.4818
1216.713135 86.240 177.2083
1225.529907 86.296 176.9285
1234.410645 86.351 176.6427
1243.355713 86.405 176.3512
1252.365601 86.459 176.0545
1261.440796 86.512 175.7529
1270.581665 86.565 175.4465
1279.788818 86.617 175.1358
1289.062744 86.669 174.8211
1298.403809 86.720 174.5029
1307.812622 86.770 174.1814
1317.289551 86.820 173.8571
1326.835205 86.869 173.5306
1336.449951 86.918 173.2022
1346.134399 86.965 172.8723
1355.889038 87.013 172.5409
1365.714355 87.059 172.2079
1375.610840 87.106 171.8733
1385.579102 87.152 171.5368
1395.619629 87.198 171.1985
1405.732910 87.244 170.8585
1415.919434 87.289 170.5174
1426.179810 87.335 170.1756
1436.514526 87.380 169.8335
1446.924072 87.426 169.4910
1457.409058 87.472 169.1475
1467.970093 87.517 168.8030
1478.607666 87.563 168.4574
1489.322266 87.609 168.1112
1500.114502 87.654 167.7645
1510.984985 87.700 167.4175
1521.934204 87.746 167.0701
1532.962769 87.791 166.7220
1544.071289 87.837 166.3735
1555.260254 87.883 166.0251
1566.530273 87.930 165.6772
1577.881958 87.977 165.3297
1589.315918 88.024 164.9824
1600.832764 88.073 164.6341
1612.433105 88.123 164.2833
1624.117432 88.175 163.9280
1635.886475 88.227 163.5659
1647.740723 88.281 163.1949
1659.680908 88.336 162.8138
1671.707642 88.391 162.4223
1683.821533 88.446 162.0213
1696.023193 88.502 161.6120
1708.313232 88.557 161.1958
1720.692383 88.612 160.7739
1733.161255 88.667 160.3471
1745.720459 88.723 159.9158
1758.370728 88.778 159.4802
1771.112549 88.833 159.0401
1783.946777 88.889 158.5953
1796.874023 88.946 158.1450
1809.894897 89.003 157.6885
1823.010132 89.061 157.2254
1836.220459 89.120 156.7551
1849.526489 89.179 156.2775
1862.928955 89.239 155.7927
1876.428467 89.300 155.3004
1890.025879 89.362 154.8004
1903.721802 89.424 154.2921
1917.516968 89.487 153.7752
1931.412109 89.550 153.2496
1945.407959 89.614 152.7155
1959.505127 89.679 152.1726
1973.704468 89.744 151.6201
1988.006714 89.810 151.0569
2002.412598 89.876 150.4819
2016.922852 89.944 149.8936
2031.538330 90.012 149.2908
2046.259644 90.081 148.6723
2061.087646 90.151 148.0375
2076.023193 90.221 147.3866
2091.066895 90.290 146.7200
2106.219727 90.359 146.0387
2121.482178 90.428 145.3436
2136.855225 90.496 144.6356
2152.339844 90.563 143.9152
2167.936523 90.630 143.1826
2183.646240 90.697 142.4374
2199.469727 90.764 141.6791
2215.407959 90.831 140.9067
2231.461670 90.898 140.1190
2247.631836 90.966 139.3145
2263.919189 91.034 138.4911
2280.324463 91.103 137.6463
2296.848633 91.171 136.7779
2313.492432 91.238 135.8842
2330.256836 91.304 134.9647
2347.142822 91.369 134.0206
2364.151123 91.430 133.0544
2381.282715 91.490 132.0693
2398.538574 91.546 131.0687
2415.919434 91.599 130.0558
2433.426270 91.650 129.0332
2451.059814 91.698 128.0024
2468.821289 91.744 126.9645
2486.711426 91.789 125.9197
2504.731201 91.832 124.8668
2522.881592 91.874 123.8035
2541.163330 91.915 122.7268
2559.577637 91.956 121.6331
2578.125488 91.996 120.5186
2596.807617 92.034 119.3808
2615.625244 92.069 118.2180
2634.579102 92.101 117.0309
2653.670410 92.129 115.8218
2672.899902 92.153 114.5947
2692.268799 92.172 113.3539
2711.778076 92.185 112.1045
2731.428711 92.194 110.8503
2751.221680 92.199 109.5947
2771.158203 92.199 108.3402
2791.239258 92.195 107.0887
2811.465820 92.187 105.8416
2831.838867 92.176 104.5997
2852.359619 92.161 103.3636
2873.029053 92.143 102.1340
2893.848145 92.121 100.9116
2914.818115 92.096 99.6974
2935.940186 92.069 98.4922
2957.215332 92.038 97.2969
2978.644531 92.005 96.1124
3000.229004 91.969 94.9391
3021.969971 91.932 93.7773
3043.868408 91.892 92.6278
3065.925537 91.851 91.4910
3088.142578 91.808 90.3675
3110.520508 91.764 89.2577
3133.060547 91.718 88.1617
3155.763916 91.672 87.0798
3178.631836 91.624 86.0119
3201.665527 91.576 84.9581
3224.866211 91.527 83.9185
3248.234863 91.477 82.8931
3271.772949 91.427 81.8821
3295.481445 91.377 80.8858
3319.361816 91.326 79.9039
3343.415283 91.276 78.9364
3367.643066 91.226 77.9828
3392.046387 91.176 77.0428
3416.626465 91.127 76.1154
3441.384766 91.078 75.1996
3466.322510 91.031 74.2944
3491.440918 90.984 73.3989
3516.741455 90.939 72.5128
3542.225098 90.894 71.6360
3567.893555 90.850 70.7693
3593.748047 90.807 69.9130
3619.789795 90.766 69.0676
3646.020264 90.727 68.2329
3672.440918 90.689 67.4081
3699.052979 90.654 66.5913
3725.857910 90.622 65.7795
3752.856934 90.593 64.9687
3780.051758 90.567 64.1542
3807.443604 90.543 63.3313
3835.033936 90.521 62.4966
3862.824219 90.501 61.6483
3890.815918 90.481 60.7871
3919.010254 90.460 59.9162
3947.408936 90.439 59.0413
3976.013428 90.417 58.1697
4004.825195 90.394 57.3090
4033.845703 90.372 56.4656
4063.076660 90.352 55.6429
4092.519287 90.335 54.8404
4122.175293 90.324 54.0532
4152.046387 90.319 53.2730
4182.133789 90.321 52.4885
4212.439453 90.331 51.6870
4242.964355 90.348 50.8561
4273.710449 90.371 49.9847
4304.679688 90.400 49.0641
4335.873047 90.432 48.0880
4367.292480 90.467 47.0533
4398.939453 90.502 45.9585
4430.815918 90.537 44.8045
4462.923340 90.570 43.5930
4495.263672 90.600 42.3264
4527.838379 90.627 41.0081
4560.648926 90.650 39.6418
4593.697266 90.667 38.2315
4626.984863 90.678 36.7816
4660.513672 90.683 35.2963
4694.285645 90.682 33.7799
4728.302246 90.673 32.2367
4762.565430 90.657 30.6709
4797.077148 90.632 29.0872
4831.838867 90.600 27.4905
4866.852539 90.559 25.8859
4902.119629 90.510 24.2786
4937.642578 90.452 22.6746
4973.422852 90.385 21.0804
5009.462402 90.309 19.5035
5045.763184 90.224 17.9514
5082.326660 90.130 16.4324
5119.155273 90.028 14.9547
5156.250977 89.918 13.5270
5193.615234 89.802 12.1578
5231.250488 89.679 10.8551
5269.158203 89.551 9.6263
5307.340820 89.420 8.4781
5345.799805 89.288 7.4159
5384.537598 89.156 6.4438
5423.556152 89.026 5.5649
5462.857422 88.901 4.7804
5502.443359 88.782 4.0892
5542.316406 88.671 3.4882
5582.478516 88.572 2.9713
5622.931641 88.487 2.5294
5663.677734 88.418 2.1506
5704.719238 88.366 1.8200
5746.058105 88.334 1.5193
5787.696289 88.323 1.2280
5829.636230 88.333 0.9229
5871.880371 88.365 0.5792
5914.430664 88.417 0.1721
5957.289062 88.489 -0.3228
6000.458008 88.576 -0.9270
6043.939941 88.677 -1.6588
6087.736816 88.787 -2.5316
6131.851074 88.903 -3.5527
6176.285156 89.020 -4.7230
6221.041016 89.134 -6.0361
6266.121094 89.241 -7.4796
6311.527832 89.339 -9.0352
6357.263672 89.425 -10.6807
6403.331055 89.498 -12.3920
6449.732422 89.557 -14.1439
6496.469727 89.605 -15.9132
6543.545898 89.641 -17.6790
6590.962891 89.668 -19.4240
6638.723633 89.689 -21.1356
6686.830566 89.707 -22.8062
6735.286133 89.726 -24.4333
6784.092773 89.748 -26.0199
6833.252930 89.776 -27.5738
6882.769531 89.814 -29.1076
6932.645020 89.864 -30.6378
6982.881836 89.929 -32.1844
7033.482910 90.008 -33.7704
7084.450195 90.104 -35.4216
7135.787109 90.216 -37.1666
7187.496094 90.344 -39.0354
7239.579590 90.486 -41.0591
7292.040527 90.640 -43.2681
7344.881836 90.801 -45.6904
7398.105957 90.964 -48.3501
7451.715820 91.125 -51.2656
7505.713867 91.275 -54.4481
7560.103516 91.407 -57.9001
7614.887207 91.514 -61.6140
7670.067871 91.587 -65.5715
7725.648438 91.619 -69.7429
7781.631836 91.604 -74.0872
7838.020508 91.536 -78.5538
7894.817871 91.411 -83.0851
7952.026855 91.227 -87.6185
8009.650391 90.985 -92.0909
8067.691406 90.688 -96.4419
8126.153320 90.338 -100.6165
8185.038574 89.942 -104.5681
8244.350586 89.507 -108.2603
8304.092773 89.039 -111.6671
8364.267578 88.546 -114.7736
8424.878906 88.036 -117.5746
8485.928711 87.516 -120.0737
8547.420898 86.992 -122.2814
8609.359375 86.470 -124.2138
8671.746094 85.955 -125.8911
8734.584961 85.450 -127.3363
8797.878906 84.959 -128.5739
8861.631836 84.484 -129.6284
8925.846680 84.026 -130.5239
8990.527344 83.587 -131.2822
9055.676758 83.166 -131.9233
9121.297852 82.763 -132.4645
9187.394531 82.379 -132.9218
9253.969727 82.013 -133.3097
9321.027344 81.666 -133.6409
9388.571289 81.336 -133.9261
9456.604492 81.023 -134.1748
9525.130859 80.727 -134.3959
9594.154297 80.445 -134.5992
9663.677734 80.178 -134.7954
9733.705078 79.925 -134.9952
9804.239258 79.682 -135.2070
9875.285156 79.448 -135.4331
9946.845703 79.221 -135.6686
10018.924805 78.998 -135.9030
10091.526367 78.780 -136.1240
10164.653320 78.566 -136.3200
10238.310547 78.356 -136.4818
10312.501953 78.151 -136.6011
10387.230469 77.951 -136.6697
10462.500977 77.758 -136.6795
10538.316406 77.572 -136.6217
10614.681641 77.395 -136.4874
10691.599609 77.230 -136.2681
10769.075195 77.080 -135.9558
10847.112305 76.946 -135.5463
10925.714844 76.834 -135.0412
11004.886719 76.749 -134.4497
11084.632812 76.693 -133.7899
11164.957031 76.673 -133.0883
11245.863281 76.692 -132.3800
11327.355469 76.751 -131.7069
11409.438477 76.854 -131.1171
11492.116211 77.000 -130.6625
11575.392578 77.187 -130.3965
11659.272461 77.412 -130.3708
11743.760742 77.671 -130.6333
11828.861328 77.958 -131.2247
11914.578125 78.265 -132.1784
12000.916016 78.585 -133.5192
12087.879883 78.910 -135.2641
12175.473633 79.230 -137.4235
12263.702148 79.535 -140.0017
12352.570312 79.816 -142.9930
12442.082031 80.061 -146.3773
12532.242188 80.258 -150.1154
12623.055664 80.397 -154.1493
12714.527344 80.469 -158.4033
12806.662109 80.466 -162.7858
12899.464844 80.384 -167.1896
12992.939453 80.223 -171.4941
13087.091797 79.985 -175.5690
13181.925781 79.678 -179.2822
13277.447266 79.317 177.4874
13373.661133 78.923 174.8337
13470.572266 78.520 172.8055
13568.185547 78.137 171.3931
13666.505859 77.798 170.5225
13765.539062 77.527 170.0635
13865.290039 77.336 169.8494
13965.763672 77.234 169.7021
14066.965820 77.216 169.4548
14168.900391 77.277 168.9652
14271.574219 77.403 168.1199
14374.992188 77.581 166.8342
14479.159180 77.793 165.0497
14584.081055 78.023 162.7332
14689.763672 78.252 159.8771
14796.211914 78.463 156.5002
14903.431641 78.637 152.6492
15011.427734 78.761 148.3984
15120.207031 78.820 143.8478
15229.774414 78.809 139.1183
15340.135742 78.723 134.3398
15451.296875 78.567 129.6390
15563.263672 78.348 125.1248
15676.041016 78.079 120.8792
15789.635742 77.774 116.9554
15904.053711 77.447 113.3797
16019.300781 77.113 110.1571
16135.382812 76.786 107.2744
16252.306641 76.478 104.7003
16370.077148 76.202 102.3857
16488.701172 75.970 100.2610
16608.185547 75.790 98.2369
16728.535156 75.670 96.2052
16849.757812 75.611 94.0439
16971.857422 75.611 91.6249
17094.841797 75.660 88.8270
17218.718750 75.742 85.5508
17343.492188 75.836 81.7350
17469.169922 75.919 77.3677
17595.757812 75.966 72.4917
17723.263672 75.956 67.2004
17851.693359 75.874 61.6282
17981.054688 75.711 55.9343
18111.353516 75.468 50.2852
18242.595703 75.152 44.8353
18374.789062 74.781 39.7016
18507.939453 74.378 34.9341
18642.054688 73.969 30.4914
18777.142578 73.574 26.2487
18913.208984 73.196 22.0532
19050.261719 72.823 17.8050
19188.308594 72.438 13.5070
19327.355469 72.027 9.2515
19467.410156 71.592 5.1599
19608.478516 71.156 1.3102
19750.570312 70.758 -2.3234
19893.691406 70.452 -5.8970
20037.849609 0.000 -9.6530
