* Measurement data measured by REW V5.30.4
* Source: EXCL: Headset (CX31993 HIFI AUDIO), MICROPHONE (Master Volume), 0, volume: 0.360
* Format: 256k Log Swept Sine, 1 sweep at -12.0 dBFS with no timing reference
* Dated: 01 19, 24 2:38:41 PM
* REW Settings:
*  C-weighting compensation: Off
*  Target level: 75.0 dB
* Note: ; 
* Measurement: Binary x Gizaudio Chopin R
* Smoothing: 1/12 octave
* Frequency Step: 96 ppo
* Start Frequency: 20.141602 Hz
*
* Freq(Hz) SPL(dB) Phase(degrees)
20.141602 91.542 -138.1015
20.287556 91.544 -138.3300
20.434568 91.547 -138.6704
20.582645 91.547 -139.0965
20.731796 91.544 -139.5834
20.882027 91.537 -140.1092
21.033346 91.524 -140.6548
21.185762 91.508 -141.2035
21.339283 91.489 -141.7410
21.493916 91.469 -142.2562
21.649670 91.451 -142.7420
21.806553 91.438 -143.1967
21.964573 91.434 -143.6248
22.123737 91.441 -144.0367
22.284056 91.459 -144.4478
22.445536 91.491 -144.8764
22.608185 91.534 -145.3403
22.772013 91.586 -145.8540
22.937029 91.645 -146.4256
23.103241 91.705 -147.0546
23.270657 91.763 -147.7312
23.439285 91.816 -148.4366
23.609137 91.861 -149.1452
23.780218 91.898 -149.8270
23.952539 91.928 -150.4515
24.126110 91.952 -150.9919
24.300938 91.976 -151.4289
24.477032 92.003 -151.7540
24.654402 92.037 -151.9712
24.833057 92.081 -152.0973
25.013008 92.137 -152.1590
25.194263 92.205 -152.1883
25.376831 92.280 -152.2174
25.560722 92.358 -152.2725
25.745945 92.434 -152.3707
25.932510 92.502 -152.5176
26.120428 92.557 -152.7084
26.309708 92.596 -152.9305
26.500359 92.617 -153.1670
26.692390 92.621 -153.4018
26.885815 92.610 -153.6225
27.080641 92.590 -153.8246
27.276878 92.564 -154.0123
27.474539 92.537 -154.1983
27.673630 92.514 -154.4019
27.874165 92.497 -154.6445
28.076153 92.486 -154.9452
28.279604 92.483 -155.3168
28.484529 92.485 -155.7625
28.690941 92.490 -156.2753
28.898848 92.494 -156.8389
29.108261 92.497 -157.4303
29.319191 92.497 -158.0239
29.531651 92.493 -158.5946
29.745649 92.485 -159.1220
29.961199 92.475 -159.5926
30.178310 92.463 -160.0018
30.396996 92.452 -160.3540
30.617264 92.442 -160.6614
30.839128 92.435 -160.9422
31.062601 92.430 -161.2167
31.287693 92.428 -161.5042
31.514416 92.428 -161.8194
31.742783 92.429 -162.1697
31.972803 92.429 -162.5543
32.204491 92.429 -162.9644
32.437859 92.428 -163.3857
32.672916 92.426 -163.8015
32.909679 92.427 -164.1970
33.148155 92.430 -164.5625
33.388359 92.439 -164.8960
33.630306 92.454 -165.2034
33.874004 92.474 -165.4967
34.119469 92.499 -165.7909
34.366711 92.527 -166.0993
34.615746 92.554 -166.4309
34.866585 92.578 -166.7883
35.119244 92.597 -167.1680
35.373734 92.612 -167.5622
35.630066 92.622 -167.9624
35.888256 92.629 -168.3619
36.148315 92.637 -168.7581
36.410259 92.646 -169.1530
36.674103 92.657 -169.5519
36.939857 92.671 -169.9611
37.207539 92.685 -170.3847
37.477161 92.698 -170.8228
37.748737 92.708 -171.2701
38.022282 92.713 -171.7166
38.297806 92.711 -172.1506
38.575329 92.704 -172.5618
38.854862 92.693 -172.9453
39.136421 92.681 -173.3037
39.420021 92.670 -173.6483
39.705673 92.663 -173.9961
39.993397 92.659 -174.3654
40.283207 92.657 -174.7700
40.575115 92.655 -175.2143
40.869141 92.650 -175.6916
41.165295 92.642 -176.1851
41.463596 92.631 -176.6740
41.764057 92.616 -177.1389
42.066696 92.602 -177.5688
42.371529 92.590 -177.9635
42.678570 92.583 -178.3334
42.987835 92.580 -178.6945
43.299343 92.580 -179.0623
43.613110 92.580 -179.4466
43.929150 92.578 -179.8485
44.247478 92.572 179.7380
44.568115 92.561 179.3228
44.891075 92.546 178.9149
45.216373 92.528 178.5189
45.544029 92.509 178.1339
45.874062 92.491 177.7542
46.206486 92.474 177.3732
46.541317 92.458 176.9855
46.878574 92.442 176.5903
47.218277 92.426 176.1908
47.560440 92.409 175.7932
47.905083 92.392 175.4040
48.252224 92.374 175.0273
48.601879 92.358 174.6638
48.954067 92.342 174.3112
49.308807 92.326 173.9659
49.666119 92.310 173.6246
50.026020 92.293 173.2845
50.388531 92.275 172.9433
50.753666 92.256 172.5979
51.121449 92.235 172.2442
51.491894 92.213 171.8782
51.865025 92.190 171.4972
52.240860 92.167 171.1010
52.619419 92.145 170.6924
53.000721 92.125 170.2761
53.384785 92.106 169.8577
53.771633 92.090 169.4429
54.161285 92.075 169.0375
54.553761 92.060 168.6467
54.949081 92.045 168.2746
55.347263 92.028 167.9225
55.748333 92.008 167.5872
56.152309 91.987 167.2614
56.559212 91.963 166.9347
56.969063 91.938 166.5978
57.381886 91.911 166.2461
57.797699 91.883 165.8813
58.216526 91.854 165.5114
58.638386 91.825 165.1459
59.063305 91.796 164.7922
59.491302 91.768 164.4517
59.922401 91.742 164.1199
60.356625 91.715 163.7898
60.793995 91.689 163.4556
61.234531 91.661 163.1149
61.678261 91.632 162.7688
62.125206 91.602 162.4196
62.575390 91.573 162.0698
63.028835 91.543 161.7227
63.485569 91.513 161.3821
63.945610 91.483 161.0511
64.408989 91.452 160.7300
64.875725 91.422 160.4156
65.345840 91.391 160.1029
65.819366 91.360 159.7886
66.296318 91.329 159.4719
66.776726 91.298 159.1536
67.260620 91.266 158.8334
67.748016 91.234 158.5095
68.238945 91.201 158.1809
68.733429 91.168 157.8494
69.231499 91.133 157.5190
69.733177 91.097 157.1946
70.238495 91.061 156.8790
70.747475 91.024 156.5728
71.260139 90.987 156.2742
71.776520 90.950 155.9796
72.296638 90.913 155.6843
72.820526 90.877 155.3845
73.348213 90.840 155.0795
73.879723 90.803 154.7712
74.415085 90.765 154.4620
74.954330 90.727 154.1538
75.497482 90.686 153.8478
76.044571 90.645 153.5459
76.595619 90.602 153.2498
77.150665 90.559 152.9599
77.709732 90.516 152.6746
78.272850 90.474 152.3918
78.840050 90.432 152.1105
79.411354 90.390 151.8303
79.986801 90.347 151.5512
80.566422 90.305 151.2733
81.150238 90.261 150.9974
81.738289 90.218 150.7251
82.330597 90.173 150.4580
82.927200 90.129 150.1966
83.528122 90.084 149.9389
84.133400 90.039 149.6818
84.743065 89.994 149.4222
85.357147 89.949 149.1594
85.975677 89.902 148.8952
86.598694 89.855 148.6324
87.226227 89.808 148.3728
87.858307 89.760 148.1172
88.494965 89.713 147.8668
89.136238 89.665 147.6229
89.782158 89.616 147.3860
90.432755 89.567 147.1555
91.088066 89.517 146.9294
91.748131 89.466 146.7053
92.412979 89.413 146.4811
93.082642 89.360 146.2563
93.757156 89.307 146.0317
94.436562 89.254 145.8080
95.120888 89.201 145.5850
95.810173 89.149 145.3623
96.504456 89.097 145.1413
97.203766 89.044 144.9250
97.908142 88.991 144.7156
98.617622 88.937 144.5125
99.332245 88.882 144.3147
100.052048 88.827 144.1218
100.777069 88.773 143.9335
101.507339 88.718 143.7491
102.242905 88.664 143.5688
102.983795 88.610 143.3947
103.730057 88.555 143.2283
104.481728 88.499 143.0692
105.238846 88.443 142.9158
106.001450 88.385 142.7653
106.769577 88.325 142.6132
107.543274 88.266 142.4550
108.322578 88.205 142.2905
109.107529 88.144 142.1250
109.898170 88.084 141.9647
110.694534 88.023 141.8139
111.496674 87.961 141.6755
112.304626 87.899 141.5521
113.118431 87.837 141.4428
113.938133 87.775 141.3412
114.763779 87.713 141.2396
115.595406 87.652 141.1315
116.433060 87.590 141.0131
117.276779 87.528 140.8834
118.126617 87.464 140.7465
118.982613 87.400 140.6143
119.844810 87.334 140.5031
120.713257 87.268 140.4221
121.587997 87.203 140.3649
122.469070 87.140 140.3121
123.356529 87.079 140.2435
124.250420 87.020 140.1506
125.150787 86.961 140.0400
126.057678 86.902 139.9254
126.971146 86.841 139.8184
127.891228 86.778 139.7249
128.817978 86.714 139.6464
129.751450 86.650 139.5835
130.691681 86.585 139.5342
131.638733 86.519 139.4943
132.592636 86.452 139.4590
133.553452 86.384 139.4268
134.521240 86.314 139.3981
135.496033 86.244 139.3729
136.477890 86.173 139.3508
137.466858 86.102 139.3326
138.462997 86.030 139.3205
139.466354 85.958 139.3165
140.476990 85.886 139.3218
141.494949 85.813 139.3369
142.520279 85.740 139.3610
143.553040 85.667 139.3920
144.593277 85.593 139.4276
145.641052 85.519 139.4668
146.696426 85.444 139.5120
147.759445 85.368 139.5678
148.830170 85.291 139.6389
149.908661 85.212 139.7287
150.994965 85.132 139.8387
152.089142 85.050 139.9699
153.191238 84.966 140.1237
154.301331 84.880 140.3026
155.419464 84.794 140.5093
156.545700 84.707 140.7472
157.680099 84.620 141.0214
158.822708 84.533 141.3378
159.973602 84.447 141.7018
161.132843 84.363 142.1169
162.300476 84.284 142.5860
163.476578 84.214 143.1104
164.661194 84.159 143.6851
165.854401 84.120 144.2923
167.056244 84.101 144.9015
168.266800 84.100 145.4774
169.486130 84.115 145.9904
170.714294 84.143 146.4178
171.951355 84.179 146.7405
173.197388 84.216 146.9445
174.452454 84.250 147.0277
175.716614 84.275 147.0010
176.989929 84.288 146.8840
178.272476 84.288 146.7032
179.564316 84.275 146.4908
180.865509 84.250 146.2801
182.176132 84.217 146.0990
183.496262 84.176 145.9632
184.825958 84.128 145.8755
186.165283 84.077 145.8310
187.514313 84.022 145.8232
188.873123 83.967 145.8475
190.241776 83.911 145.9012
191.620346 83.855 145.9807
193.008911 83.799 146.0818
194.407532 83.743 146.2007
195.816284 83.688 146.3355
197.235245 83.634 146.4846
198.664490 83.581 146.6462
200.104095 83.529 146.8177
201.554138 83.478 146.9962
203.014679 83.427 147.1798
204.485809 83.378 147.3672
205.967590 83.331 147.5568
207.460114 83.285 147.7478
208.963455 83.240 147.9413
210.477692 83.197 148.1385
212.002899 83.154 148.3405
213.539154 83.112 148.5494
215.086548 83.073 148.7672
216.645157 83.034 148.9946
218.215057 82.997 149.2318
219.796341 82.959 149.4784
221.389069 82.922 149.7338
222.993347 82.886 149.9962
224.609253 82.850 150.2639
226.236862 82.815 150.5346
227.876266 82.781 150.8066
229.527557 82.748 151.0786
231.190811 82.716 151.3491
232.866119 82.685 151.6150
234.553558 82.655 151.8737
236.253235 82.627 152.1248
237.965225 82.600 152.3708
239.689621 82.575 152.6160
241.426514 82.552 152.8644
243.175995 82.529 153.1180
244.938141 82.506 153.3764
246.713058 82.483 153.6382
248.500839 82.461 153.9011
250.301575 82.439 154.1631
252.115356 82.417 154.4237
253.942291 82.397 154.6844
255.782455 82.378 154.9471
257.635956 82.361 155.2119
259.502899 82.343 155.4779
261.383362 82.327 155.7433
263.277466 82.310 156.0066
265.185272 82.293 156.2662
267.106903 82.277 156.5212
269.042480 82.261 156.7711
270.992065 82.246 157.0164
272.955780 82.233 157.2581
274.933716 82.221 157.4978
276.925995 82.210 157.7367
278.932709 82.201 157.9752
280.953979 82.192 158.2128
282.989899 82.183 158.4492
285.040558 82.175 158.6846
287.106079 82.167 158.9192
289.186554 82.160 159.1529
291.282104 82.153 159.3846
293.392853 82.147 159.6136
295.518890 82.141 159.8395
297.660339 82.136 160.0625
299.817322 82.132 160.2825
301.989929 82.129 160.4995
304.178284 82.127 160.7139
306.382477 82.125 160.9261
308.602661 82.123 161.1363
310.838928 82.121 161.3440
313.091400 82.121 161.5488
315.360199 82.120 161.7507
317.645416 82.121 161.9499
319.947205 82.121 162.1465
322.265686 82.122 162.3402
324.600952 82.123 162.5306
326.953156 82.124 162.7180
329.322388 82.125 162.9019
331.708801 82.127 163.0812
334.112488 82.128 163.2561
336.533600 82.130 163.4270
338.972260 82.132 163.5944
341.428589 82.135 163.7594
343.902710 82.137 163.9235
346.394775 82.139 164.0864
348.904907 82.141 164.2478
351.433228 82.143 164.4074
353.979858 82.145 164.5649
356.544952 82.147 164.7195
359.128632 82.150 164.8710
361.731018 82.152 165.0204
364.352264 82.155 165.1689
366.992523 82.158 165.3167
369.651917 82.161 165.4631
372.330566 82.164 165.6074
375.028625 82.167 165.7502
377.746246 82.170 165.8939
380.483551 82.173 166.0407
383.240692 82.177 166.1905
386.017822 82.182 166.3399
388.815063 82.188 166.4847
391.632568 82.194 166.6225
394.470490 82.200 166.7539
397.328979 82.205 166.8822
400.208191 82.209 167.0111
403.108276 82.213 167.1429
406.029358 82.219 167.2773
408.971619 82.225 167.4117
411.935181 82.233 167.5422
414.920227 82.241 167.6651
417.926910 82.250 167.7788
420.955383 82.259 167.8839
424.005798 82.268 167.9825
427.078308 82.277 168.0768
430.173096 82.286 168.1691
433.290314 82.295 168.2612
436.430115 82.304 168.3552
439.592682 82.314 168.4530
442.778137 82.324 168.5564
445.986694 82.333 168.6658
449.218506 82.341 168.7796
452.473724 82.347 168.8938
455.752533 82.354 169.0032
459.055115 82.360 169.1042
462.381622 82.367 169.1967
465.732239 82.374 169.2846
469.107117 82.382 169.3723
472.506470 82.389 169.4617
475.930450 82.396 169.5511
479.379242 82.402 169.6377
482.853027 82.408 169.7202
486.351990 82.414 169.7994
489.876282 82.420 169.8779
493.426117 82.427 169.9581
497.001678 82.434 170.0408
500.603149 82.441 170.1254
504.230713 82.449 170.2100
507.884583 82.457 170.2932
511.564911 82.464 170.3742
515.271912 82.472 170.4539
519.005798 82.479 170.5331
522.766724 82.486 170.6132
526.554932 82.493 170.6940
530.370544 82.501 170.7756
534.213806 82.509 170.8580
538.084961 82.517 170.9414
541.984131 82.525 171.0247
545.911560 82.533 171.1060
549.867432 82.541 171.1837
553.851990 82.548 171.2575
557.865417 82.555 171.3288
561.907959 82.563 171.4004
565.979797 82.570 171.4754
570.081116 82.578 171.5550
574.212158 82.586 171.6374
578.373108 82.594 171.7190
582.564209 82.602 171.7973
586.785706 82.610 171.8725
591.037781 82.617 171.9465
595.320679 82.624 172.0222
599.634644 82.631 172.1015
603.979858 82.639 172.1848
608.356567 82.647 172.2713
612.764954 82.655 172.3600
617.205322 82.663 172.4494
621.677856 82.671 172.5383
626.182800 82.679 172.6259
630.720398 82.687 172.7127
635.290833 82.695 172.8008
639.894409 82.703 172.8934
644.531372 82.711 172.9935
649.201904 82.718 173.1025
653.906311 82.724 173.2206
658.644775 82.731 173.3478
663.417603 82.738 173.4836
668.224976 82.745 173.6269
673.067200 82.755 173.7763
677.944519 82.766 173.9301
682.857178 82.780 174.0860
687.805420 82.797 174.2411
692.789551 82.817 174.3928
697.809814 82.840 174.5389
702.866455 82.865 174.6777
707.959717 82.893 174.8075
713.089905 82.921 174.9268
718.257263 82.950 175.0346
723.462036 82.979 175.1302
728.704529 83.008 175.2138
733.985046 83.035 175.2861
739.303833 83.061 175.3489
744.661133 83.086 175.4049
750.057251 83.111 175.4577
755.492493 83.135 175.5111
760.967102 83.158 175.5681
766.481384 83.181 175.6310
772.035645 83.204 175.7009
777.630127 83.227 175.7773
783.265137 83.250 175.8589
788.940979 83.273 175.9440
794.657959 83.297 176.0316
800.416382 83.321 176.1206
806.216553 83.347 176.2109
812.058716 83.373 176.3030
817.943237 83.400 176.3977
823.870361 83.429 176.4955
829.840454 83.459 176.5961
835.853821 83.490 176.6983
841.910767 83.522 176.8006
848.011597 83.556 176.9017
854.156616 83.590 177.0010
860.346191 83.626 177.0987
866.580627 83.662 177.1954
872.860229 83.700 177.2914
879.185364 83.739 177.3867
885.556274 83.779 177.4800
891.973389 83.821 177.5699
898.437012 83.863 177.6546
904.947449 83.908 177.7330
911.505066 83.953 177.8046
918.110229 84.001 177.8698
924.763245 84.049 177.9297
931.464478 84.099 177.9855
938.214233 84.150 178.0372
945.012939 84.202 178.0840
951.860901 84.255 178.1243
958.758484 84.310 178.1565
965.706055 84.365 178.1795
972.703979 84.423 178.1926
979.752563 84.481 178.1957
986.852234 84.541 178.1892
994.003357 84.602 178.1735
1001.206299 84.663 178.1490
1008.461426 84.726 178.1153
1015.769165 84.789 178.0717
1023.129822 84.853 178.0173
1030.543823 84.918 177.9513
1038.011597 84.984 177.8734
1045.533447 85.050 177.7830
1053.109863 85.117 177.6800
1060.741089 85.184 177.5643
1068.427612 85.251 177.4365
1076.169922 85.319 177.2977
1083.968262 85.386 177.1486
1091.823120 85.453 176.9891
1099.734863 85.520 176.8185
1107.703979 85.586 176.6361
1115.730835 85.653 176.4411
1123.815918 85.720 176.2337
1131.959595 85.787 176.0141
1140.162231 85.853 175.7831
1148.424316 85.919 175.5412
1156.746216 85.984 175.2891
1165.128418 86.049 175.0274
1173.571411 86.113 174.7568
1182.075562 86.176 174.4780
1190.641357 86.238 174.1913
1199.269287 86.299 173.8967
1207.959717 86.359 173.5939
1216.713135 86.419 173.2829
1225.529907 86.478 172.9639
1234.410645 86.536 172.6373
1243.355713 86.594 172.3043
1252.365601 86.651 171.9659
1261.440796 86.707 171.6229
1270.581665 86.762 171.2758
1279.788818 86.816 170.9245
1289.062744 86.870 170.5688
1298.403809 86.923 170.2087
1307.812622 86.976 169.8447
1317.289551 87.027 169.4774
1326.835205 87.078 169.1077
1336.449951 87.128 168.7358
1346.134399 87.177 168.3619
1355.889038 87.226 167.9860
1365.714355 87.275 167.6078
1375.610840 87.323 167.2272
1385.579102 87.371 166.8441
1395.619629 87.420 166.4583
1405.732910 87.468 166.0699
1415.919434 87.516 165.6792
1426.179810 87.564 165.2870
1436.514526 87.612 164.8940
1446.924072 87.660 164.5004
1457.409058 87.708 164.1060
1467.970093 87.755 163.7108
1478.607666 87.802 163.3143
1489.322266 87.849 162.9166
1500.114502 87.896 162.5179
1510.984985 87.943 162.1182
1521.934204 87.990 161.7173
1532.962769 88.037 161.3153
1544.071289 88.085 160.9125
1555.260254 88.133 160.5096
1566.530273 88.181 160.1072
1577.881958 88.230 159.7060
1589.315918 88.280 159.3063
1600.832764 88.330 158.9082
1612.433105 88.382 158.5111
1624.117432 88.434 158.1140
1635.886475 88.489 157.7153
1647.740723 88.545 157.3124
1659.680908 88.604 156.9021
1671.707642 88.664 156.4807
1683.821533 88.725 156.0448
1696.023193 88.788 155.5924
1708.313232 88.851 155.1227
1720.692383 88.915 154.6367
1733.161255 88.977 154.1364
1745.720459 89.040 153.6240
1758.370728 89.101 153.1017
1771.112549 89.163 152.5714
1783.946777 89.224 152.0343
1796.874023 89.285 151.4913
1809.894897 89.347 150.9425
1823.010132 89.408 150.3878
1836.220459 89.470 149.8264
1849.526489 89.533 149.2576
1862.928955 89.596 148.6809
1876.428467 89.659 148.0958
1890.025879 89.722 147.5016
1903.721802 89.786 146.8981
1917.516968 89.851 146.2852
1931.412109 89.915 145.6626
1945.407959 89.980 145.0302
1959.505127 90.045 144.3878
1973.704468 90.111 143.7348
1988.006714 90.176 143.0709
2002.412598 90.242 142.3955
2016.922852 90.309 141.7084
2031.538330 90.375 141.0096
2046.259644 90.441 140.2995
2061.087646 90.507 139.5786
2076.023193 90.573 138.8475
2091.066895 90.638 138.1064
2106.219727 90.703 137.3560
2121.482178 90.768 136.5968
2136.855225 90.833 135.8298
2152.339844 90.899 135.0557
2167.936523 90.965 134.2755
2183.646240 91.032 133.4890
2199.469727 91.101 132.6953
2215.407959 91.172 131.8916
2231.461670 91.245 131.0730
2247.631836 91.321 130.2327
2263.919189 91.401 129.3631
2280.324463 91.482 128.4566
2296.848633 91.565 127.5072
2313.492432 91.647 126.5116
2330.256836 91.727 125.4700
2347.142822 91.803 124.3858
2364.151123 91.875 123.2648
2381.282715 91.942 122.1138
2398.538574 92.004 120.9391
2415.919434 92.061 119.7461
2433.426270 92.114 118.5388
2451.059814 92.162 117.3199
2468.821289 92.207 116.0914
2486.711426 92.248 114.8547
2504.731201 92.285 113.6106
2522.881592 92.320 112.3595
2541.163330 92.351 111.1014
2559.577637 92.379 109.8364
2578.125488 92.404 108.5644
2596.807617 92.426 107.2858
2615.625244 92.445 106.0009
2634.579102 92.461 104.7106
2653.670410 92.474 103.4154
2672.899902 92.483 102.1161
2692.268799 92.489 100.8133
2711.778076 92.492 99.5078
2731.428711 92.492 98.2003
2751.221680 92.489 96.8919
2771.158203 92.483 95.5833
2791.239258 92.474 94.2749
2811.465820 92.462 92.9673
2831.838867 92.447 91.6609
2852.359619 92.429 90.3560
2873.029053 92.408 89.0530
2893.848145 92.385 87.7525
2914.818115 92.359 86.4551
2935.940186 92.330 85.1618
2957.215332 92.298 83.8735
2978.644531 92.264 82.5913
3000.229004 92.226 81.3165
3021.969971 92.186 80.0501
3043.868408 92.144 78.7936
3065.925537 92.099 77.5481
3088.142578 92.052 76.3148
3110.520508 92.002 75.0949
3133.060547 91.950 73.8894
3155.763916 91.897 72.6997
3178.631836 91.841 71.5273
3201.665527 91.785 70.3736
3224.866211 91.727 69.2399
3248.234863 91.669 68.1269
3271.772949 91.611 67.0346
3295.481445 91.553 65.9623
3319.361816 91.496 64.9085
3343.415283 91.440 63.8713
3367.643066 91.385 62.8487
3392.046387 91.331 61.8391
3416.626465 91.279 60.8409
3441.384766 91.228 59.8528
3466.322510 91.178 58.8735
3491.440918 91.130 57.9024
3516.741455 91.083 56.9393
3542.225098 91.038 55.9838
3567.893555 90.994 55.0356
3593.748047 90.952 54.0943
3619.789795 90.912 53.1591
3646.020264 90.874 52.2294
3672.440918 90.837 51.3038
3699.052979 90.803 50.3806
3725.857910 90.772 49.4575
3752.856934 90.742 48.5318
3780.051758 90.715 47.6004
3807.443604 90.691 46.6609
3835.033936 90.668 45.7111
3862.824219 90.647 44.7503
3890.815918 90.626 43.7788
3919.010254 90.606 42.7986
3947.408936 90.586 41.8125
3976.013428 90.567 40.8246
4004.825195 90.547 39.8387
4033.845703 90.528 38.8580
4063.076660 90.510 37.8842
4092.519287 90.495 36.9169
4122.175293 90.484 35.9541
4152.046387 90.476 34.9915
4182.133789 90.474 34.0236
4212.439453 90.476 33.0431
4242.964355 90.483 32.0428
4273.710449 90.494 31.0155
4304.679688 90.509 29.9550
4335.873047 90.527 28.8560
4367.292480 90.548 27.7148
4398.939453 90.569 26.5286
4430.815918 90.591 25.2962
4462.923340 90.613 24.0177
4495.263672 90.633 22.6942
4527.838379 90.651 21.3273
4560.648926 90.666 19.9192
4593.697266 90.677 18.4720
4626.984863 90.685 16.9883
4660.513672 90.688 15.4705
4694.285645 90.686 13.9210
4728.302246 90.680 12.3421
4762.565430 90.668 10.7360
4797.077148 90.650 9.1053
4831.838867 90.625 7.4536
4866.852539 90.594 5.7850
4902.119629 90.556 4.1052
4937.642578 90.510 2.4203
4973.422852 90.455 0.7368
5009.462402 90.393 -0.9384
5045.763184 90.322 -2.5981
5082.326660 90.243 -4.2354
5119.155273 90.156 -5.8428
5156.250977 90.062 -7.4127
5193.615234 89.962 -8.9374
5231.250488 89.856 -10.4089
5269.158203 89.745 -11.8201
5307.340820 89.630 -13.1644
5345.799805 89.513 -14.4366
5384.537598 89.394 -15.6328
5423.556152 89.277 -16.7500
5462.857422 89.162 -17.7867
5502.443359 89.052 -18.7429
5542.316406 88.949 -19.6207
5582.478516 88.855 -20.4241
5622.931641 88.771 -21.1598
5663.677734 88.701 -21.8367
5704.719238 88.645 -22.4662
5746.058105 88.605 -23.0623
5787.696289 88.583 -23.6414
5829.636230 88.579 -24.2216
5871.880371 88.593 -24.8226
5914.430664 88.625 -25.4648
5957.289062 88.675 -26.1682
6000.458008 88.740 -26.9517
6043.939941 88.818 -27.8318
6087.736816 88.908 -28.8219
6131.851074 89.006 -29.9312
6176.285156 89.109 -31.1646
6221.041016 89.213 -32.5220
6266.121094 89.317 -33.9989
6311.527832 89.417 -35.5863
6357.263672 89.510 -37.2719
6403.331055 89.596 -39.0409
6449.732422 89.674 -40.8771
6496.469727 89.742 -42.7639
6543.545898 89.802 -44.6849
6590.962891 89.853 -46.6258
6638.723633 89.897 -48.5739
6686.830566 89.935 -50.5191
6735.286133 89.969 -52.4536
6784.092773 90.002 -54.3727
6833.252930 90.035 -56.2744
6882.769531 90.072 -58.1613
6932.645020 90.116 -60.0396
6982.881836 90.168 -61.9200
7033.482910 90.230 -63.8182
7084.450195 90.306 -65.7537
7135.787109 90.395 -67.7498
7187.496094 90.498 -69.8325
7239.579590 90.615 -72.0299
7292.040527 90.744 -74.3716
7344.881836 90.885 -76.8881
7398.105957 91.032 -79.6091
7451.715820 91.182 -82.5619
7505.713867 91.329 -85.7675
7560.103516 91.465 -89.2390
7614.887207 91.582 -92.9785
7670.067871 91.671 -96.9760
7725.648438 91.725 -101.2094
7781.631836 91.736 -105.6443
7838.020508 91.698 -110.2352
7894.817871 91.605 -114.9276
7952.026855 91.457 -119.6603
8009.650391 91.250 -124.3700
8067.691406 90.987 -128.9946
8126.153320 90.670 -133.4762
8185.038574 90.305 -137.7646
8244.350586 89.897 -141.8187
8304.092773 89.454 -145.6081
8364.267578 88.984 -149.1130
8424.878906 88.493 -152.3246
8485.928711 87.989 -155.2432
8547.420898 87.478 -157.8770
8609.359375 86.967 -160.2408
8671.746094 86.459 -162.3524
8734.584961 85.959 -164.2325
8797.878906 85.471 -165.9026
8861.631836 84.996 -167.3849
8925.846680 84.537 -168.7015
8990.527344 84.095 -169.8739
9055.676758 83.671 -170.9231
9121.297852 83.265 -171.8683
9187.394531 82.876 -172.7269
9253.969727 82.505 -173.5146
9321.027344 82.152 -174.2458
9388.571289 81.816 -174.9341
9456.604492 81.496 -175.5913
9525.130859 81.192 -176.2284
9594.154297 80.903 -176.8555
9663.677734 80.628 -177.4823
9733.705078 80.365 -178.1176
9804.239258 80.111 -178.7670
9875.285156 79.865 -179.4319
9946.845703 79.625 179.8908
10018.924805 79.388 179.2078
10091.526367 79.154 178.5274
10164.653320 78.921 177.8595
10238.310547 78.690 177.2148
10312.501953 78.459 176.6054
10387.230469 78.230 176.0441
10462.500977 78.001 175.5447
10538.316406 77.775 175.1227
10614.681641 77.552 174.7947
10691.599609 77.335 174.5771
10769.075195 77.128 174.4844
10847.112305 76.933 174.5272
10925.714844 76.756 174.7108
11004.886719 76.601 175.0343
11084.632812 76.474 175.4890
11164.957031 76.381 176.0577
11245.863281 76.327 176.7136
11327.355469 76.317 177.4183
11409.438477 76.354 178.1212
11492.116211 76.442 178.7614
11575.392578 76.581 179.2706
11659.272461 76.768 179.5810
11743.760742 76.997 179.6328
11828.861328 77.262 179.3828
11914.578125 77.555 178.8096
12000.916016 77.871 177.9124
12087.879883 78.205 176.6987
12175.473633 78.557 175.1659
12263.702148 78.927 173.2815
12352.570312 79.311 170.9813
12442.082031 79.698 168.1909
12532.242188 80.070 164.8609
12623.055664 80.409 160.9899
12714.527344 80.696 156.6244
12806.662109 80.914 151.8467
12899.464844 81.053 146.7610
12992.939453 81.105 141.4838
13087.091797 81.065 136.1404
13181.925781 80.933 130.8635
13277.447266 80.710 125.7922
13373.661133 80.407 121.0665
13470.572266 80.035 116.8195
13568.185547 79.614 113.1628
13666.505859 79.170 110.1711
13765.539062 78.732 107.8642
13865.290039 78.328 106.1958
13965.763672 77.987 105.0515
14066.965820 77.729 104.2608
14168.900391 77.566 103.6217
14271.574219 77.501 102.9294
14374.992188 77.524 102.0010
14479.159180 77.624 100.6912
14584.081055 77.781 98.8964
14689.763672 77.974 96.5535
14796.211914 78.182 93.6366
14903.431641 78.386 90.1523
15011.427734 78.565 86.1368
15120.207031 78.702 81.6522
15229.774414 78.782 76.7847
15340.135742 78.795 71.6389
15451.296875 78.732 66.3329
15563.263672 78.593 60.9905
15676.041016 78.379 55.7333
15789.635742 78.097 50.6735
15904.053711 77.755 45.9070
16019.300781 77.369 41.5094
16135.382812 76.952 37.5330
16252.306641 76.521 34.0054
16370.077148 76.094 30.9280
16488.701172 75.688 28.2729
16608.185547 75.321 25.9791
16728.535156 75.008 23.9490
16849.757812 74.762 22.0500
16971.857422 74.589 20.1244
17094.841797 74.485 18.0076
17218.718750 74.440 15.5529
17343.492188 74.436 12.6530
17469.169922 74.451 9.2544
17595.757812 74.462 5.3597
17723.263672 74.446 1.0205
17851.693359 74.385 -3.6727
17981.054688 74.265 -8.5982
18111.353516 74.075 -13.6038
18242.595703 73.811 -18.4987
18374.789062 73.477 -23.0394
18507.939453 73.091 -26.9189
18642.054688 72.696 -29.7890
18777.142578 72.367 -31.3805
18913.208984 72.200 -31.7874
19050.261719 72.269 -31.7783
19188.308594 72.558 -32.6295
19327.355469 72.959 -35.3160
19467.410156 73.338 -39.9162
19608.478516 73.610 -45.8064
19750.570312 73.761 -52.1798
19893.691406 73.822 -58.3695
20037.849609 0.000 -63.9337
