* Measurement data measured by REW V5.31.3
* Source: Headset (CX31993 HIFI AUDIO), MICROPHONE (Master Volume), R, volume: 0.250
* Format: 256k Log Swept Sine, 1 sweep at -12.0 dBFS with no timing reference
* Dated: 01 11, 25 3:21:16 PM
* REW Settings:
*  C-weighting compensation: Off
*  Target level: 75.0 dB
* Note: ; 
* Measurement: Binary Dynaquattro R
* Smoothing: 1/12 octave
* Frequency Step: 96 ppo
* Start Frequency: 0.36621094 Hz
*
* Freq(Hz) SPL(dB) Phase(degrees)
0.366211 51.596 -43.3705
0.368865 51.603 -43.4663
0.371538 51.615 -43.6092
0.374230 51.629 -43.7873
0.376942 51.644 -43.9907
0.379673 51.661 -44.2120
0.382424 51.679 -44.4462
0.385196 51.697 -44.6903
0.387987 51.715 -44.9427
0.390798 51.734 -45.2024
0.393630 51.753 -45.4690
0.396483 51.772 -45.7421
0.399356 51.791 -46.0217
0.402250 51.810 -46.3079
0.405165 51.830 -46.6005
0.408101 51.849 -46.8998
0.411058 51.869 -47.2056
0.414037 51.889 -47.5181
0.417037 51.909 -47.8374
0.420059 51.929 -48.1634
0.423103 51.950 -48.4963
0.426169 51.970 -48.8360
0.429257 51.991 -49.1827
0.432368 52.011 -49.5364
0.435501 52.032 -49.8971
0.438656 52.053 -50.2648
0.441835 52.074 -50.6397
0.445037 52.096 -51.0217
0.448262 52.117 -51.4109
0.451510 52.139 -51.8073
0.454782 52.161 -52.2109
0.458077 52.183 -52.6218
0.461397 52.205 -53.0401
0.464740 52.227 -53.4656
0.468108 52.250 -53.8985
0.471500 52.272 -54.3388
0.474917 52.295 -54.7865
0.478358 52.318 -55.2415
0.481825 52.341 -55.7039
0.485316 52.365 -56.1738
0.488833 52.388 -56.6511
0.492375 52.412 -57.1357
0.495943 52.435 -57.6278
0.499537 52.459 -58.1272
0.503157 52.484 -58.6341
0.506803 52.508 -59.1483
0.510475 52.532 -59.6699
0.514175 52.557 -60.1988
0.517900 52.582 -60.7350
0.521653 52.607 -61.2786
0.525434 52.632 -61.8293
0.529241 52.658 -62.3873
0.533076 52.683 -62.9525
0.536939 52.709 -63.5249
0.540830 52.735 -64.1043
0.544749 52.761 -64.6909
0.548696 52.787 -65.2844
0.552673 52.814 -65.8849
0.556677 52.841 -66.4924
0.560711 52.867 -67.1067
0.564774 52.895 -67.7278
0.568867 52.922 -68.3557
0.572989 52.949 -68.9902
0.577141 52.977 -69.6314
0.581324 53.005 -70.2792
0.585536 53.033 -70.9335
0.589779 53.061 -71.5942
0.594053 53.090 -72.2613
0.598358 53.119 -72.9348
0.602694 53.148 -73.6144
0.607061 53.177 -74.3003
0.611460 53.206 -74.9922
0.615891 53.236 -75.6902
0.620354 53.265 -76.3942
0.624849 53.295 -77.1041
0.629377 53.326 -77.8199
0.633938 53.356 -78.5414
0.638532 53.387 -79.2687
0.643159 53.418 -80.0017
0.647819 53.449 -80.7402
0.652514 53.480 -81.4843
0.657242 53.511 -82.2339
0.662005 53.543 -82.9890
0.666802 53.575 -83.7495
0.671634 53.608 -84.5153
0.676501 53.640 -85.2865
0.681403 53.673 -86.0629
0.686341 53.706 -86.8445
0.691314 53.739 -87.6314
0.696324 53.773 -88.4234
0.701370 53.807 -89.2205
0.706452 53.842 -90.0227
0.711571 53.878 -90.8299
0.716728 53.916 -91.6418
0.721921 53.957 -92.4583
0.727153 54.001 -93.2789
0.732422 54.051 -94.1032
0.737729 54.105 -94.9303
0.743075 54.165 -95.7595
0.748460 54.230 -96.5900
0.753883 54.298 -97.4209
0.759346 54.370 -98.2515
0.764849 54.444 -99.0814
0.770391 54.521 -99.9098
0.775974 54.600 -100.7363
0.781597 54.682 -101.5603
0.787261 54.766 -102.3816
0.792966 54.852 -103.1997
0.798712 54.940 -104.0142
0.804500 55.030 -104.8249
0.810329 55.122 -105.6313
0.816201 55.216 -106.4332
0.822116 55.313 -107.2305
0.828073 55.411 -108.0229
0.834074 55.511 -108.8102
0.840118 55.613 -109.5922
0.846206 55.718 -110.3689
0.852338 55.824 -111.1401
0.858514 55.932 -111.9059
0.864735 56.041 -112.6660
0.871001 56.153 -113.4206
0.877313 56.266 -114.1697
0.883670 56.381 -114.9133
0.890074 56.498 -115.6514
0.896524 56.616 -116.3841
0.903020 56.736 -117.1115
0.909564 56.858 -117.8337
0.916155 56.980 -118.5510
0.922794 57.105 -119.2633
0.929481 57.230 -119.9709
0.936216 57.357 -120.6740
0.943000 57.485 -121.3728
0.949834 57.614 -122.0675
0.956717 57.744 -122.7582
0.963649 57.875 -123.4453
0.970632 58.007 -124.1290
0.977666 58.140 -124.8095
0.984750 58.273 -125.4871
0.991886 58.407 -126.1621
0.999074 58.541 -126.8347
1.006314 58.676 -127.5053
1.013606 58.811 -128.1741
1.020951 58.946 -128.8414
1.028349 59.081 -129.5075
1.035801 59.216 -130.1727
1.043307 59.351 -130.8373
1.050867 59.486 -131.5016
1.058482 59.620 -132.1658
1.066152 59.754 -132.8300
1.073878 59.887 -133.4945
1.081660 60.019 -134.1590
1.089498 60.151 -134.8232
1.097393 60.283 -135.4868
1.105345 60.415 -136.1488
1.113355 60.547 -136.8085
1.121423 60.679 -137.4650
1.129549 60.812 -138.1179
1.137734 60.946 -138.7666
1.145979 61.080 -139.4110
1.154283 61.216 -140.0508
1.162647 61.352 -140.6859
1.171072 61.489 -141.3165
1.179558 61.626 -141.9424
1.188106 61.765 -142.5637
1.196715 61.904 -143.1805
1.205387 62.044 -143.7929
1.214122 62.185 -144.4010
1.222920 62.326 -145.0049
1.231782 62.468 -145.6046
1.240708 62.611 -146.2005
1.249699 62.754 -146.7926
1.258754 62.898 -147.3811
1.267876 63.042 -147.9662
1.277063 63.187 -148.5480
1.286318 63.332 -149.1268
1.295639 63.477 -149.7028
1.305027 63.624 -150.2761
1.314484 63.770 -150.8470
1.324009 63.917 -151.4157
1.333604 64.064 -151.9825
1.343268 64.211 -152.5475
1.353002 64.358 -153.1110
1.362806 64.506 -153.6733
1.372681 64.653 -154.2345
1.382628 64.801 -154.7951
1.392647 64.948 -155.3551
1.402739 65.096 -155.9147
1.412904 65.243 -156.4743
1.423142 65.390 -157.0339
1.433455 65.537 -157.5936
1.443843 65.683 -158.1531
1.454305 65.830 -158.7124
1.464844 65.976 -159.2708
1.475459 66.121 -159.8277
1.486150 66.267 -160.3824
1.496920 66.412 -160.9345
1.507767 66.557 -161.4836
1.518693 66.702 -162.0295
1.529698 66.847 -162.5724
1.540783 66.991 -163.1123
1.551948 67.135 -163.6494
1.563194 67.280 -164.1840
1.574521 67.423 -164.7164
1.585931 67.567 -165.2467
1.597423 67.711 -165.7754
1.608999 67.854 -166.3028
1.620658 67.997 -166.8291
1.632402 68.140 -167.3548
1.644232 68.283 -167.8803
1.656146 68.426 -168.4057
1.668147 68.568 -168.9317
1.680235 68.711 -169.4584
1.692411 68.853 -169.9863
1.704675 68.995 -170.5157
1.717028 69.137 -171.0471
1.729470 69.279 -171.5809
1.742003 69.421 -172.1174
1.754626 69.563 -172.6570
1.767341 69.705 -173.2001
1.780147 69.847 -173.7470
1.793047 69.989 -174.2978
1.806040 70.130 -174.8528
1.819128 70.272 -175.4120
1.832310 70.413 -175.9749
1.845587 70.554 -176.5413
1.858961 70.695 -177.1106
1.872432 70.835 -177.6823
1.886001 70.974 -178.2558
1.899667 71.114 -178.8308
1.913433 71.252 -179.4070
1.927299 71.391 -179.9841
1.941265 71.528 179.4381
1.955332 71.665 178.8598
1.969501 71.802 178.2811
1.983773 71.939 177.7021
1.998148 72.075 177.1228
2.012627 72.210 176.5433
2.027212 72.345 175.9634
2.041902 72.480 175.3833
2.056698 72.614 174.8028
2.071602 72.748 174.2217
2.086614 72.882 173.6400
2.101734 73.016 173.0576
2.116964 73.149 172.4741
2.132304 73.282 171.8893
2.147756 73.414 171.3030
2.163320 73.547 170.7149
2.178996 73.679 170.1246
2.194786 73.811 169.5319
2.210690 73.942 168.9364
2.226710 74.073 168.3381
2.242845 74.203 167.7370
2.259098 74.332 167.1332
2.275468 74.461 166.5271
2.291957 74.589 165.9189
2.308566 74.717 165.3091
2.325295 74.844 164.6979
2.342145 74.970 164.0857
2.359117 75.095 163.4727
2.376212 75.220 162.8593
2.393431 75.345 162.2455
2.410775 75.469 161.6317
2.428244 75.592 161.0179
2.445840 75.715 160.4043
2.463564 75.837 159.7908
2.481416 75.959 159.1775
2.499397 76.080 158.5642
2.517509 76.201 157.9506
2.535752 76.322 157.3364
2.554127 76.442 156.7211
2.572635 76.561 156.1040
2.591277 76.680 155.4846
2.610055 76.798 154.8625
2.628968 76.915 154.2377
2.648019 77.032 153.6103
2.667208 77.147 152.9805
2.686535 77.262 152.3489
2.706003 77.376 151.7160
2.725612 77.489 151.0821
2.745363 77.602 150.4479
2.765257 77.714 149.8137
2.785295 77.825 149.1800
2.805478 77.935 148.5471
2.825808 78.045 147.9153
2.846285 78.154 147.2849
2.866910 78.263 146.6559
2.887685 78.372 146.0280
2.908611 78.479 145.4009
2.929688 78.586 144.7740
2.950917 78.693 144.1465
2.972301 78.798 143.5177
2.993839 78.903 142.8872
3.015534 79.007 142.2549
3.037386 79.109 141.6212
3.059396 79.211 140.9862
3.081565 79.313 140.3507
3.103896 79.413 139.7151
3.126388 79.513 139.0802
3.149043 79.612 138.4464
3.171862 79.710 137.8143
3.194847 79.808 137.1845
3.217998 79.905 136.5572
3.241317 80.002 135.9326
3.264805 80.098 135.3107
3.288463 80.194 134.6909
3.312293 80.289 134.0727
3.336295 80.383 133.4554
3.360471 80.476 132.8384
3.384822 80.569 132.2216
3.409350 80.661 131.6049
3.434056 80.752 130.9885
3.458940 80.842 130.3728
3.484005 80.932 129.7582
3.509252 81.021 129.1454
3.534681 81.109 128.5347
3.560295 81.197 127.9265
3.586094 81.285 127.3212
3.612081 81.372 126.7191
3.638255 81.459 126.1199
3.664620 81.545 125.5236
3.691175 81.631 124.9296
3.717923 81.717 124.3376
3.744864 81.801 123.7470
3.772001 81.886 123.1578
3.799335 81.969 122.5700
3.826866 82.052 121.9836
3.854597 82.135 121.3989
3.882529 82.217 120.8160
3.910664 82.299 120.2354
3.939002 82.381 119.6570
3.967546 82.463 119.0813
3.996296 82.544 118.5081
4.025255 82.625 117.9375
4.054423 82.706 117.3693
4.083804 82.786 116.8032
4.113396 82.867 116.2389
4.143204 82.947 115.6763
4.173227 83.026 115.1151
4.203468 83.106 114.5551
4.233928 83.185 113.9964
4.264609 83.264 113.4388
4.295512 83.343 112.8822
4.326639 83.422 112.3266
4.357992 83.501 111.7719
4.389572 83.579 111.2181
4.421380 83.658 110.6650
4.453419 83.736 110.1125
4.485691 83.815 109.5605
4.518196 83.893 109.0089
4.550936 83.971 108.4575
4.583914 84.049 107.9060
4.617131 84.126 107.3542
4.650589 84.204 106.8021
4.684289 84.281 106.2493
4.718233 84.359 105.6956
4.752424 84.436 105.1409
4.786862 84.512 104.5851
4.821549 84.589 104.0280
4.856488 84.666 103.4697
4.891680 84.742 102.9100
4.927127 84.818 102.3490
4.962831 84.894 101.7867
4.998794 84.969 101.2229
5.035017 85.044 100.6576
5.071503 85.118 100.0907
5.108253 85.192 99.5219
5.145270 85.266 98.9509
5.182555 85.339 98.3778
5.220110 85.412 97.8024
5.257937 85.484 97.2249
5.296038 85.556 96.6454
5.334415 85.626 96.0644
5.373071 85.697 95.4821
5.412006 85.766 94.8985
5.451224 85.835 94.3138
5.490725 85.903 93.7279
5.530514 85.971 93.1405
5.570590 86.037 92.5516
5.610957 86.103 91.9613
5.651616 86.168 91.3698
5.692570 86.232 90.7777
5.733821 86.295 90.1855
5.775370 86.357 89.5938
5.817221 86.419 89.0026
5.859375 86.479 88.4123
5.901834 86.539 87.8225
5.944602 86.597 87.2333
5.987679 86.655 86.6448
6.031068 86.712 86.0573
6.074771 86.767 85.4714
6.118792 86.822 84.8875
6.163131 86.876 84.3061
6.207792 86.930 83.7277
6.252776 86.982 83.1521
6.298086 87.034 82.5794
6.343725 87.084 82.0095
6.389694 87.134 81.4426
6.435996 87.184 80.8788
6.482634 87.232 80.3185
6.529610 87.280 79.7621
6.576926 87.328 79.2096
6.624585 87.375 78.6612
6.672590 87.421 78.1168
6.720942 87.467 77.5762
6.769645 87.513 77.0394
6.818700 87.558 76.5062
6.868111 87.603 75.9765
6.917881 87.647 75.4503
6.968010 87.692 74.9277
7.018504 87.736 74.4084
7.069362 87.780 73.8923
7.120590 87.824 73.3791
7.172189 87.868 72.8684
7.224161 87.912 72.3600
7.276511 87.955 71.8534
7.329239 87.999 71.3486
7.382350 88.043 70.8452
7.435845 88.086 70.3431
7.489729 88.130 69.8420
7.544002 88.173 69.3416
7.598669 88.217 68.8415
7.653732 88.260 68.3414
7.709194 88.303 67.8412
7.765058 88.346 67.3405
7.821327 88.389 66.8394
7.878004 88.432 66.3376
7.935091 88.474 65.8351
7.992592 88.516 65.3319
8.050510 88.558 64.8277
8.108847 88.599 64.3225
8.167607 88.640 63.8163
8.226793 88.681 63.3092
8.286408 88.721 62.8013
8.346454 88.760 62.2928
8.406936 88.799 61.7838
8.467856 88.838 61.2743
8.529218 88.876 60.7645
8.591024 88.913 60.2545
8.653278 88.950 59.7445
8.715983 88.986 59.2348
8.779143 89.021 58.7256
8.842760 89.056 58.2170
8.906839 89.091 57.7091
8.971381 89.125 57.2021
9.036392 89.158 56.6960
9.101873 89.191 56.1910
9.167829 89.223 55.6873
9.234263 89.255 55.1849
9.301178 89.286 54.6837
9.368578 89.317 54.1839
9.436467 89.347 53.6854
9.504847 89.377 53.1881
9.573723 89.407 52.6922
9.643099 89.436 52.1974
9.712976 89.465 51.7039
9.783361 89.494 51.2113
9.854255 89.522 50.7198
9.925663 89.550 50.2292
9.997588 89.578 49.7396
10.070035 89.605 49.2507
10.143007 89.633 48.7625
10.216507 89.659 48.2751
10.290540 89.686 47.7882
10.365109 89.712 47.3021
10.440219 89.738 46.8165
10.515873 89.763 46.3314
10.592076 89.789 45.8469
10.668830 89.814 45.3629
10.746141 89.838 44.8794
10.824012 89.863 44.3962
10.902447 89.887 43.9135
10.981451 89.911 43.4310
11.061027 89.935 42.9488
11.141180 89.958 42.4667
11.221913 89.982 41.9846
11.303232 90.005 41.5023
11.385140 90.027 41.0199
11.467641 90.050 40.5370
11.550741 90.072 40.0538
11.634442 90.094 39.5699
11.718750 90.116 39.0855
11.803669 90.137 38.6004
11.889203 90.158 38.1148
11.975357 90.178 37.6286
12.062136 90.198 37.1422
12.149543 90.217 36.6555
12.237583 90.236 36.1690
12.326262 90.254 35.6830
12.415583 90.272 35.1980
12.505552 90.289 34.7143
12.596172 90.306 34.2324
12.687449 90.321 33.7528
12.779387 90.337 33.2761
12.871992 90.352 32.8026
12.965268 90.366 32.3327
13.059220 90.381 31.8667
13.153852 90.395 31.4048
13.249170 90.409 30.9469
13.345179 90.423 30.4930
13.441884 90.437 30.0428
13.539289 90.452 29.5959
13.637401 90.467 29.1516
13.736223 90.482 28.7092
13.835761 90.498 28.2679
13.936021 90.514 27.8269
14.037007 90.531 27.3851
14.138725 90.549 26.9418
14.241180 90.566 26.4961
14.344377 90.584 26.0474
14.448323 90.602 25.5951
14.553021 90.619 25.1390
14.658478 90.637 24.6792
14.764700 90.654 24.2158
14.871691 90.670 23.7494
14.979457 90.686 23.2808
15.088005 90.700 22.8110
15.197339 90.714 22.3410
15.307465 90.726 21.8722
15.418389 90.738 21.4057
15.530117 90.749 20.9428
15.642655 90.758 20.4845
15.756008 90.768 20.0316
15.870182 90.777 19.5846
15.985184 90.785 19.1436
16.101019 90.794 18.7085
16.217694 90.803 18.2786
16.335214 90.812 17.8530
16.453586 90.822 17.4305
16.572815 90.832 17.0096
16.692909 90.843 16.5888
16.813872 90.855 16.1666
16.935713 90.866 15.7417
17.058436 90.878 15.3130
17.182048 90.890 14.8799
17.306556 90.901 14.4420
17.431967 90.911 13.9995
17.558286 90.921 13.5532
17.685521 90.930 13.1042
17.813677 90.937 12.6539
17.942762 90.943 12.2037
18.072783 90.947 11.7554
18.203746 90.950 11.3104
18.335658 90.953 10.8700
18.468526 90.954 10.4349
18.602356 90.955 10.0056
18.737156 90.955 9.5819
18.872934 90.956 9.1632
19.009695 90.956 8.7482
19.147447 90.957 8.3356
19.286197 90.958 7.9238
19.425953 90.959 7.5112
19.566721 90.961 7.0964
19.708510 90.963 6.6783
19.851326 90.964 6.2560
19.995177 90.965 5.8291
20.140070 90.966 5.3977
20.286013 90.966 4.9621
20.433014 90.966 4.5227
20.581080 90.964 4.0802
20.730219 90.962 3.6350
20.880439 90.959 3.1879
21.031747 90.955 2.7389
21.184152 90.951 2.2887
21.337661 90.946 1.8375
21.492282 90.941 1.3856
21.648024 90.935 0.9338
21.804895 90.928 0.4825
21.962902 90.922 0.0326
22.122054 90.914 -0.4154
22.282360 90.907 -0.8611
22.443827 90.901 -1.3046
22.606464 90.895 -1.7468
22.770280 90.890 -2.1895
22.935283 90.886 -2.6348
23.101481 90.884 -3.0853
23.268884 90.882 -3.5439
23.437500 90.881 -4.0122
23.607338 90.880 -4.4907
23.778406 90.878 -4.9778
23.950714 90.874 -5.4701
24.124271 90.869 -5.9619
24.299086 90.863 -6.4465
24.475167 90.855 -6.9174
24.652524 90.847 -7.3693
24.831166 90.841 -7.8004
25.011103 90.838 -8.2135
25.192344 90.841 -8.6171
25.374898 90.850 -9.0244
25.558775 90.866 -9.4524
25.743984 90.887 -9.9191
25.930536 90.912 -10.4399
26.118439 90.936 -11.0244
26.307704 90.956 -11.6735
26.498341 90.967 -12.3777
26.690359 90.965 -13.1177
26.883768 90.948 -13.8652
27.078579 90.915 -14.5871
27.274801 90.868 -15.2490
27.472446 90.809 -15.8205
27.671522 90.743 -16.2806
27.872042 90.678 -16.6216
28.074014 90.619 -16.8514
28.277450 90.572 -16.9938
28.482360 90.541 -17.0837
28.688755 90.525 -17.1610
28.896645 90.523 -17.2632
29.106042 90.532 -17.4180
29.316957 90.545 -17.6394
29.529400 90.559 -17.9277
29.743382 90.569 -18.2715
29.958915 90.572 -18.6524
30.176009 90.569 -19.0508
30.394677 90.561 -19.4502
30.614929 90.548 -19.8402
30.836778 90.534 -20.2179
31.060234 90.519 -20.5862
31.285309 90.505 -20.9521
31.512015 90.491 -21.3229
31.740364 90.477 -21.7042
31.970368 90.463 -22.0983
32.202039 90.447 -22.5038
32.435388 90.429 -22.9177
32.670428 90.409 -23.3359
32.907171 90.388 -23.7550
33.145630 90.366 -24.1728
33.385817 90.344 -24.5887
33.627745 90.321 -25.0031
33.871425 90.299 -25.4164
34.116871 90.277 -25.8290
34.364096 90.256 -26.2413
34.613113 90.236 -26.6534
34.863934 90.216 -27.0660
35.116572 90.198 -27.4795
35.371041 90.180 -27.8948
35.627354 90.164 -28.3121
35.885525 90.148 -28.7321
36.145566 90.133 -29.1548
36.407492 90.119 -29.5809
36.671316 90.106 -30.0120
36.937051 90.093 -30.4501
37.204712 90.081 -30.8969
37.474313 90.067 -31.3528
37.745867 90.052 -31.8159
38.019389 90.034 -32.2815
38.294893 90.013 -32.7428
38.572394 89.990 -33.1932
38.851905 89.965 -33.6284
39.133442 89.940 -34.0475
39.417019 89.915 -34.4540
39.702651 89.892 -34.8542
39.990353 89.869 -35.2549
40.280140 89.848 -35.6608
40.572026 89.826 -36.0736
40.866028 89.803 -36.4921
41.162160 89.779 -36.9131
41.460438 89.754 -37.3340
41.760877 89.729 -37.7533
42.063494 89.704 -38.1711
42.368303 89.679 -38.5889
42.675322 89.655 -39.0079
42.984565 89.630 -39.4289
43.296048 89.606 -39.8521
43.609789 89.582 -40.2773
43.925804 89.558 -40.7046
44.244108 89.534 -41.1337
44.564719 89.510 -41.5641
44.887654 89.484 -41.9944
45.212928 89.459 -42.4227
45.540560 89.432 -42.8472
45.870565 89.405 -43.2670
46.202962 89.377 -43.6819
46.537768 89.349 -44.0933
46.875000 89.321 -44.5021
47.214676 89.292 -44.9093
47.556813 89.262 -45.3145
47.901429 89.231 -45.7170
48.248542 89.199 -46.1169
48.598171 89.167 -46.5156
48.950334 89.134 -46.9159
49.305048 89.102 -47.3203
49.662333 89.068 -47.7301
50.022206 89.033 -48.1433
50.384688 88.998 -48.5551
50.749796 88.961 -48.9601
51.117550 88.925 -49.3556
51.487969 88.891 -49.7437
51.861072 88.859 -50.1315
52.236879 88.831 -50.5284
52.615409 88.805 -50.9415
52.996681 88.779 -51.3726
53.380717 88.752 -51.8171
53.767536 88.724 -52.2672
54.157158 88.694 -52.7148
54.549603 88.664 -53.1552
54.944892 88.633 -53.5869
55.343045 88.602 -54.0110
55.744084 88.570 -54.4286
56.148028 88.539 -54.8410
56.554900 88.508 -55.2494
56.964720 88.476 -55.6561
57.377510 88.445 -56.0643
57.793291 88.413 -56.4778
58.212085 88.381 -56.8986
58.633914 88.347 -57.3273
59.058799 88.312 -57.7628
59.486764 88.275 -58.2025
59.917829 88.237 -58.6433
60.352019 88.197 -59.0820
60.789354 88.155 -59.5151
61.229859 88.114 -59.9398
61.673556 88.072 -60.3542
62.120468 88.031 -60.7582
62.570618 87.991 -61.1531
63.024031 87.953 -61.5411
63.480729 87.917 -61.9252
63.940736 87.882 -62.3077
64.404077 87.848 -62.6906
64.870776 87.814 -63.0745
65.340856 87.781 -63.4596
65.814343 87.748 -63.8456
66.291261 87.714 -64.2325
66.771635 87.680 -64.6208
67.255489 87.646 -65.0115
67.742850 87.611 -65.4063
68.233743 87.577 -65.8069
68.728193 87.541 -66.2142
69.226226 87.505 -66.6283
69.727867 87.468 -67.0481
70.233144 87.431 -67.4720
70.742083 87.392 -67.8981
71.254709 87.353 -68.3245
71.771050 87.314 -68.7499
72.291132 87.274 -69.1730
72.814984 87.234 -69.5923
73.342631 87.194 -70.0068
73.874102 87.153 -70.4163
74.409424 87.113 -70.8218
74.948626 87.073 -71.2252
75.491734 87.033 -71.6283
76.038779 86.993 -72.0319
76.589787 86.952 -72.4360
77.144788 86.911 -72.8408
77.703811 86.870 -73.2458
78.266885 86.828 -73.6511
78.834039 86.786 -74.0558
79.405303 86.744 -74.4594
79.980706 86.702 -74.8619
80.560280 86.659 -75.2637
81.144053 86.616 -75.6643
81.732056 86.573 -76.0629
82.324320 86.530 -76.4583
82.920876 86.486 -76.8504
83.521755 86.443 -77.2407
84.126988 86.399 -77.6312
84.736607 86.355 -78.0229
85.350643 86.311 -78.4164
85.969129 86.267 -78.8114
86.592097 86.223 -79.2079
87.219579 86.178 -79.6060
87.851608 86.134 -80.0056
88.488217 86.090 -80.4070
89.129439 86.046 -80.8095
89.775308 86.003 -81.2119
90.425856 85.959 -81.6124
91.081119 85.916 -82.0097
91.741131 85.872 -82.4034
92.405925 85.829 -82.7935
93.075536 85.786 -83.1802
93.750000 85.743 -83.5643
94.429351 85.699 -83.9468
95.113625 85.656 -84.3289
95.802858 85.612 -84.7115
96.497085 85.568 -85.0953
97.196342 85.524 -85.4805
97.900667 85.479 -85.8674
98.610096 85.434 -86.2561
99.324665 85.389 -86.6461
100.044413 85.344 -87.0364
100.769376 85.298 -87.4261
101.499592 85.253 -87.8146
102.235100 85.207 -88.2006
102.975938 85.162 -88.5835
103.722144 85.116 -88.9639
104.473757 85.071 -89.3431
105.230817 85.026 -89.7227
105.993363 84.981 -90.1039
106.761435 84.936 -90.4868
107.535072 84.891 -90.8709
108.314315 84.846 -91.2556
109.099206 84.801 -91.6399
109.889783 84.756 -92.0229
110.686090 84.711 -92.4042
111.488167 84.665 -92.7833
112.296056 84.620 -93.1606
113.109800 84.574 -93.5366
113.929440 84.527 -93.9114
114.755020 84.479 -94.2850
115.586582 84.431 -94.6575
116.424170 84.382 -95.0296
117.267827 84.333 -95.4018
118.117598 84.283 -95.7737
118.973527 84.234 -96.1445
119.835658 84.185 -96.5138
120.704037 84.138 -96.8822
121.578708 84.092 -97.2506
122.459718 84.047 -97.6195
123.347111 84.003 -97.9890
124.240935 83.959 -98.3594
125.141236 83.914 -98.7306
126.048061 83.869 -99.1023
126.961458 83.823 -99.4742
127.881473 83.776 -99.8459
128.808154 83.729 -100.2169
129.741551 83.682 -100.5873
130.681712 83.635 -100.9572
131.628686 83.589 -101.3257
132.582521 83.543 -101.6907
133.543269 83.497 -102.0505
134.510979 83.451 -102.4038
135.485701 83.405 -102.7507
136.467486 83.359 -103.0920
137.456386 83.313 -103.4296
138.452451 83.267 -103.7661
139.455735 83.221 -104.1055
140.466288 83.174 -104.4518
141.484165 83.128 -104.8077
142.509418 83.079 -105.1721
143.542100 83.030 -105.5399
144.582265 82.978 -105.9044
145.629968 82.926 -106.2617
146.685262 82.874 -106.6115
147.748204 82.822 -106.9559
148.818849 82.771 -107.2972
149.897251 82.720 -107.6366
150.983469 82.668 -107.9737
152.077557 82.617 -108.3069
153.179574 82.564 -108.6340
154.289576 82.510 -108.9543
155.407622 82.456 -109.2686
156.533770 82.401 -109.5792
157.668078 82.346 -109.8878
158.810606 82.290 -110.1928
159.961413 82.233 -110.4907
161.120559 82.175 -110.7775
162.288105 82.117 -111.0485
163.464112 82.059 -111.2987
164.648640 82.002 -111.5245
165.841752 81.944 -111.7245
167.043510 81.888 -111.8992
168.253976 81.833 -112.0493
169.473213 81.780 -112.1763
170.701286 81.730 -112.2834
171.938258 81.684 -112.3750
173.184194 81.644 -112.4570
174.439158 81.610 -112.5370
175.703216 81.583 -112.6239
176.976434 81.563 -112.7269
178.258878 81.549 -112.8551
179.550615 81.540 -113.0168
180.851713 81.535 -113.2189
182.162239 81.532 -113.4631
183.482262 81.529 -113.7460
184.811850 81.524 -114.0615
186.151073 81.517 -114.4039
187.500000 81.507 -114.7689
188.858702 81.494 -115.1522
190.227250 81.476 -115.5493
191.605715 81.454 -115.9548
192.994169 81.429 -116.3632
194.392685 81.400 -116.7695
195.801334 81.368 -117.1700
197.220191 81.335 -117.5631
198.649330 81.301 -117.9487
200.088825 81.265 -118.3270
201.538751 81.230 -118.6968
202.999184 81.194 -119.0564
204.470200 81.158 -119.4048
205.951875 81.123 -119.7422
207.444287 81.087 -120.0704
208.947514 81.051 -120.3923
210.461634 81.013 -120.7106
211.986726 80.976 -121.0266
213.522869 80.937 -121.3401
215.070144 80.898 -121.6494
216.628631 80.860 -121.9534
218.198411 80.821 -122.2532
219.779567 80.783 -122.5502
221.372180 80.745 -122.8444
222.976334 80.707 -123.1339
224.592112 80.669 -123.4161
226.219600 80.630 -123.6903
227.858880 80.593 -123.9573
229.510039 80.555 -124.2199
231.173164 80.518 -124.4814
232.848340 80.481 -124.7441
234.535655 80.444 -125.0081
236.235197 80.408 -125.2720
237.947054 80.371 -125.5338
239.671317 80.334 -125.7914
241.408074 80.298 -126.0440
243.157416 80.262 -126.2927
244.919435 80.226 -126.5394
246.694223 80.191 -126.7848
248.481871 80.156 -127.0280
250.282473 80.121 -127.2674
252.096123 80.086 -127.5027
253.922915 80.052 -127.7350
255.762945 80.018 -127.9649
257.616309 79.985 -128.1917
259.483103 79.952 -128.4135
261.363424 79.920 -128.6288
263.257372 79.889 -128.8389
265.165043 79.859 -129.0455
267.086538 79.829 -129.2495
269.021957 79.798 -129.4508
270.971401 79.768 -129.6506
272.934972 79.737 -129.8522
274.912771 79.706 -130.0581
276.904902 79.675 -130.2668
278.911469 79.644 -130.4744
280.932577 79.613 -130.6783
282.968330 79.581 -130.8790
285.018835 79.549 -131.0778
287.084199 79.517 -131.2731
289.164530 79.484 -131.4616
291.259935 79.452 -131.6407
293.370525 79.422 -131.8102
295.496408 79.394 -131.9713
297.637697 79.367 -132.1267
299.794503 79.341 -132.2819
301.966937 79.315 -132.4440
304.155114 79.289 -132.6184
306.359147 79.262 -132.8061
308.579152 79.235 -133.0026
310.815244 79.207 -133.2007
313.067539 79.180 -133.3930
315.336156 79.152 -133.5743
317.621211 79.125 -133.7434
319.922826 79.100 -133.9027
322.241118 79.075 -134.0567
324.576210 79.051 -134.2092
326.928223 79.027 -134.3620
329.297280 79.002 -134.5143
331.683504 78.978 -134.6641
334.087019 78.953 -134.8095
336.507952 78.928 -134.9495
338.946427 78.903 -135.0838
341.402572 78.877 -135.2131
343.876516 78.852 -135.3384
346.368387 78.827 -135.4615
348.878315 78.802 -135.5854
351.406431 78.779 -135.7125
353.952867 78.756 -135.8433
356.517756 78.734 -135.9760
359.101230 78.712 -136.1078
361.703426 78.690 -136.2361
364.324478 78.668 -136.3583
366.964523 78.645 -136.4727
369.623699 78.623 -136.5792
372.302145 78.601 -136.6794
375.000000 78.579 -136.7762
377.717405 78.557 -136.8713
380.454501 78.535 -136.9656
383.211431 78.513 -137.0591
385.988339 78.492 -137.1517
388.785369 78.470 -137.2433
391.602668 78.448 -137.3333
394.440383 78.427 -137.4207
397.298660 78.405 -137.5046
400.177650 78.384 -137.5840
403.077502 78.363 -137.6570
405.998368 78.343 -137.7223
408.940400 78.323 -137.7788
411.903750 78.304 -137.8269
414.888575 78.284 -137.8679
417.895028 78.266 -137.9036
420.923268 78.247 -137.9365
423.973452 78.230 -137.9697
427.045738 78.213 -138.0052
430.140287 78.198 -138.0431
433.257261 78.184 -138.0817
436.396822 78.171 -138.1183
439.559133 78.159 -138.1509
442.744360 78.147 -138.1784
445.952668 78.135 -138.2009
449.184225 78.124 -138.2185
452.439199 78.112 -138.2320
455.717760 78.101 -138.2430
459.020079 78.089 -138.2536
462.346327 78.078 -138.2648
465.696680 78.067 -138.2761
469.071310 78.057 -138.2860
472.470394 78.047 -138.2936
475.894109 78.038 -138.2985
479.342634 78.029 -138.3010
482.816148 78.021 -138.3016
486.314833 78.013 -138.3005
489.838871 78.005 -138.2977
493.388445 77.998 -138.2934
496.963741 77.991 -138.2877
500.564945 77.985 -138.2808
504.192245 77.979 -138.2723
507.845830 77.974 -138.2618
511.525890 77.968 -138.2487
515.232618 77.963 -138.2328
518.966206 77.958 -138.2145
522.726849 77.953 -138.1946
526.514743 77.949 -138.1739
530.330086 77.946 -138.1521
534.173076 77.942 -138.1282
538.043915 77.939 -138.1011
541.942803 77.936 -138.0707
545.869944 77.934 -138.0377
549.825542 77.932 -138.0028
553.809805 77.930 -137.9661
557.822939 77.928 -137.9277
561.865154 77.927 -137.8874
565.936660 77.926 -137.8447
570.037671 77.925 -137.7992
574.168399 77.924 -137.7506
578.329060 77.924 -137.6987
582.519870 77.925 -137.6439
586.741049 77.926 -137.5870
590.992817 77.927 -137.5288
595.275394 77.929 -137.4699
599.589005 77.931 -137.4100
603.933874 77.933 -137.3481
608.310228 77.936 -137.2829
612.718295 77.939 -137.2129
617.158304 77.942 -137.1379
621.630488 77.945 -137.0588
626.135079 77.949 -136.9766
630.672311 77.954 -136.8927
635.242423 77.959 -136.8076
639.845651 77.964 -136.7214
644.482237 77.970 -136.6340
649.152421 77.977 -136.5453
653.856447 77.983 -136.4550
658.594560 77.991 -136.3621
663.367008 77.998 -136.2665
668.174039 78.006 -136.1678
673.015903 78.014 -136.0662
677.892854 78.023 -135.9619
682.805145 78.032 -135.8552
687.753032 78.041 -135.7465
692.736774 78.051 -135.6359
697.756631 78.061 -135.5236
702.812863 78.071 -135.4097
707.905735 78.082 -135.2944
713.035511 78.093 -135.1774
718.202461 78.104 -135.0585
723.406852 78.116 -134.9373
728.648956 78.128 -134.8136
733.929047 78.140 -134.6867
739.247399 78.152 -134.5562
744.604290 78.164 -134.4214
750.000000 78.176 -134.2821
755.434809 78.188 -134.1377
760.909001 78.201 -133.9876
766.422861 78.213 -133.8313
771.976677 78.226 -133.6676
777.570739 78.239 -133.4954
783.205337 78.253 -133.3135
788.880766 78.267 -133.1217
794.597321 78.283 -132.9208
800.355301 78.300 -132.7118
806.155005 78.318 -132.4960
811.996736 78.338 -132.2738
817.880799 78.359 -132.0448
823.807501 78.381 -131.8083
829.777150 78.405 -131.5638
835.790057 78.431 -131.3105
841.846536 78.458 -131.0485
847.946903 78.487 -130.7775
854.091476 78.517 -130.4983
860.280575 78.550 -130.2126
866.514523 78.584 -129.9230
872.793644 78.620 -129.6316
879.118267 78.658 -129.3400
885.488720 78.698 -129.0489
891.905336 78.741 -128.7589
898.368450 78.786 -128.4709
904.878398 78.833 -128.1859
911.435520 78.883 -127.9048
918.040157 78.934 -127.6279
924.692655 78.988 -127.3557
931.393359 79.043 -127.0885
938.142619 79.101 -126.8271
944.940787 79.160 -126.5722
951.788218 79.221 -126.3249
958.685268 79.284 -126.0861
965.632296 79.349 -125.8563
972.629666 79.415 -125.6359
979.677741 79.482 -125.4247
986.776890 79.551 -125.2225
993.927482 79.621 -125.0293
1001.129891 79.692 -124.8455
1008.384491 79.764 -124.6715
1015.691660 79.837 -124.5081
1023.051781 79.911 -124.3553
1030.465236 79.986 -124.2134
1037.932411 80.061 -124.0825
1045.453698 80.137 -123.9626
1053.029486 80.214 -123.8537
1060.660172 80.291 -123.7557
1068.346153 80.369 -123.6687
1076.087829 80.447 -123.5924
1083.885605 80.525 -123.5265
1091.739887 80.603 -123.4705
1099.651084 80.681 -123.4241
1107.619609 80.759 -123.3869
1115.645878 80.837 -123.3588
1123.730308 80.914 -123.3395
1131.873321 80.992 -123.3292
1140.075341 81.069 -123.3276
1148.336797 81.145 -123.3345
1156.658119 81.222 -123.3492
1165.039741 81.297 -123.3713
1173.482099 81.373 -123.4003
1181.985634 81.447 -123.4357
1190.550789 81.522 -123.4769
1199.178011 81.595 -123.5231
1207.867749 81.669 -123.5736
1216.620457 81.741 -123.6281
1225.436590 81.813 -123.6864
1234.316609 81.884 -123.7484
1243.260976 81.955 -123.8137
1252.270157 82.025 -123.8821
1261.344623 82.094 -123.9530
1270.484846 82.163 -124.0259
1279.691303 82.231 -124.1003
1288.964474 82.298 -124.1759
1298.304842 82.365 -124.2524
1307.712894 82.432 -124.3300
1317.189120 82.498 -124.4081
1326.734016 82.564 -124.4868
1336.348077 82.629 -124.5657
1346.031806 82.694 -124.6448
1355.785708 82.759 -124.7241
1365.610290 82.823 -124.8033
1375.506065 82.887 -124.8822
1385.473549 82.951 -124.9604
1395.513261 83.015 -125.0374
1405.625726 83.078 -125.1127
1415.811469 83.141 -125.1866
1426.071023 83.204 -125.2593
1436.404921 83.267 -125.3309
1446.813703 83.330 -125.4017
1457.297912 83.393 -125.4717
1467.858093 83.456 -125.5408
1478.494798 83.520 -125.6089
1489.208581 83.583 -125.6759
1500.000000 83.646 -125.7418
1510.869618 83.710 -125.8064
1521.818002 83.774 -125.8697
1532.845723 83.837 -125.9317
1543.953355 83.901 -125.9924
1555.141477 83.965 -126.0519
1566.410674 84.030 -126.1105
1577.761531 84.094 -126.1683
1589.194642 84.159 -126.2256
1600.710601 84.224 -126.2825
1612.310010 84.289 -126.3387
1623.993473 84.355 -126.3943
1635.761599 84.421 -126.4492
1647.615002 84.488 -126.5033
1659.554299 84.555 -126.5565
1671.580114 84.622 -126.6090
1683.693072 84.690 -126.6606
1695.893807 84.758 -126.7118
1708.182952 84.827 -126.7628
1720.561150 84.897 -126.8141
1733.029045 84.967 -126.8657
1745.587288 85.038 -126.9178
1758.236533 85.110 -126.9703
1770.977440 85.182 -127.0234
1783.810673 85.255 -127.0773
1796.736900 85.329 -127.1324
1809.756796 85.404 -127.1891
1822.871040 85.479 -127.2477
1836.080315 85.555 -127.3089
1849.385310 85.632 -127.3730
1862.786718 85.709 -127.4404
1876.285239 85.788 -127.5115
1889.881575 85.867 -127.5863
1903.576436 85.947 -127.6649
1917.370535 86.027 -127.7473
1931.264593 86.109 -127.8336
1945.259332 86.191 -127.9238
1959.355483 86.273 -128.0181
1973.553781 86.356 -128.1163
1987.854965 86.439 -128.2185
2002.259781 86.523 -128.3248
2016.768981 86.608 -128.4359
2031.383320 86.692 -128.5522
2046.103561 86.778 -128.6749
2060.930471 86.864 -128.8045
2075.864823 86.951 -128.9412
2090.907395 87.039 -129.0853
2106.058972 87.127 -129.2365
2121.320344 87.216 -129.3950
2136.692305 87.305 -129.5610
2152.175658 87.396 -129.7352
2167.771210 87.486 -129.9182
2183.479774 87.578 -130.1110
2199.302169 87.670 -130.3144
2215.239219 87.763 -130.5289
2231.291755 87.857 -130.7549
2247.460615 87.950 -130.9921
2263.746641 88.044 -131.2406
2280.150683 88.138 -131.5006
2296.673595 88.231 -131.7724
2313.316238 88.325 -132.0563
2330.079481 88.418 -132.3528
2346.964198 88.510 -132.6622
2363.971268 88.603 -132.9847
2381.101578 88.695 -133.3206
2398.356022 88.786 -133.6703
2415.735498 88.877 -134.0339
2433.240913 88.967 -134.4117
2450.873180 89.056 -134.8038
2468.633217 89.145 -135.2101
2486.521951 89.232 -135.6306
2504.540314 89.319 -136.0652
2522.689246 89.404 -136.5140
2540.969692 89.488 -136.9767
2559.382606 89.570 -137.4534
2577.928947 89.651 -137.9438
2596.609683 89.729 -138.4481
2615.425787 89.806 -138.9658
2634.378241 89.881 -139.4962
2653.468031 89.953 -140.0383
2672.696154 90.023 -140.5906
2692.063613 90.091 -141.1511
2711.571415 90.155 -141.7179
2731.220579 90.217 -142.2883
2751.012130 90.276 -142.8597
2770.947098 90.332 -143.4297
2791.026522 90.387 -143.9960
2811.251451 90.440 -144.5566
2831.622938 90.492 -145.1110
2852.142045 90.545 -145.6602
2872.809842 90.599 -146.2075
2893.627406 90.654 -146.7593
2914.595823 90.712 -147.3235
2935.716186 90.772 -147.9098
2956.989596 90.834 -148.5270
2978.417161 90.895 -149.1829
3000.000000 90.956 -149.8820
3021.739237 91.013 -150.6255
3043.636005 91.067 -151.4113
3065.691446 91.114 -152.2342
3087.906710 91.155 -153.0869
3110.282955 91.189 -153.9618
3132.821347 91.215 -154.8511
3155.523062 91.234 -155.7483
3178.389283 91.247 -156.6476
3201.421202 91.252 -157.5449
3224.620020 91.252 -158.4369
3247.986946 91.246 -159.3215
3271.523198 91.235 -160.1974
3295.230004 91.219 -161.0637
3319.108599 91.198 -161.9200
3343.160228 91.174 -162.7659
3367.386145 91.145 -163.6014
3391.787613 91.113 -164.4266
3416.365904 91.077 -165.2417
3441.122300 91.037 -166.0466
3466.058091 90.994 -166.8418
3491.174576 90.948 -167.6272
3516.473066 90.899 -168.4031
3541.954880 90.847 -169.1696
3567.621345 90.791 -169.9269
3593.473800 90.733 -170.6752
3619.513592 90.672 -171.4150
3645.742080 90.607 -172.1465
3672.160630 90.541 -172.8699
3698.770620 90.471 -173.5852
3725.573436 90.398 -174.2927
3752.570477 90.323 -174.9922
3779.763150 90.245 -175.6840
3807.152872 90.165 -176.3682
3834.741071 90.081 -177.0450
3862.529185 89.994 -177.7147
3890.518664 89.905 -178.3771
3918.710966 89.812 -179.0319
3947.107561 89.716 -179.6783
3975.709929 89.616 179.6851
4004.519563 89.513 179.0601
4033.537962 89.407 178.4488
4062.766641 89.298 177.8531
4092.207123 89.186 177.2742
4121.860942 89.071 176.7126
4151.729646 88.955 176.1683
4181.814790 88.836 175.6403
4212.117944 88.716 175.1266
4242.640687 88.594 174.6259
4273.384610 88.470 174.1364
4304.351317 88.345 173.6571
4335.542421 88.218 173.1879
4366.959549 88.088 172.7296
4398.604338 87.956 172.2837
4430.478438 87.822 171.8524
4462.583511 87.685 171.4381
4494.921231 87.546 171.0432
4527.493283 87.405 170.6700
4560.301365 87.263 170.3199
4593.347189 87.119 169.9941
4626.632476 86.975 169.6925
4660.158962 86.830 169.4148
4693.928395 86.686 169.1602
4727.942535 86.542 168.9276
4762.203156 86.400 168.7156
4796.712043 86.258 168.5227
4831.470996 86.118 168.3474
4866.481826 85.979 168.1882
4901.746360 85.841 168.0438
4937.266434 85.705 167.9135
4973.043902 85.570 167.7968
5009.080628 85.437 167.6939
5045.378492 85.304 167.6055
5081.939384 85.172 167.5326
5118.765212 85.042 167.4765
5155.857894 84.912 167.4387
5193.219366 84.784 167.4209
5230.851574 84.658 167.4248
5268.756481 84.533 167.4523
5306.936062 84.410 167.5051
5345.392309 84.289 167.5851
5384.127225 84.171 167.6938
5423.142830 84.055 167.8323
5462.441159 83.943 168.0011
5502.024259 83.834 168.2006
5541.894195 83.730 168.4308
5582.053045 83.629 168.6920
5622.502902 83.534 168.9842
5663.245876 83.443 169.3076
5704.284090 83.357 169.6624
5745.619684 83.276 170.0494
5787.254813 83.200 170.4698
5829.191647 83.129 170.9250
5871.432373 83.064 171.4172
5913.979192 83.005 171.9490
5956.834323 82.951 172.5228
6000.000000 82.904 173.1417
6043.478473 82.864 173.8083
6087.272010 82.832 174.5248
6131.382892 82.809 175.2925
6175.813420 82.796 176.1120
6220.565910 82.794 176.9830
6265.642695 82.804 177.9042
6311.046124 82.828 178.8728
6356.778566 82.865 179.8847
6402.842404 82.919 -179.0660
6449.240040 82.989 -177.9868
6495.973891 83.077 -176.8872
6543.046396 83.185 -175.7784
6590.460007 83.311 -174.6729
6638.217197 83.458 -173.5846
6686.320456 83.624 -172.5283
6734.772290 83.811 -171.5198
6783.575226 84.016 -170.5754
6832.731809 84.239 -169.7114
6882.244600 84.479 -168.9429
6932.116181 84.732 -168.2830
6982.349153 84.997 -167.7417
7032.946133 85.272 -167.3260
7083.909760 85.554 -167.0401
7135.242690 85.842 -166.8858
7186.947600 86.135 -166.8644
7239.027185 86.430 -166.9774
7291.484160 86.727 -167.2280
7344.321260 87.024 -167.6214
7397.541239 87.322 -168.1654
7451.146872 87.619 -168.8705
7505.140954 87.912 -169.7494
7559.526299 88.200 -170.8158
7614.305743 88.478 -172.0841
7669.482141 88.745 -173.5679
7725.058371 88.993 -175.2783
7781.037328 89.218 -177.2213
7837.421932 89.413 -179.3958
7894.215122 89.570 178.2090
7951.419859 89.684 175.6143
8009.039125 89.745 172.8531
8067.075924 89.750 169.9698
8125.533282 89.691 167.0190
8184.414245 89.568 164.0623
8243.721885 89.379 161.1649
8303.459292 89.125 158.3919
8363.629581 88.809 155.8033
8424.235888 88.438 153.4512
8485.281374 88.018 151.3771
8546.769221 87.555 149.6106
8608.702634 87.059 148.1689
8671.084842 86.537 147.0583
8733.919097 85.996 146.2745
8797.208675 85.443 145.8058
8860.956876 84.883 145.6342
8925.167022 84.320 145.7380
8989.842461 83.760 146.0935
9054.986566 83.203 146.6759
9120.602731 82.652 147.4606
9186.694378 82.109 148.4236
9253.264952 81.575 149.5419
9320.317925 81.050 150.7937
9387.856790 80.535 152.1578
9455.885071 80.029 153.6145
9524.406312 79.532 155.1447
9593.424086 79.043 156.7304
9662.941992 78.563 158.3545
9732.963653 78.089 160.0012
9803.492719 77.621 161.6561
9874.532869 77.159 163.3056
9946.087805 76.701 164.9366
10018.161257 76.248 166.5363
10090.756983 75.801 168.0912
10163.878768 75.359 169.5872
10237.530423 74.922 171.0081
10311.715789 74.492 172.3361
10386.438732 74.070 173.5519
10461.703149 73.654 174.6355
10537.512962 73.248 175.5669
10613.872125 72.852 176.3270
10690.784618 72.467 176.8983
10768.254450 72.096 177.2667
10846.285661 71.741 177.4225
10924.882318 71.406 177.3618
11004.048518 71.093 177.0867
11083.788390 70.809 176.6067
11164.106090 70.559 175.9390
11245.005805 70.347 175.1099
11326.491752 70.178 174.1545
11408.568180 70.058 173.1174
11491.239368 69.988 172.0496
11574.509626 69.970 171.0063
11658.383294 70.004 170.0424
11742.864745 70.088 169.2090
11827.958384 70.218 168.5508
11913.668646 70.390 168.1042
12000.000000 70.598 167.8956
12086.956947 70.837 167.9418
12174.544019 71.101 168.2500
12262.765784 71.384 168.8208
12351.626840 71.682 169.6503
12441.131819 71.992 170.7325
12531.285389 72.311 172.0599
12622.092249 72.636 173.6235
12713.557132 72.966 175.4126
12805.684808 73.301 177.4152
12898.480079 73.640 179.6167
12991.947783 73.984 -177.9995
13086.092792 74.332 -175.4521
13180.920015 74.687 -172.7623
13276.434395 75.048 -169.9522
13372.640911 75.418 -167.0448
13469.544580 75.796 -164.0628
13567.150452 76.183 -161.0278
13665.463617 76.581 -157.9598
13764.489200 76.991 -154.8790
13864.232362 77.415 -151.8086
13964.698305 77.853 -148.7788
14065.892266 78.308 -145.8307
14167.819519 78.780 -143.0189
14270.485380 79.268 -140.4083
14373.895200 79.767 -138.0685
14478.054370 80.274 -136.0647
14582.968320 80.779 -134.4506
14688.642520 81.275 -133.2648
14795.082478 81.754 -132.5312
14902.293745 82.207 -132.2637
15010.281908 82.628 -132.4707
15119.052599 83.010 -133.1608
15228.611486 83.348 -134.3452
15338.964283 83.633 -136.0380
15450.116741 83.860 -138.2540
15562.074656 84.019 -141.0057
15674.843864 84.102 -144.3014
15788.430244 84.100 -148.1438
15902.839718 84.004 -152.5308
16018.078250 83.805 -157.4563
16134.151848 83.497 -162.9108
16251.066563 83.075 -168.8818
16368.828491 82.534 -175.3538
16487.443769 81.877 177.6906
16606.918584 81.110 170.2742
16727.259161 80.248 162.4332
16848.471777 79.313 154.2397
16970.562748 78.337 145.8351
17093.538442 77.363 137.4620
17217.405268 76.439 129.4664
17342.169684 75.618 122.2411
17467.838194 74.943 116.1301
17594.417350 74.439 111.3444
17721.913751 74.106 107.9382
17850.334044 73.920 105.8396
17979.684923 73.845 104.9053
18109.973131 73.845 104.9674
18241.205462 73.887 105.8641
18373.388756 73.948 107.4545
18506.529905 74.010 109.6213
18640.635849 74.061 112.2659
18775.713581 74.092 115.3007
18911.770141 74.097 118.6447
19048.812624 74.069 122.2225
19186.848172 74.003 125.9646
19325.883983 73.895 129.8021
19465.927305 73.748 133.6478
19606.985439 73.573 137.3630
19749.065738 73.392 140.7134
19892.175609 73.241 143.3423
20036.322514 73.153 144.8203
