* Measurement data measured by REW V5.30.4
* Source: EXCL: Headset (CX31993 HIFI AUDIO), MICROPHONE (Master Volume), 0, volume: 0.360
* Format: 256k Log Swept Sine, 1 sweep at -12.0 dBFS with no timing reference
* Dated: 01 19, 24 2:38:41 PM
* REW Settings:
*  C-weighting compensation: Off
*  Target level: 75.0 dB
* Note: ; 
* Measurement: Binary x Gizaudio Chopin R
* Smoothing: 1/3 octave
* Frequency Step: 96 ppo
* Start Frequency: 20.141602 Hz
*
* Freq(Hz) SPL(dB) Phase(degrees)
20.141602 91.550 -140.5737
20.287556 91.553 -140.7363
20.434568 91.556 -140.9306
20.582645 91.560 -141.1550
20.731796 91.565 -141.4075
20.882027 91.571 -141.6861
21.033346 91.578 -141.9889
21.185762 91.586 -142.3134
21.339283 91.595 -142.6576
21.493916 91.606 -143.0193
21.649670 91.619 -143.3962
21.806553 91.633 -143.7863
21.964573 91.649 -144.1875
22.123737 91.666 -144.5978
22.284056 91.686 -145.0153
22.445536 91.707 -145.4381
22.608185 91.730 -145.8641
22.772013 91.755 -146.2916
22.937029 91.781 -146.7186
23.103241 91.809 -147.1433
23.270657 91.838 -147.5637
23.439285 91.868 -147.9781
23.609137 91.899 -148.3848
23.780218 91.931 -148.7824
23.952539 91.963 -149.1697
24.126110 91.995 -149.5457
24.300938 92.028 -149.9099
24.477032 92.061 -150.2619
24.654402 92.093 -150.6021
24.833057 92.125 -150.9308
25.013008 92.156 -151.2488
25.194263 92.187 -151.5574
25.376831 92.217 -151.8578
25.560722 92.245 -152.1515
25.745945 92.272 -152.4400
25.932510 92.297 -152.7249
26.120428 92.321 -153.0078
26.309708 92.342 -153.2902
26.500359 92.362 -153.5734
26.692390 92.379 -153.8589
26.885815 92.395 -154.1479
27.080641 92.408 -154.4415
27.276878 92.420 -154.7405
27.474539 92.430 -155.0459
27.673630 92.439 -155.3582
27.874165 92.446 -155.6779
28.076153 92.452 -156.0051
28.279604 92.457 -156.3398
28.484529 92.461 -156.6819
28.690941 92.463 -157.0308
28.898848 92.466 -157.3858
29.108261 92.467 -157.7463
29.319191 92.469 -158.1114
29.531651 92.470 -158.4801
29.745649 92.470 -158.8516
29.961199 92.471 -159.2252
30.178310 92.471 -159.6000
30.396996 92.471 -159.9756
30.617264 92.472 -160.3514
30.839128 92.473 -160.7272
31.062601 92.474 -161.1027
31.287693 92.476 -161.4778
31.514416 92.478 -161.8525
31.742783 92.480 -162.2268
31.972803 92.483 -162.6006
32.204491 92.487 -162.9740
32.437859 92.491 -163.3469
32.672916 92.495 -163.7196
32.909679 92.501 -164.0919
33.148155 92.507 -164.4641
33.388359 92.513 -164.8363
33.630306 92.520 -165.2086
33.874004 92.527 -165.5813
34.119469 92.535 -165.9546
34.366711 92.543 -166.3288
34.615746 92.551 -166.7039
34.866585 92.559 -167.0804
35.119244 92.567 -167.4583
35.373734 92.575 -167.8378
35.630066 92.583 -168.2189
35.888256 92.590 -168.6017
36.148315 92.597 -168.9863
36.410259 92.603 -169.3727
36.674103 92.609 -169.7607
36.939857 92.614 -170.1503
37.207539 92.619 -170.5415
37.477161 92.623 -170.9341
37.748737 92.626 -171.3280
38.022282 92.628 -171.7231
38.297806 92.630 -172.1193
38.575329 92.630 -172.5165
38.854862 92.630 -172.9146
39.136421 92.630 -173.3136
39.420021 92.628 -173.7134
39.705673 92.626 -174.1139
39.993397 92.623 -174.5151
40.283207 92.619 -174.9169
40.575115 92.615 -175.3191
40.869141 92.610 -175.7216
41.165295 92.605 -176.1241
41.463596 92.599 -176.5265
41.764057 92.592 -176.9285
42.066696 92.585 -177.3299
42.371529 92.578 -177.7306
42.678570 92.570 -178.1303
42.987835 92.561 -178.5291
43.299343 92.552 -178.9267
43.613110 92.543 -179.3231
43.929150 92.533 -179.7183
44.247478 92.522 179.8878
44.568115 92.511 179.4951
44.891075 92.500 179.1039
45.216373 92.488 178.7140
45.544029 92.475 178.3255
45.874062 92.462 177.9384
46.206486 92.449 177.5526
46.541317 92.435 177.1683
46.878574 92.421 176.7853
47.218277 92.406 176.4037
47.560440 92.391 176.0233
47.905083 92.375 175.6443
48.252224 92.359 175.2665
48.601879 92.343 174.8898
48.954067 92.327 174.5141
49.308807 92.310 174.1394
49.666119 92.293 173.7656
50.026020 92.275 173.3924
50.388531 92.257 173.0198
50.753666 92.239 172.6479
51.121449 92.221 172.2764
51.491894 92.202 171.9053
51.865025 92.183 171.5347
52.240860 92.164 171.1646
52.619419 92.144 170.7952
53.000721 92.124 170.4265
53.384785 92.104 170.0586
53.771633 92.083 169.6918
54.161285 92.063 169.3261
54.553761 92.042 168.9617
54.949081 92.020 168.5988
55.347263 91.998 168.2374
55.748333 91.976 167.8775
56.152309 91.953 167.5193
56.559212 91.930 167.1626
56.969063 91.907 166.8076
57.381886 91.883 166.4542
57.797699 91.858 166.1023
58.216526 91.833 165.7520
58.638386 91.808 165.4033
59.063305 91.783 165.0561
59.491302 91.756 164.7105
59.922401 91.730 164.3664
60.356625 91.703 164.0238
60.793995 91.676 163.6827
61.234531 91.648 163.3432
61.678261 91.620 163.0051
62.125206 91.592 162.6686
62.575390 91.563 162.3336
63.028835 91.534 162.0001
63.485569 91.504 161.6681
63.945610 91.474 161.3377
64.408989 91.444 161.0088
64.875725 91.414 160.6814
65.345840 91.383 160.3556
65.819366 91.351 160.0312
66.296318 91.319 159.7083
66.776726 91.287 159.3869
67.260620 91.255 159.0670
67.748016 91.222 158.7485
68.238945 91.189 158.4316
68.733429 91.155 158.1161
69.231499 91.121 157.8022
69.733177 91.086 157.4898
70.238495 91.051 157.1790
70.747475 91.016 156.8698
71.260139 90.980 156.5621
71.776520 90.944 156.2562
72.296638 90.907 155.9518
72.820526 90.870 155.6492
73.348213 90.833 155.3482
73.879723 90.795 155.0490
74.415085 90.757 154.7515
74.954330 90.718 154.4559
75.497482 90.679 154.1620
76.044571 90.640 153.8701
76.595619 90.600 153.5801
77.150665 90.559 153.2922
77.709732 90.519 153.0062
78.272850 90.478 152.7223
78.840050 90.436 152.4405
79.411354 90.394 152.1609
79.986801 90.352 151.8834
80.566422 90.309 151.6081
81.150238 90.266 151.3350
81.738289 90.223 151.0641
82.330597 90.179 150.7956
82.927200 90.135 150.5293
83.528122 90.090 150.2653
84.133400 90.045 150.0037
84.743065 90.000 149.7445
85.357147 89.954 149.4877
85.975677 89.908 149.2332
86.598694 89.862 148.9813
87.226227 89.815 148.7320
87.858307 89.768 148.4852
88.494965 89.720 148.2410
89.136238 89.672 147.9995
89.782158 89.624 147.7607
90.432755 89.575 147.5246
91.088066 89.526 147.2913
91.748131 89.476 147.0609
92.412979 89.426 146.8333
93.082642 89.375 146.6086
93.757156 89.325 146.3868
94.436562 89.273 146.1681
95.120888 89.222 145.9523
95.810173 89.170 145.7397
96.504456 89.118 145.5303
97.203766 89.065 145.3242
97.908142 89.012 145.1213
98.617622 88.959 144.9218
99.332245 88.905 144.7257
100.052048 88.851 144.5331
100.777069 88.797 144.3440
101.507339 88.742 144.1584
102.242905 88.687 143.9763
102.983795 88.631 143.7979
103.730057 88.575 143.6230
104.481728 88.519 143.4517
105.238846 88.462 143.2839
106.001450 88.405 143.1198
106.769577 88.348 142.9592
107.543274 88.290 142.8022
108.322578 88.232 142.6487
109.107529 88.174 142.4988
109.898170 88.115 142.3525
110.694534 88.056 142.2099
111.496674 87.996 142.0708
112.304626 87.936 141.9354
113.118431 87.876 141.8036
113.938133 87.816 141.6754
114.763779 87.755 141.5507
115.595406 87.694 141.4297
116.433060 87.633 141.3123
117.276779 87.571 141.1986
118.126617 87.509 141.0886
118.982613 87.447 140.9822
119.844810 87.385 140.8797
120.713257 87.323 140.7810
121.587997 87.260 140.6863
122.469070 87.197 140.5956
123.356529 87.134 140.5090
124.250420 87.070 140.4266
125.150787 87.006 140.3486
126.057678 86.942 140.2751
126.971146 86.878 140.2065
127.891228 86.813 140.1428
128.817978 86.748 140.0844
129.751450 86.683 140.0314
130.691681 86.617 139.9843
131.638733 86.551 139.9431
132.592636 86.484 139.9082
133.553452 86.417 139.8799
134.521240 86.350 139.8586
135.496033 86.282 139.8444
136.477890 86.213 139.8378
137.466858 86.145 139.8392
138.462997 86.076 139.8488
139.466354 86.006 139.8672
140.476990 85.937 139.8948
141.494949 85.867 139.9320
142.520279 85.796 139.9792
143.553040 85.726 140.0370
144.593277 85.656 140.1059
145.641052 85.585 140.1862
146.696426 85.515 140.2785
147.759445 85.444 140.3831
148.830170 85.375 140.5004
149.908661 85.305 140.6307
150.994965 85.236 140.7742
152.089142 85.168 140.9310
153.191238 85.101 141.1008
154.301331 85.035 141.2835
155.419464 84.970 141.4785
156.545700 84.907 141.6852
157.680099 84.846 141.9026
158.822708 84.787 142.1295
159.973602 84.730 142.3643
161.132843 84.676 142.6055
162.300476 84.624 142.8508
163.476578 84.574 143.0984
164.661194 84.528 143.3458
165.854401 84.484 143.5907
167.056244 84.443 143.8308
168.266800 84.404 144.0638
169.486130 84.367 144.2879
170.714294 84.333 144.5012
171.951355 84.300 144.7025
173.197388 84.269 144.8909
174.452454 84.239 145.0660
175.716614 84.209 145.2277
176.989929 84.179 145.3766
178.272476 84.150 145.5137
179.564316 84.120 145.6400
180.865509 84.090 145.7571
182.176132 84.059 145.8666
183.496262 84.027 145.9703
184.825958 83.994 146.0699
186.165283 83.959 146.1672
187.514313 83.924 146.2636
188.873123 83.888 146.3607
190.241776 83.850 146.4599
191.620346 83.812 146.5622
193.008911 83.773 146.6687
194.407532 83.733 146.7802
195.816284 83.692 146.8973
197.235245 83.650 147.0206
198.664490 83.609 147.1505
200.104095 83.567 147.2872
201.554138 83.524 147.4308
203.014679 83.482 147.5815
204.485809 83.440 147.7392
205.967590 83.397 147.9039
207.460114 83.355 148.0755
208.963455 83.314 148.2538
210.477692 83.272 148.4386
212.002899 83.232 148.6298
213.539154 83.191 148.8270
215.086548 83.152 149.0301
216.645157 83.113 149.2387
218.215057 83.074 149.4526
219.796341 83.036 149.6714
221.389069 82.999 149.8948
222.993347 82.963 150.1225
224.609253 82.928 150.3541
226.236862 82.893 150.5892
227.876266 82.860 150.8276
229.527557 82.827 151.0688
231.190811 82.795 151.3125
232.866119 82.763 151.5584
234.553558 82.733 151.8063
236.253235 82.704 152.0558
237.965225 82.675 152.3067
239.689621 82.647 152.5589
241.426514 82.620 152.8120
243.175995 82.594 153.0659
244.938141 82.569 153.3205
246.713058 82.545 153.5756
248.500839 82.521 153.8309
250.301575 82.499 154.0863
252.115356 82.477 154.3417
253.942291 82.456 154.5970
255.782455 82.435 154.8519
257.635956 82.416 155.1063
259.502899 82.397 155.3600
261.383362 82.379 155.6131
263.277466 82.362 155.8651
265.185272 82.345 156.1162
267.106903 82.329 156.3660
269.042480 82.314 156.6146
270.992065 82.300 156.8617
272.955780 82.286 157.1074
274.933716 82.274 157.3514
276.925995 82.261 157.5938
278.932709 82.250 157.8344
280.953979 82.239 158.0732
282.989899 82.229 158.3102
285.040558 82.219 158.5452
287.106079 82.211 158.7781
289.186554 82.202 159.0089
291.282104 82.195 159.2377
293.392853 82.188 159.4642
295.518890 82.181 159.6884
297.660339 82.175 159.9104
299.817322 82.170 160.1299
301.989929 82.165 160.3471
304.178284 82.161 160.5618
306.382477 82.157 160.7740
308.602661 82.154 160.9836
310.838928 82.151 161.1907
313.091400 82.149 161.3952
315.360199 82.147 161.5971
317.645416 82.145 161.7963
319.947205 82.144 161.9929
322.265686 82.143 162.1869
324.600952 82.142 162.3782
326.953156 82.142 162.5668
329.322388 82.142 162.7529
331.708801 82.142 162.9364
334.112488 82.143 163.1173
336.533600 82.144 163.2957
338.972260 82.145 163.4717
341.428589 82.146 163.6452
343.902710 82.148 163.8164
346.394775 82.149 163.9853
348.904907 82.151 164.1519
351.433228 82.153 164.3164
353.979858 82.156 164.4788
356.544952 82.158 164.6390
359.128632 82.161 164.7972
361.731018 82.164 164.9536
364.352264 82.167 165.1079
366.992523 82.170 165.2603
369.651917 82.174 165.4109
372.330566 82.177 165.5597
375.028625 82.181 165.7067
377.746246 82.185 165.8518
380.483551 82.189 165.9951
383.240692 82.194 166.1366
386.017822 82.198 166.2762
388.815063 82.203 166.4141
391.632568 82.208 166.5500
394.470490 82.214 166.6840
397.328979 82.219 166.8161
400.208191 82.225 166.9463
403.108276 82.231 167.0745
406.029358 82.237 167.2008
408.971619 82.243 167.3251
411.935181 82.250 167.4474
414.920227 82.256 167.5678
417.926910 82.263 167.6862
420.955383 82.270 167.8028
424.005798 82.277 167.9175
427.078308 82.284 168.0305
430.173096 82.291 168.1417
433.290314 82.298 168.2513
436.430115 82.306 168.3593
439.592682 82.313 168.4658
442.778137 82.321 168.5708
445.986694 82.328 168.6744
449.218506 82.335 168.7766
452.473724 82.343 168.8775
455.752533 82.350 168.9771
459.055115 82.358 169.0754
462.381622 82.365 169.1724
465.732239 82.372 169.2683
469.107117 82.380 169.3630
472.506470 82.387 169.4565
475.930450 82.394 169.5490
479.379242 82.401 169.6405
482.853027 82.409 169.7310
486.351990 82.416 169.8206
489.876282 82.423 169.9094
493.426117 82.431 169.9974
497.001678 82.438 170.0847
500.603149 82.445 170.1714
504.230713 82.453 170.2574
507.884583 82.460 170.3429
511.564911 82.467 170.4279
515.271912 82.475 170.5125
519.005798 82.482 170.5967
522.766724 82.490 170.6806
526.554932 82.497 170.7642
530.370544 82.505 170.8476
534.213806 82.512 170.9308
538.084961 82.520 171.0139
541.984131 82.527 171.0969
545.911560 82.535 171.1800
549.867432 82.543 171.2631
553.851990 82.551 171.3464
557.865417 82.558 171.4299
561.907959 82.566 171.5137
565.979797 82.574 171.5980
570.081116 82.582 171.6827
574.212158 82.590 171.7681
578.373108 82.598 171.8542
582.564209 82.606 171.9411
586.785706 82.615 172.0289
591.037781 82.623 172.1177
595.320679 82.632 172.2077
599.634644 82.640 172.2990
603.979858 82.649 172.3915
608.356567 82.658 172.4856
612.764954 82.668 172.5811
617.205322 82.677 172.6782
621.677856 82.687 172.7770
626.182800 82.697 172.8775
630.720398 82.708 172.9798
635.290833 82.719 173.0837
639.894409 82.730 173.1894
644.531372 82.742 173.2966
649.201904 82.754 173.4055
653.906311 82.767 173.5157
658.644775 82.780 173.6271
663.417603 82.794 173.7396
668.224976 82.809 173.8528
673.067200 82.824 173.9665
677.944519 82.840 174.0804
682.857178 82.857 174.1941
687.805420 82.874 174.3074
692.789551 82.892 174.4199
697.809814 82.911 174.5314
702.866455 82.931 174.6416
707.959717 82.951 174.7502
713.089905 82.972 174.8573
718.257263 82.994 174.9625
723.462036 83.016 175.0659
728.704529 83.039 175.1674
733.985046 83.062 175.2672
739.303833 83.086 175.3652
744.661133 83.110 175.4617
750.057251 83.135 175.5567
755.492493 83.160 175.6506
760.967102 83.186 175.7434
766.481384 83.212 175.8354
772.035645 83.239 175.9266
777.630127 83.266 176.0173
783.265137 83.294 176.1077
788.940979 83.322 176.1976
794.657959 83.351 176.2873
800.416382 83.381 176.3766
806.216553 83.411 176.4657
812.058716 83.442 176.5544
817.943237 83.474 176.6426
823.870361 83.507 176.7302
829.840454 83.540 176.8170
835.853821 83.575 176.9028
841.910767 83.610 176.9873
848.011597 83.647 177.0704
854.156616 83.684 177.1518
860.346191 83.722 177.2310
866.580627 83.762 177.3079
872.860229 83.802 177.3821
879.185364 83.844 177.4531
885.556274 83.886 177.5208
891.973389 83.930 177.5846
898.437012 83.975 177.6443
904.947449 84.021 177.6994
911.505066 84.068 177.7496
918.110229 84.116 177.7945
924.763245 84.165 177.8337
931.464478 84.216 177.8669
938.214233 84.267 177.8938
945.012939 84.319 177.9139
951.860901 84.372 177.9269
958.758484 84.427 177.9325
965.706055 84.482 177.9304
972.703979 84.538 177.9202
979.752563 84.595 177.9018
986.852234 84.652 177.8747
994.003357 84.711 177.8388
1001.206299 84.770 177.7939
1008.461426 84.830 177.7397
1015.769165 84.890 177.6760
1023.129822 84.951 177.6026
1030.543823 85.013 177.5195
1038.011597 85.074 177.4265
1045.533447 85.137 177.3235
1053.109863 85.199 177.2105
1060.741089 85.262 177.0873
1068.427612 85.325 176.9541
1076.169922 85.388 176.8108
1083.968262 85.451 176.6574
1091.823120 85.514 176.4941
1099.734863 85.577 176.3208
1107.703979 85.640 176.1377
1115.730835 85.703 175.9449
1123.815918 85.765 175.7426
1131.959595 85.828 175.5309
1140.162231 85.890 175.3100
1148.424316 85.952 175.0802
1156.746216 86.013 174.8416
1165.128418 86.074 174.5945
1173.571411 86.135 174.3391
1182.075562 86.195 174.0757
1190.641357 86.255 173.8045
1199.269287 86.314 173.5259
1207.959717 86.373 173.2401
1216.713135 86.431 172.9473
1225.529907 86.488 172.6479
1234.410645 86.546 172.3422
1243.355713 86.602 172.0303
1252.365601 86.658 171.7128
1261.440796 86.714 171.3896
1270.581665 86.769 171.0613
1279.788818 86.823 170.7280
1289.062744 86.878 170.3900
1298.403809 86.931 170.0475
1307.812622 86.984 169.7007
1317.289551 87.037 169.3500
1326.835205 87.089 168.9955
1336.449951 87.141 168.6373
1346.134399 87.193 168.2757
1355.889038 87.244 167.9109
1365.714355 87.295 167.5430
1375.610840 87.346 167.1721
1385.579102 87.397 166.7985
1395.619629 87.447 166.4221
1405.732910 87.497 166.0432
1415.919434 87.547 165.6617
1426.179810 87.598 165.2778
1436.514526 87.648 164.8915
1446.924072 87.698 164.5028
1457.409058 87.748 164.1118
1467.970093 87.798 163.7185
1478.607666 87.848 163.3228
1489.322266 87.899 162.9246
1500.114502 87.950 162.5239
1510.984985 88.001 162.1206
1521.934204 88.052 161.7145
1532.962769 88.104 161.3056
1544.071289 88.156 160.8935
1555.260254 88.208 160.4781
1566.530273 88.261 160.0592
1577.881958 88.315 159.6364
1589.315918 88.369 159.2094
1600.832764 88.423 158.7780
1612.433105 88.478 158.3417
1624.117432 88.533 157.9002
1635.886475 88.589 157.4532
1647.740723 88.646 157.0002
1659.680908 88.703 156.5409
1671.707642 88.761 156.0749
1683.821533 88.819 155.6020
1696.023193 88.878 155.1217
1708.313232 88.937 154.6338
1720.692383 88.997 154.1381
1733.161255 89.057 153.6344
1745.720459 89.117 153.1224
1758.370728 89.178 152.6021
1771.112549 89.239 152.0732
1783.946777 89.301 151.5356
1796.874023 89.363 150.9892
1809.894897 89.425 150.4340
1823.010132 89.487 149.8697
1836.220459 89.550 149.2962
1849.526489 89.613 148.7135
1862.928955 89.676 148.1214
1876.428467 89.740 147.5198
1890.025879 89.803 146.9084
1903.721802 89.867 146.2872
1917.516968 89.931 145.6560
1931.412109 89.996 145.0146
1945.407959 90.061 144.3627
1959.505127 90.125 143.7003
1973.704468 90.190 143.0270
1988.006714 90.256 142.3426
2002.412598 90.321 141.6469
2016.922852 90.386 140.9397
2031.538330 90.452 140.2206
2046.259644 90.518 139.4894
2061.087646 90.583 138.7458
2076.023193 90.649 137.9894
2091.066895 90.715 137.2198
2106.219727 90.781 136.4367
2121.482178 90.847 135.6398
2136.855225 90.912 134.8284
2152.339844 90.978 134.0024
2167.936523 91.043 133.1611
2183.646240 91.108 132.3042
2199.469727 91.172 131.4313
2215.407959 91.236 130.5419
2231.461670 91.299 129.6356
2247.631836 91.362 128.7123
2263.919189 91.423 127.7715
2280.324463 91.484 126.8132
2296.848633 91.543 125.8374
2313.492432 91.601 124.8441
2330.256836 91.657 123.8333
2347.142822 91.712 122.8055
2364.151123 91.765 121.7609
2381.282715 91.816 120.7001
2398.538574 91.864 119.6235
2415.919434 91.911 118.5320
2433.426270 91.955 117.4261
2451.059814 91.997 116.3065
2468.821289 92.036 115.1741
2486.711426 92.073 114.0295
2504.731201 92.107 112.8736
2522.881592 92.138 111.7072
2541.163330 92.167 110.5309
2559.577637 92.193 109.3457
2578.125488 92.216 108.1522
2596.807617 92.237 106.9511
2615.625244 92.255 105.7433
2634.579102 92.270 104.5294
2653.670410 92.282 103.3101
2672.899902 92.292 102.0861
2692.268799 92.299 100.8581
2711.778076 92.303 99.6267
2731.428711 92.305 98.3927
2751.221680 92.304 97.1566
2771.158203 92.300 95.9192
2791.239258 92.294 94.6811
2811.465820 92.285 93.4428
2831.838867 92.274 92.2052
2852.359619 92.260 90.9687
2873.029053 92.244 89.7341
2893.848145 92.226 88.5019
2914.818115 92.205 87.2729
2935.940186 92.182 86.0475
2957.215332 92.157 84.8265
2978.644531 92.130 83.6105
3000.229004 92.100 82.4001
3021.969971 92.069 81.1957
3043.868408 92.036 79.9981
3065.925537 92.002 78.8077
3088.142578 91.965 77.6252
3110.520508 91.927 76.4508
3133.060547 91.888 75.2851
3155.763916 91.848 74.1283
3178.631836 91.806 72.9810
3201.665527 91.764 71.8433
3224.866211 91.721 70.7153
3248.234863 91.677 69.5972
3271.772949 91.632 68.4892
3295.481445 91.588 67.3911
3319.361816 91.543 66.3028
3343.415283 91.498 65.2242
3367.643066 91.453 64.1550
3392.046387 91.408 63.0950
3416.626465 91.363 62.0437
3441.384766 91.320 61.0008
3466.322510 91.276 59.9656
3491.440918 91.234 58.9378
3516.741455 91.192 57.9167
3542.225098 91.151 56.9017
3567.893555 91.112 55.8921
3593.748047 91.073 54.8873
3619.789795 91.035 53.8864
3646.020264 90.999 52.8887
3672.440918 90.965 51.8935
3699.052979 90.931 50.9000
3725.857910 90.899 49.9072
3752.856934 90.869 48.9146
3780.051758 90.840 47.9210
3807.443604 90.812 46.9258
3835.033936 90.786 45.9280
3862.824219 90.762 44.9269
3890.815918 90.739 43.9216
3919.010254 90.718 42.9112
3947.408936 90.698 41.8949
3976.013428 90.680 40.8716
4004.825195 90.664 39.8406
4033.845703 90.649 38.8008
4063.076660 90.635 37.7511
4092.519287 90.623 36.6906
4122.175293 90.612 35.6181
4152.046387 90.602 34.5326
4182.133789 90.594 33.4330
4212.439453 90.587 32.3181
4242.964355 90.580 31.1872
4273.710449 90.574 30.0391
4304.679688 90.569 28.8730
4335.873047 90.564 27.6884
4367.292480 90.559 26.4845
4398.939453 90.554 25.2611
4430.815918 90.549 24.0179
4462.923340 90.542 22.7551
4495.263672 90.535 21.4728
4527.838379 90.526 20.1715
4560.648926 90.516 18.8519
4593.697266 90.504 17.5150
4626.984863 90.490 16.1617
4660.513672 90.474 14.7936
4694.285645 90.455 13.4121
4728.302246 90.434 12.0190
4762.565430 90.409 10.6162
4797.077148 90.382 9.2057
4831.838867 90.352 7.7898
4866.852539 90.318 6.3708
4902.119629 90.282 4.9513
4937.642578 90.242 3.5336
4973.422852 90.199 2.1205
5009.462402 90.153 0.7146
5045.763184 90.105 -0.6815
5082.326660 90.053 -2.0654
5119.155273 90.000 -3.4346
5156.250977 89.945 -4.7867
5193.615234 89.888 -6.1199
5231.250488 89.830 -7.4323
5269.158203 89.772 -8.7224
5307.340820 89.713 -9.9891
5345.799805 89.656 -11.2318
5384.537598 89.599 -12.4503
5423.556152 89.544 -13.6451
5462.857422 89.491 -14.8171
5502.443359 89.442 -15.9678
5542.316406 89.396 -17.0995
5582.478516 89.355 -18.2150
5622.931641 89.319 -19.3175
5663.677734 89.288 -20.4111
5704.719238 89.263 -21.5003
5746.058105 89.244 -22.5897
5787.696289 89.231 -23.6844
5829.636230 89.225 -24.7898
5871.880371 89.225 -25.9110
5914.430664 89.232 -27.0533
5957.289062 89.246 -28.2219
6000.458008 89.265 -29.4211
6043.939941 89.290 -30.6555
6087.736816 89.320 -31.9288
6131.851074 89.355 -33.2443
6176.285156 89.394 -34.6046
6221.041016 89.436 -36.0120
6266.121094 89.482 -37.4678
6311.527832 89.531 -38.9734
6357.263672 89.581 -40.5295
6403.331055 89.634 -42.1364
6449.732422 89.688 -43.7941
6496.469727 89.742 -45.5028
6543.545898 89.798 -47.2622
6590.962891 89.854 -49.0724
6638.723633 89.910 -50.9332
6686.830566 89.966 -52.8450
6735.286133 90.022 -54.8081
6784.092773 90.078 -56.8230
6833.252930 90.133 -58.8905
6882.769531 90.187 -61.0117
6932.645020 90.240 -63.1876
6982.881836 90.292 -65.4196
7033.482910 90.341 -67.7091
7084.450195 90.389 -70.0571
7135.787109 90.433 -72.4652
7187.496094 90.473 -74.9340
7239.579590 90.510 -77.4642
7292.040527 90.541 -80.0560
7344.881836 90.566 -82.7091
7398.105957 90.584 -85.4225
7451.715820 90.594 -88.1946
7505.713867 90.595 -91.0229
7560.103516 90.586 -93.9045
7614.887207 90.566 -96.8352
7670.067871 90.535 -99.8102
7725.648438 90.491 -102.8240
7781.631836 90.433 -105.8704
7838.020508 90.361 -108.9423
7894.817871 90.275 -112.0322
7952.026855 90.174 -115.1324
8009.650391 90.057 -118.2346
8067.691406 89.924 -121.3303
8126.153320 89.776 -124.4113
8185.038574 89.612 -127.4690
8244.350586 89.433 -130.4954
8304.092773 89.239 -133.4825
8364.267578 89.031 -136.4231
8424.878906 88.808 -139.3099
8485.928711 88.572 -142.1364
8547.420898 88.323 -144.8966
8609.359375 88.062 -147.5851
8671.746094 87.790 -150.1967
8734.584961 87.508 -152.7272
8797.878906 87.216 -155.1728
8861.631836 86.915 -157.5302
8925.846680 86.607 -159.7967
8990.527344 86.292 -161.9700
9055.676758 85.971 -164.0485
9121.297852 85.646 -166.0312
9187.394531 85.316 -167.9172
9253.969727 84.984 -169.7064
9321.027344 84.650 -171.3989
9388.571289 84.314 -172.9953
9456.604492 83.978 -174.4963
9525.130859 83.644 -175.9030
9594.154297 83.310 -177.2167
9663.677734 82.980 -178.4384
9733.705078 82.653 -179.5695
9804.239258 82.330 179.3889
9875.285156 82.012 178.4358
9946.845703 81.701 177.5704
10018.924805 81.396 176.7922
10091.526367 81.100 176.1009
10164.653320 80.812 175.4958
10238.310547 80.534 174.9770
10312.501953 80.267 174.5433
10387.230469 80.012 174.1938
10462.500977 79.771 173.9260
10538.316406 79.544 173.7362
10614.681641 79.332 173.6190
10691.599609 79.138 173.5665
10769.075195 78.961 173.5682
10847.112305 78.805 173.6105
10925.714844 78.668 173.6770
11004.886719 78.553 173.7480
11084.632812 78.460 173.8014
11164.957031 78.390 173.8133
11245.863281 78.341 173.7588
11327.355469 78.314 173.6132
11409.438477 78.308 173.3526
11492.116211 78.321 172.9558
11575.392578 78.353 172.4041
11659.272461 78.400 171.6825
11743.760742 78.461 170.7801
11828.861328 78.533 169.6896
11914.578125 78.613 168.4078
12000.916016 78.700 166.9347
12087.879883 78.790 165.2736
12175.473633 78.881 163.4301
12263.702148 78.970 161.4128
12352.570312 79.056 159.2316
12442.082031 79.135 156.8982
12532.242188 79.207 154.4255
12623.055664 79.269 151.8278
12714.527344 79.320 149.1198
12806.662109 79.360 146.3170
12899.464844 79.386 143.4352
12992.939453 79.399 140.4899
13087.091797 79.399 137.4966
13181.925781 79.386 134.4695
13277.447266 79.360 131.4218
13373.661133 79.323 128.3651
13470.572266 79.275 125.3088
13568.185547 79.217 122.2602
13666.505859 79.152 119.2239
13765.539062 79.081 116.2018
13865.290039 79.005 113.1932
13965.763672 78.926 110.1950
14066.965820 78.845 107.2017
14168.900391 78.763 104.2061
14271.574219 78.682 101.1998
14374.992188 78.600 98.1736
14479.159180 78.520 95.1186
14584.081055 78.440 92.0264
14689.763672 78.360 88.8895
14796.211914 78.280 85.7025
14903.431641 78.199 82.4617
15011.427734 78.115 79.1656
15120.207031 78.027 75.8151
15229.774414 77.936 72.4128
15340.135742 77.838 68.9634
15451.296875 77.735 65.4732
15563.263672 77.624 61.9495
15676.041016 77.506 58.4001
15789.635742 77.381 54.8333
15904.053711 77.248 51.2568
16019.300781 77.108 47.6782
16135.382812 76.962 44.1035
16252.306641 76.810 40.5378
16370.077148 76.653 36.9845
16488.701172 76.493 33.4455
16608.185547 76.329 29.9213
16728.535156 76.165 26.4106
16849.757812 75.999 22.9113
16971.857422 75.835 19.4197
17094.841797 75.672 15.9319
17218.718750 75.511 12.4435
17343.492188 75.354 8.9503
17469.169922 75.200 5.4481
17595.757812 75.051 1.9338
17723.263672 74.906 -1.5958
17851.693359 74.767 -5.1429
17981.054688 74.634 -8.7097
18111.353516 74.507 -12.2982
18242.595703 74.388 -15.9111
18374.789062 74.276 -19.5522
18507.939453 74.173 -23.2263
18642.054688 74.078 -26.9401
18777.142578 73.993 -30.7020
18913.208984 73.918 -34.5213
19050.261719 73.853 -38.4091
19188.308594 73.798 -42.3759
19327.355469 73.752 -46.4318
19467.410156 73.716 -50.5861
19608.478516 73.687 -54.8457
19750.570312 73.666 -59.2161
19893.691406 73.653 -63.7009
20037.849609 0.000 -68.3023
