* Measurement data measured by REW V5.31
* Source: Headset (CX31993 HIFI AUDIO), MICROPHONE (Master Volume), R, volume: 0.600
* Format: 256k Log Swept Sine, 1 sweep at -12.0 dBFS with no timing reference
* Dated: Nov 17, 2024 12:09:16 PM
* REW Settings:
*  C-weighting compensation: Off
*  Target level: 75.0 dB
* Note: ; 
* Measurement: Deuce xBass+Bass R
* Smoothing: 1/24 octave
* Frequency Step: 96 ppo
* Start Frequency: 20.141602 Hz
*
* Freq(Hz) SPL(dB) Phase(degrees)
20.141602 106.223 150.3263
20.287556 106.204 150.0103
20.434568 106.175 149.5565
20.582645 106.141 149.0468
20.731796 106.104 148.5177
20.882027 106.065 147.9817
21.033346 106.025 147.4422
21.185763 105.985 146.8996
21.339284 105.946 146.3529
21.493917 105.907 145.8017
21.649671 105.870 145.2455
21.806553 105.832 144.6843
21.964572 105.795 144.1187
22.123737 105.758 143.5499
22.284054 105.721 142.9795
22.445534 105.683 142.4099
22.608183 105.644 141.8432
22.772012 105.605 141.2822
22.937027 105.563 140.7291
23.103238 105.521 140.1857
23.270654 105.478 139.6532
23.439282 105.434 139.1318
23.609133 105.389 138.6207
23.780215 105.345 138.1180
23.952536 105.300 137.6211
24.126106 105.256 137.1269
24.300934 105.212 136.6320
24.477028 105.168 136.1335
24.654399 105.123 135.6289
24.833055 105.078 135.1172
25.013005 105.032 134.5984
25.194260 104.985 134.0737
25.376828 104.936 133.5460
25.560719 104.885 133.0183
25.745942 104.833 132.4943
25.932508 104.779 131.9771
26.120426 104.725 131.4689
26.309705 104.671 130.9703
26.500356 104.618 130.4803
26.692388 104.567 129.9963
26.885812 104.517 129.5137
27.080638 104.470 129.0281
27.276876 104.424 128.5346
27.474535 104.379 128.0296
27.673627 104.334 127.5115
27.874161 104.288 126.9812
28.076149 104.240 126.4416
28.279600 104.189 125.8985
28.484526 104.135 125.3582
28.690937 104.076 124.8281
28.898843 104.015 124.3138
29.108256 103.951 123.8197
29.319186 103.885 123.3469
29.531645 103.818 122.8940
29.745644 103.753 122.4566
29.961193 103.688 122.0287
30.178304 103.625 121.6030
30.396989 103.563 121.1731
30.617258 103.504 120.7331
30.839123 103.445 120.2791
31.062596 103.387 119.8093
31.287688 103.330 119.3237
31.514412 103.271 118.8243
31.742778 103.212 118.3145
31.972800 103.151 117.7994
32.204488 103.088 117.2851
32.437855 103.022 116.7782
32.672913 102.954 116.2853
32.909674 102.884 115.8112
33.148151 102.812 115.3587
33.388356 102.741 114.9264
33.630302 102.671 114.5094
33.874001 102.602 114.0991
34.119466 102.537 113.6855
34.366710 102.473 113.2596
34.615745 102.409 112.8155
34.866585 102.346 112.3522
35.119243 102.281 111.8737
35.373731 102.213 111.3883
35.630064 102.143 110.9052
35.888254 102.070 110.4323
36.148315 101.997 109.9742
36.410261 101.923 109.5310
36.674104 101.849 109.0997
36.939860 101.776 108.6752
37.207542 101.704 108.2528
37.477163 101.631 107.8296
37.748738 101.558 107.4046
38.022281 101.485 106.9780
38.297806 101.411 106.5501
38.575327 101.337 106.1208
38.854860 101.263 105.6896
39.136419 101.188 105.2564
39.420017 101.112 104.8226
39.705671 101.033 104.3914
39.993395 100.953 103.9672
40.283203 100.871 103.5540
40.575112 100.788 103.1544
40.869136 100.705 102.7678
41.165290 100.623 102.3910
41.463591 100.541 102.0194
41.764053 100.461 101.6483
42.066693 100.380 101.2740
42.371525 100.300 100.8951
42.678567 100.219 100.5119
42.987834 100.136 100.1262
43.299341 100.053 99.7404
43.613106 99.969 99.3568
43.929145 99.885 98.9767
44.247473 99.803 98.5995
44.568109 99.722 98.2229
44.891068 99.645 97.8431
45.216367 99.570 97.4565
45.544023 99.496 97.0602
45.874054 99.423 96.6527
46.206476 99.348 96.2330
46.541307 99.270 95.8000
46.878565 99.187 95.3537
47.218266 99.098 94.8971
47.560429 99.002 94.4403
47.905072 98.899 94.0002
48.252212 98.792 93.5964
48.601867 98.684 93.2413
48.954056 98.582 92.9313
49.308798 98.489 92.6430
49.666109 98.406 92.3416
50.026010 98.329 91.9975
50.388520 98.252 91.6026
50.753656 98.169 91.1767
51.121437 98.077 90.7577
51.491884 97.978 90.3829
51.865016 97.877 90.0699
52.240851 97.778 89.8098
52.619410 97.683 89.5765
53.000712 97.589 89.3440
53.384777 97.493 89.0996
53.771625 97.392 88.8428
54.161276 97.288 88.5764
54.553751 97.183 88.2981
54.949070 97.079 88.0045
55.347254 96.977 87.7012
55.748323 96.875 87.4074
56.152298 96.775 87.1445
56.559201 96.677 86.9162
56.969052 96.580 86.6977
57.381873 96.479 86.4493
57.797686 96.370 86.1453
58.216512 96.249 85.7939
58.638373 96.123 85.4292
59.063291 96.006 85.0845
59.491288 95.912 84.7728
59.922386 95.848 84.4949
60.356608 95.811 84.2677
60.793977 95.787 84.1401
61.234515 95.765 84.1776
61.678246 95.734 84.4245
62.125192 95.691 84.8680
62.575377 95.631 85.4217
63.028824 95.551 85.9363
63.485557 95.442 86.2359
63.945599 95.293 86.1685
64.408975 95.097 85.6554
64.875709 94.858 84.7097
65.345825 94.598 83.4239
65.819348 94.352 81.9493
66.296302 94.155 80.4870
66.776713 94.026 79.2725
67.260604 93.966 78.5178
67.748002 93.957 78.3091
68.238932 93.970 78.5397
68.733420 93.964 78.9619
69.231490 93.904 79.3271
69.733170 93.772 79.4900
70.238485 93.586 79.4006
70.747463 93.390 79.0514
71.260128 93.227 78.4768
71.776508 93.117 77.7979
72.296630 93.049 77.2135
72.820521 92.998 76.8945
73.348209 92.937 76.8775
73.879720 92.848 77.0542
74.415083 92.728 77.2507
74.954326 92.589 77.3226
75.497475 92.453 77.2146
76.044561 92.332 76.9827
76.595612 92.228 76.7659
77.150655 92.130 76.6932
77.709720 92.027 76.7927
78.272837 91.909 76.9772
78.840034 91.771 77.1203
79.411342 91.618 77.1493
79.986789 91.462 77.0687
80.566406 91.315 76.9173
81.150224 91.179 76.7242
81.738272 91.048 76.5021
82.330581 90.917 76.2563
82.927182 90.786 75.9873
83.528107 90.660 75.7039
84.133386 90.539 75.4531
84.743051 90.419 75.3163
85.357134 90.297 75.3343
85.975667 90.176 75.4436
86.598682 90.055 75.5161
87.226212 89.928 75.4746
87.858289 89.793 75.3495
88.494946 89.652 75.2287
89.136217 89.515 75.1528
89.782135 89.383 75.0632
90.432733 89.251 74.8789
91.088046 89.108 74.6359
91.748108 88.959 74.4921
92.412952 88.823 74.5483
93.082615 88.710 74.7370
93.757130 88.608 74.9302
94.436533 88.498 75.0721
95.120859 88.374 75.1538
95.810144 88.242 75.1681
96.504423 88.106 75.1377
97.203734 87.968 75.1152
97.908112 87.832 75.1349
98.617595 87.697 75.1904
99.332219 87.568 75.2480
100.052021 87.445 75.2828
100.777039 87.325 75.3276
101.507311 87.200 75.4456
102.242875 87.062 75.6307
102.983769 86.908 75.7870
103.730032 86.744 75.8400
104.481702 86.586 75.8351
105.238820 86.450 75.9012
106.001424 86.337 76.1167
106.769554 86.235 76.4256
107.543250 86.128 76.7066
108.322553 86.013 76.8999
109.107503 85.889 77.0169
109.898141 85.752 77.0948
110.694508 85.598 77.2255
111.496646 85.451 77.5391
112.304596 85.326 78.1927
113.118402 85.206 79.3654
113.938104 85.063 80.8788
114.763747 84.878 82.0389
115.595372 84.657 82.3694
116.433024 84.471 82.0157
117.276746 84.373 81.3350
118.126581 84.316 80.6817
118.982575 84.233 80.2751
119.844772 84.114 80.0722
120.713217 83.980 80.0510
121.587954 83.854 80.2850
122.469031 83.735 80.6937
123.356492 83.612 81.1110
124.250384 83.490 81.4717
125.150753 83.378 81.8019
126.057647 83.272 82.1310
126.971113 83.161 82.4516
127.891198 83.044 82.7616
128.817950 82.928 83.1060
129.751418 82.813 83.5191
130.691651 82.692 83.9457
131.638696 82.562 84.2839
132.592604 82.420 84.5160
133.553425 82.263 84.7436
134.521208 82.096 85.0364
135.496004 81.933 85.3965
136.477864 81.787 85.9141
137.466839 81.664 86.6860
138.462981 81.554 87.5790
139.466340 81.438 88.3047
140.476971 81.294 88.8087
141.494925 81.115 89.1903
142.520256 80.913 89.2484
143.553016 80.724 88.7391
144.593260 80.591 88.0826
145.641043 80.526 88.3832
146.696418 80.511 90.0930
147.759441 80.504 92.3657
148.830166 80.480 94.1079
149.908651 80.449 94.7891
150.994951 80.406 94.8179
152.089123 80.352 95.0019
153.191223 80.284 95.4898
154.301310 80.178 95.9229
155.419441 80.036 96.2039
156.545674 79.891 96.5178
157.680069 79.765 96.9841
158.822683 79.655 97.5464
159.973578 79.550 98.1072
161.132813 79.450 98.6527
162.300447 79.357 99.1750
163.476543 79.266 99.6685
164.661162 79.172 100.1624
165.854364 79.082 100.6865
167.056213 78.997 101.2664
168.266772 78.915 101.9291
169.486102 78.833 102.6427
170.714268 78.750 103.3312
171.951334 78.665 103.9653
173.197364 78.579 104.5718
174.452424 78.492 105.2082
175.716578 78.408 105.9055
176.989893 78.328 106.6175
178.272434 78.252 107.2968
179.564270 78.178 107.9673
180.865467 78.106 108.6745
182.176092 78.036 109.4132
183.496216 77.971 110.1569
184.825905 77.910 110.8976
186.165229 77.852 111.6231
187.514259 77.797 112.3309
188.873065 77.744 113.0463
190.241717 77.690 113.7787
191.620287 77.635 114.4890
193.008847 77.584 115.1483
194.407468 77.540 115.7778
195.816225 77.502 116.3989
197.235190 77.467 117.0096
198.664438 77.436 117.6176
200.104042 77.405 118.2117
201.554078 77.364 118.7356
203.014622 77.308 119.2343
204.485750 77.250 119.8072
205.967538 77.201 120.4399
207.460064 77.163 121.0924
208.963405 77.128 121.7533
210.477640 77.086 122.4234
212.002848 77.042 123.0974
213.539108 76.998 123.7683
215.086500 76.958 124.4286
216.645105 76.919 125.0722
218.215005 76.881 125.7038
219.796281 76.841 126.3274
221.389015 76.800 126.9440
222.993292 76.760 127.5599
224.609193 76.722 128.1910
226.236804 76.685 128.8319
227.876209 76.651 129.4728
229.527494 76.627 130.1129
231.190745 76.618 130.7599
232.866048 76.611 131.4587
234.553491 76.589 132.1869
236.253163 76.554 132.9250
237.965150 76.517 133.6907
239.689544 76.495 134.4242
241.426433 76.497 135.0245
243.175909 76.519 135.5179
244.938062 76.542 135.9984
246.712984 76.559 136.4852
248.500768 76.568 136.9515
250.301507 76.572 137.3847
252.115295 76.576 137.8054
253.942226 76.578 138.2433
255.782396 76.579 138.7074
257.635901 76.577 139.1750
259.502837 76.564 139.6065
261.383301 76.542 139.9881
263.277392 76.523 140.3473
265.185209 76.509 140.7124
267.106850 76.498 141.0858
269.042417 76.487 141.4938
270.992009 76.474 141.9922
272.955729 76.457 142.5680
274.933678 76.440 143.1011
276.925961 76.430 143.4694
278.932681 76.426 143.7270
280.953942 76.423 144.0102
282.989850 76.418 144.3768
285.040511 76.412 144.8033
287.106032 76.406 145.2288
289.186521 76.396 145.6144
291.282086 76.382 145.9685
293.392836 76.366 146.3328
295.518881 76.349 146.7285
297.660333 76.333 147.1563
299.817302 76.316 147.6139
301.989902 76.297 148.0802
304.178245 76.277 148.5328
306.382446 76.258 148.9524
308.602620 76.242 149.3252
310.838882 76.230 149.6720
313.091348 76.220 150.0322
315.360137 76.210 150.4117
317.645367 76.199 150.8113
319.947156 76.186 151.2316
322.265625 76.174 151.6657
324.600895 76.166 152.0995
326.953086 76.157 152.5257
329.322323 76.144 152.9664
331.708729 76.129 153.4374
334.112427 76.114 153.9351
336.533543 76.102 154.4688
338.972204 76.087 155.0690
341.428536 76.071 155.7055
343.902668 76.056 156.2898
346.394729 76.049 156.8037
348.904848 76.055 157.2993
351.433156 76.077 157.7755
353.979786 76.109 158.2356
356.544869 76.143 158.7132
359.128540 76.179 159.1929
361.730934 76.217 159.6199
364.352185 76.254 159.9587
366.992431 76.286 160.1962
369.651810 76.311 160.3385
372.330459 76.329 160.4261
375.028519 76.340 160.5166
377.746130 76.344 160.6313
380.483434 76.343 160.7765
383.240574 76.338 160.9545
386.017693 76.331 161.1553
388.814937 76.325 161.3802
391.632450 76.318 161.6223
394.470380 76.310 161.8713
397.328875 76.302 162.1340
400.208084 76.295 162.4151
403.108157 76.287 162.7101
406.029245 76.279 162.9987
408.971500 76.270 163.2816
411.935076 76.260 163.5794
414.920127 76.252 163.8682
417.926810 76.244 164.1452
420.955280 76.235 164.4323
424.005695 76.226 164.7300
427.078215 76.219 165.0264
430.173000 76.212 165.3195
433.290211 76.205 165.6145
436.430010 76.197 165.9134
439.592562 76.190 166.2142
442.778031 76.183 166.5189
445.986583 76.177 166.8242
449.218386 76.173 167.1204
452.473607 76.169 167.4173
455.752418 76.165 167.7260
459.054987 76.163 168.0357
462.381489 76.160 168.3244
465.732096 76.157 168.5940
469.106983 76.152 168.8712
472.506325 76.148 169.1679
475.930301 76.146 169.4641
479.379088 76.144 169.7435
482.852867 76.140 170.0271
486.351817 76.135 170.3289
489.876123 76.131 170.6372
493.425968 76.127 170.9375
497.001536 76.123 171.2211
500.603014 76.118 171.5001
504.230589 76.114 171.7935
507.884452 76.109 172.1029
511.564792 76.105 172.4153
515.271802 76.101 172.7202
519.005673 76.096 173.0171
522.766602 76.092 173.3076
526.554785 76.088 173.5966
530.370418 76.086 173.8903
534.213700 76.082 174.1851
538.084833 76.078 174.4810
541.984018 76.073 174.7768
545.911457 76.068 175.0708
549.867357 76.064 175.3631
553.851922 76.061 175.6514
557.865362 76.058 175.9396
561.907884 76.053 176.2355
565.979700 76.047 176.5338
570.081022 76.042 176.8244
574.212064 76.038 177.1128
578.373042 76.035 177.4134
582.564171 76.032 177.7286
586.785671 76.029 178.0468
591.037762 76.025 178.3722
595.320665 76.021 178.7192
599.634604 76.017 179.0670
603.979804 76.011 179.3729
608.356491 76.006 179.6450
612.764893 76.001 179.9153
617.205240 75.996 -179.7970
621.677763 75.992 -179.4840
626.182696 75.990 -179.1589
630.720274 75.989 -178.8350
635.290733 75.988 -178.5118
639.894312 75.986 -178.1840
644.531250 75.984 -177.8524
649.201789 75.982 -177.5155
653.906173 75.980 -177.1736
658.644647 75.979 -176.8364
663.417457 75.978 -176.5068
668.224854 75.976 -176.1768
673.067086 75.973 -175.8405
677.944408 75.971 -175.4963
682.857073 75.971 -175.1427
687.805336 75.971 -174.7844
692.789457 75.971 -174.4263
697.809695 75.970 -174.0673
702.866312 75.970 -173.7044
707.959571 75.971 -173.3375
713.089738 75.973 -172.9619
718.257080 75.977 -172.5791
723.461867 75.979 -172.2090
728.704370 75.980 -171.8547
733.984862 75.982 -171.4974
739.303619 75.984 -171.1307
744.660918 75.986 -170.7530
750.057038 75.990 -170.3644
755.492260 75.994 -169.9672
760.966869 76.000 -169.5669
766.481148 76.007 -169.1686
772.035387 76.013 -168.7738
777.629873 76.020 -168.3778
783.264900 76.028 -167.9750
788.940760 76.037 -167.5714
794.657750 76.047 -167.1702
800.416168 76.057 -166.7648
806.216313 76.068 -166.3491
812.058489 76.080 -165.9260
817.943000 76.093 -165.5049
823.870152 76.107 -165.0909
829.840255 76.123 -164.6795
835.853619 76.140 -164.2653
841.910559 76.158 -163.8503
848.011390 76.176 -163.4380
854.156430 76.194 -163.0237
860.346000 76.213 -162.6047
866.580422 76.234 -162.1809
872.860020 76.257 -161.7535
879.185124 76.282 -161.3254
885.556062 76.308 -160.9012
891.973166 76.334 -160.4813
898.436771 76.362 -160.0658
904.947215 76.391 -159.6561
911.504835 76.420 -159.2492
918.109975 76.451 -158.8396
924.762978 76.482 -158.4260
931.464192 76.516 -158.0072
938.213966 76.551 -157.5880
945.012651 76.588 -157.1768
951.860602 76.628 -156.7726
958.758176 76.669 -156.3762
965.705733 76.709 -155.9954
972.703635 76.749 -155.6282
979.752246 76.788 -155.2707
986.851935 76.829 -154.9249
994.003071 76.870 -154.5879
1001.206027 76.914 -154.2487
1008.461179 76.960 -153.9000
1015.768904 77.007 -153.5526
1023.129584 77.055 -153.2183
1030.543603 77.103 -152.8961
1038.011347 77.152 -152.5789
1045.533205 77.200 -152.2694
1053.109569 77.248 -151.9715
1060.740836 77.298 -151.6824
1068.427401 77.347 -151.3997
1076.169666 77.396 -151.1248
1083.968035 77.446 -150.8618
1091.822915 77.496 -150.6104
1099.734713 77.547 -150.3694
1107.703844 77.598 -150.1353
1115.730723 77.649 -149.9057
1123.815768 77.700 -149.6803
1131.959400 77.749 -149.4608
1140.162045 77.797 -149.2502
1148.424129 77.845 -149.0491
1156.746083 77.893 -148.8558
1165.128342 77.940 -148.6708
1173.571343 77.987 -148.4964
1182.075524 78.034 -148.3292
1190.641331 78.080 -148.1670
1199.269209 78.126 -148.0065
1207.959608 78.172 -147.8395
1216.712981 78.217 -147.6666
1225.529785 78.262 -147.4931
1234.410479 78.305 -147.3246
1243.355526 78.349 -147.1643
1252.365393 78.392 -147.0123
1261.440549 78.435 -146.8633
1270.581467 78.479 -146.7098
1279.788624 78.522 -146.5467
1289.062500 78.564 -146.3813
1298.403578 78.604 -146.2216
1307.812346 78.644 -146.0655
1317.289293 78.683 -145.9121
1326.834914 78.723 -145.7673
1336.449707 78.763 -145.6303
1346.134173 78.802 -145.4923
1355.888816 78.842 -145.3501
1365.714145 78.881 -145.2017
1375.610673 78.921 -145.0466
1385.578915 78.960 -144.8923
1395.619391 78.998 -144.7443
1405.732624 79.035 -144.5962
1415.919142 79.074 -144.4422
1426.179476 79.113 -144.2842
1436.514160 79.154 -144.1260
1446.923734 79.195 -143.9691
1457.408740 79.236 -143.8129
1467.969724 79.276 -143.6568
1478.607238 79.317 -143.4977
1489.321836 79.358 -143.3330
1500.114076 79.400 -143.1616
1510.984521 79.443 -142.9864
1521.933737 79.486 -142.8140
1532.962297 79.529 -142.6502
1544.070773 79.574 -142.4910
1555.259747 79.620 -142.3319
1566.529800 79.666 -142.1768
1577.881521 79.713 -142.0267
1589.315501 79.760 -141.8755
1600.832336 79.808 -141.7214
1612.432627 79.857 -141.5691
1624.116978 79.906 -141.4229
1635.886000 79.956 -141.2856
1647.740304 80.006 -141.1577
1659.680509 80.058 -141.0394
1671.707238 80.111 -140.9289
1683.821118 80.163 -140.8228
1696.022780 80.214 -140.7193
1708.312860 80.264 -140.6160
1720.692000 80.314 -140.5159
1733.160843 80.363 -140.4235
1745.720041 80.413 -140.3413
1758.370248 80.462 -140.2651
1771.112124 80.512 -140.1854
1783.946332 80.562 -140.1050
1796.873543 80.611 -140.0342
1809.894429 80.660 -139.9724
1823.009670 80.709 -139.9112
1836.219950 80.757 -139.8441
1849.525956 80.806 -139.7705
1862.928384 80.853 -139.6946
1876.427931 80.900 -139.6223
1890.025301 80.947 -139.5547
1903.721204 80.996 -139.4894
1917.516352 81.045 -139.4219
1931.411466 81.094 -139.3513
1945.407270 81.143 -139.2813
1959.504493 81.191 -139.2149
1973.703870 81.240 -139.1501
1988.006142 81.289 -139.0858
2002.412054 81.340 -139.0216
2016.922357 81.390 -138.9565
2031.537808 81.441 -138.8893
2046.259169 81.492 -138.8219
2061.087206 81.545 -138.7579
2076.022694 81.600 -138.6958
2091.066410 81.654 -138.6330
2106.219139 81.710 -138.5689
2121.481671 81.765 -138.5049
2136.854802 81.822 -138.4463
2152.339333 81.878 -138.3959
2167.936071 81.936 -138.3512
2183.645829 81.994 -138.3089
2199.469427 82.053 -138.2694
2215.407689 82.112 -138.2341
2231.461446 82.173 -138.2031
2247.631536 82.235 -138.1747
2263.918800 82.298 -138.1507
2280.324089 82.361 -138.1359
2296.848258 82.426 -138.1316
2313.492167 82.493 -138.1330
2330.256685 82.560 -138.1369
2347.142685 82.628 -138.1454
2364.151049 82.696 -138.1617
2381.282662 82.765 -138.1873
2398.538418 82.835 -138.2255
2415.919216 82.906 -138.2772
2433.425962 82.979 -138.3388
2451.059570 83.053 -138.4081
2468.820958 83.127 -138.4883
2486.711052 83.202 -138.5817
2504.730786 83.277 -138.6882
2522.881098 83.354 -138.8101
2541.162934 83.430 -138.9478
2559.577248 83.507 -139.0979
2578.125000 83.584 -139.2599
2596.807157 83.661 -139.4349
2615.624692 83.738 -139.6235
2634.578586 83.814 -139.8264
2653.669829 83.891 -140.0433
2672.899414 83.967 -140.2764
2692.268345 84.044 -140.5273
2711.777632 84.120 -140.7928
2731.428290 84.197 -141.0709
2751.221345 84.273 -141.3649
2771.157829 84.349 -141.6787
2791.238781 84.424 -142.0116
2811.465248 84.499 -142.3611
2831.838284 84.574 -142.7275
2852.358952 84.647 -143.1115
2873.028321 84.720 -143.5130
2893.847468 84.792 -143.9320
2914.817480 84.863 -144.3682
2935.939449 84.933 -144.8210
2957.214476 85.002 -145.2917
2978.643672 85.069 -145.7831
3000.228152 85.134 -146.2964
3021.969041 85.197 -146.8307
3043.867475 85.259 -147.3831
3065.924593 85.319 -147.9523
3088.141547 85.376 -148.5399
3110.519493 85.431 -149.1477
3133.059600 85.484 -149.7756
3155.763041 85.534 -150.4234
3178.631001 85.581 -151.0902
3201.664672 85.626 -151.7765
3224.865254 85.668 -152.4816
3248.233957 85.706 -153.2042
3271.771999 85.742 -153.9442
3295.480608 85.773 -154.7010
3319.361019 85.800 -155.4755
3343.414477 85.823 -156.2658
3367.642236 85.841 -157.0677
3392.045560 85.853 -157.8785
3416.625721 85.861 -158.6974
3441.383999 85.864 -159.5228
3466.321686 85.862 -160.3512
3491.440082 85.856 -161.1816
3516.740496 85.845 -162.0157
3542.224247 85.829 -162.8537
3567.892664 85.809 -163.6937
3593.747085 85.785 -164.5356
3619.788858 85.755 -165.3807
3646.019340 85.721 -166.2300
3672.439900 85.681 -167.0852
3699.051913 85.636 -167.9456
3725.856768 85.584 -168.8057
3752.855862 85.526 -169.6586
3780.050603 85.462 -170.5000
3807.442408 85.391 -171.3259
3835.032705 85.314 -172.1287
3862.822933 85.231 -172.9032
3890.814540 85.142 -173.6504
3919.008986 85.049 -174.3723
3947.407741 84.952 -175.0694
3976.012284 84.850 -175.7419
4004.824108 84.745 -176.3911
4033.844715 84.635 -177.0171
4063.075616 84.520 -177.6188
4092.518337 84.402 -178.1936
4122.174412 84.279 -178.7360
4152.045387 84.152 -179.2421
4182.132820 84.020 -179.7112
4212.438278 83.886 179.8606
4242.963342 83.748 179.4799
4273.709604 83.609 179.1495
4304.678665 83.470 178.8666
4335.872141 83.332 178.6268
4367.291658 83.194 178.4244
4398.938854 83.059 178.2518
4430.815378 82.924 178.1058
4462.922893 82.791 177.9863
4495.263072 82.658 177.8906
4527.837601 82.526 177.8169
4560.648179 82.393 177.7659
4593.696515 82.260 177.7391
4626.984334 82.127 177.7370
4660.513370 81.994 177.7603
4694.285371 81.861 177.8110
4728.302098 81.729 177.8920
4762.565324 81.597 178.0034
4797.076835 81.466 178.1448
4831.838432 81.336 178.3153
4866.851925 81.207 178.5134
4902.119140 81.080 178.7378
4937.641916 80.954 178.9878
4973.422105 80.831 179.2640
5009.461572 80.709 179.5667
5045.762195 80.589 179.8960
5082.325868 80.471 -179.7480
5119.154496 80.354 -179.3670
5156.250000 80.240 -178.9611
5193.614313 80.128 -178.5275
5231.249383 80.020 -178.0665
5269.157173 79.914 -177.5792
5307.339658 79.813 -177.0663
5345.798829 79.714 -176.5307
5384.536691 79.620 -175.9747
5423.555263 79.529 -175.3987
5462.856580 79.441 -174.8022
5502.442691 79.359 -174.1859
5542.315659 79.280 -173.5501
5582.477563 79.205 -172.8956
5622.930497 79.135 -172.2241
5663.676569 79.068 -171.5367
5704.717904 79.005 -170.8330
5746.056642 78.947 -170.1105
5787.694937 78.894 -169.3663
5829.634960 78.848 -168.6030
5871.878898 78.808 -167.8271
5914.428953 78.775 -167.0415
5957.287343 78.749 -166.2470
6000.456303 78.729 -165.4453
6043.938083 78.717 -164.6375
6087.734950 78.712 -163.8275
6131.849187 78.714 -163.0192
6176.283094 78.724 -162.2137
6221.038987 78.744 -161.4114
6266.119200 78.771 -160.6158
6311.526083 78.808 -159.8327
6357.262002 78.854 -159.0662
6403.329344 78.908 -158.3235
6449.730508 78.971 -157.6117
6496.467914 79.043 -156.9337
6543.543998 79.125 -156.2891
6590.961215 79.215 -155.6810
6638.722037 79.315 -155.1143
6686.828954 79.424 -154.5945
6735.284473 79.544 -154.1293
6784.091120 79.673 -153.7288
6833.251441 79.811 -153.4038
6882.767998 79.958 -153.1668
6932.643372 80.113 -153.0298
6982.880164 80.273 -152.9989
7033.480992 80.437 -153.0752
7084.448495 80.602 -153.2549
7135.785329 80.768 -153.5324
7187.494171 80.934 -153.9000
7239.577717 81.102 -154.3461
7292.038681 81.273 -154.8604
7344.879799 81.452 -155.4406
7398.103826 81.643 -156.1000
7451.713536 81.850 -156.8737
7505.711724 82.077 -157.8207
7560.101205 82.324 -159.0172
7614.884815 82.586 -160.5476
7670.065409 82.852 -162.4926
7725.645865 83.106 -164.9086
7781.629080 83.328 -167.8170
7838.017972 83.496 -171.1995
7894.815481 83.590 -174.9922
7952.024569 83.594 -179.0813
8009.648217 83.496 176.6841
8067.689429 83.292 172.4681
8126.151233 82.986 168.4212
8185.036674 82.587 164.6730
8244.348824 82.111 161.3292
8304.090774 81.576 158.4562
8364.265639 81.000 156.0795
8424.876556 80.396 154.1950
8485.926684 79.778 152.7825
8547.419207 79.156 151.8170
8609.357330 78.539 151.2667
8671.744282 77.937 151.0918
8734.583316 77.353 151.2484
8797.877707 76.793 151.6924
8861.630756 76.257 152.3819
8925.845785 75.747 153.2838
8990.526143 75.262 154.3702
9055.675202 74.802 155.6105
9121.296357 74.367 156.9783
9187.393031 73.956 158.4552
9253.968668 73.568 160.0282
9321.026740 73.203 161.6881
9388.570742 72.859 163.4254
9456.604196 72.536 165.2265
9525.130648 72.233 167.0811
9594.153671 71.948 168.9884
9663.676863 71.682 170.9443
9733.703850 71.434 172.9409
9804.238280 71.204 174.9750
9875.283832 70.993 177.0484
9946.844210 70.802 179.1574
10018.923143 70.629 -178.7081
10091.524390 70.475 -176.5547
10164.651736 70.339 -174.3884
10238.308993 70.222 -172.2184
10312.500000 70.123 -170.0446
10387.228626 70.042 -167.8638
10462.498767 69.979 -165.6803
10538.314345 69.935 -163.5034
10614.679315 69.909 -161.3394
10691.597657 69.904 -159.1895
10769.073381 69.919 -157.0550
10847.110526 69.954 -154.9409
10925.713161 70.011 -152.8583
11004.885382 70.089 -150.8129
11084.631318 70.190 -148.8063
11164.955126 70.313 -146.8445
11245.860993 70.462 -144.9410
11327.353138 70.637 -143.1066
11409.435808 70.839 -141.3573
11492.113283 71.070 -139.7130
11575.389873 71.329 -138.1903
11659.269920 71.617 -136.8068
11743.757796 71.937 -135.5815
11828.857906 72.289 -134.5414
11914.574686 72.673 -133.7210
12000.912606 73.089 -133.1623
12087.876166 73.537 -132.9142
12175.469900 74.014 -133.0272
12263.698373 74.515 -133.5598
12352.566187 75.034 -134.5769
12442.077974 75.559 -136.1430
12532.238400 76.077 -138.3149
12623.052165 76.566 -141.1286
12714.524005 77.005 -144.5837
12806.658687 77.371 -148.6294
12899.461015 77.640 -153.1613
12992.935827 77.795 -158.0254
13087.087996 77.828 -163.0325
13181.922430 77.738 -167.9836
13277.444074 77.536 -172.6953
13373.657907 77.242 -177.0227
13470.568945 76.877 179.1269
13568.182241 76.467 175.7892
13666.502883 76.034 172.9521
13765.535996 75.596 170.5696
13865.286744 75.166 168.5748
13965.760328 74.753 166.8998
14066.961984 74.361 165.4855
14168.896989 73.995 164.2795
14271.570658 73.660 163.2364
14374.988342 73.358 162.3129
14479.155433 73.094 161.4627
14584.077362 72.871 160.6257
14689.759598 72.693 159.7192
14796.207652 72.559 158.6455
14903.427072 72.461 157.3048
15011.423448 72.388 155.6075
15120.202410 72.320 153.4950
15229.769630 72.238 150.9594
15340.130819 72.125 148.0418
15451.291730 71.964 144.8195
15563.258160 71.748 141.3866
15676.035944 71.469 137.8369
15789.630962 71.128 134.2627
15904.049137 70.725 130.7534
16019.296433 70.265 127.3837
16135.378859 69.756 124.2107
16252.302465 69.206 121.2822
16370.073348 68.625 118.6355
16488.697648 68.024 116.2806
16608.181548 67.414 114.2053
16728.531278 66.804 112.3857
16849.753112 66.203 110.8034
16971.853368 65.617 109.4500
17094.838414 65.051 108.2996
17218.714660 64.510 107.3130
17343.488565 64.000 106.4573
17469.166632 63.527 105.6894
17595.755415 63.095 104.9579
17723.261512 62.707 104.2200
17851.691571 62.367 103.4221
17981.052287 62.078 102.5096
18111.350404 61.845 101.4320
18242.592715 61.672 100.1160
18374.786062 61.558 98.4762
18507.937336 61.502 96.4224
18642.053479 61.500 93.8539
18777.141484 61.548 90.6473
18913.208391 61.634 86.6594
19050.261296 61.742 81.7451
19188.307342 61.845 75.7793
19327.353727 61.907 68.6839
19467.407699 61.889 60.4510
19608.476560 61.756 51.2025
19750.567664 61.514 41.3287
19893.688419 61.235 31.8974
20037.846286 61.055 25.4162
