* Measurement data measured by REW V5.31.3
* Source: Headset (2- CX31993 HIFI AUDIO), MICROPHONE (Master Volume), R, volume: 0.400
* Format: 256k Log Swept Sine, 1 sweep at -12.0 dBFS with no timing reference
* Dated: 09 24, 24 3:18:23 PM
* REW Settings:
*  C-weighting compensation: Off
*  Target level: 75.0 dB
* Note: ; 
* Measurement: DUSK R
* Smoothing: 1/12 octave
* Frequency Step: 96 ppo
* Start Frequency: 0.36621094 Hz
*
* Freq(Hz) SPL(dB) Phase(degrees)
0.366211 58.350 -54.1144
0.368865 58.362 -54.2219
0.371538 58.379 -54.3821
0.374230 58.400 -54.5818
0.376942 58.424 -54.8096
0.379673 58.450 -55.0571
0.382424 58.476 -55.3189
0.385196 58.504 -55.5915
0.387987 58.532 -55.8730
0.390798 58.560 -56.1624
0.393630 58.589 -56.4590
0.396483 58.618 -56.7626
0.399356 58.647 -57.0730
0.402250 58.676 -57.3902
0.405165 58.705 -57.7142
0.408101 58.735 -58.0450
0.411058 58.765 -58.3826
0.414037 58.795 -58.7271
0.417037 58.825 -59.0784
0.420059 58.856 -59.4366
0.423103 58.887 -59.8016
0.426169 58.918 -60.1736
0.429257 58.949 -60.5524
0.432368 58.980 -60.9382
0.435501 59.012 -61.3308
0.438656 59.044 -61.7304
0.441835 59.076 -62.1368
0.445037 59.108 -62.5501
0.448262 59.141 -62.9703
0.451510 59.174 -63.3974
0.454782 59.207 -63.8312
0.458077 59.240 -64.2719
0.461397 59.274 -64.7193
0.464740 59.308 -65.1734
0.468108 59.342 -65.6342
0.471500 59.376 -66.1017
0.474917 59.411 -66.5758
0.478358 59.445 -67.0564
0.481825 59.480 -67.5434
0.485316 59.516 -68.0370
0.488833 59.551 -68.5368
0.492375 59.587 -69.0430
0.495943 59.623 -69.5554
0.499537 59.660 -70.0740
0.503157 59.696 -70.5986
0.506803 59.733 -71.1292
0.510475 59.770 -71.6657
0.514175 59.808 -72.2080
0.517900 59.845 -72.7561
0.521653 59.883 -73.3098
0.525434 59.921 -73.8690
0.529241 59.960 -74.4337
0.533076 59.999 -75.0037
0.536939 60.038 -75.5790
0.540830 60.077 -76.1594
0.544749 60.117 -76.7449
0.548696 60.157 -77.3352
0.552673 60.197 -77.9304
0.556677 60.237 -78.5304
0.560711 60.278 -79.1349
0.564774 60.319 -79.7439
0.568867 60.361 -80.3574
0.572989 60.402 -80.9752
0.577141 60.444 -81.5971
0.581324 60.487 -82.2232
0.585536 60.529 -82.8532
0.589779 60.572 -83.4871
0.594053 60.615 -84.1249
0.598358 60.659 -84.7663
0.602694 60.703 -85.4114
0.607061 60.747 -86.0600
0.611460 60.791 -86.7121
0.615891 60.836 -87.3675
0.620354 60.881 -88.0262
0.624849 60.927 -88.6882
0.629377 60.973 -89.3533
0.633938 61.019 -90.0215
0.638532 61.065 -90.6927
0.643159 61.112 -91.3669
0.647819 61.159 -92.0441
0.652514 61.207 -92.7241
0.657242 61.254 -93.4070
0.662005 61.303 -94.0928
0.666802 61.351 -94.7813
0.671634 61.400 -95.4727
0.676501 61.449 -96.1668
0.681403 61.499 -96.8637
0.686341 61.549 -97.5634
0.691314 61.599 -98.2658
0.696324 61.650 -98.9711
0.701370 61.702 -99.6791
0.706452 61.754 -100.3899
0.711571 61.807 -101.1035
0.716728 61.861 -101.8197
0.721921 61.918 -102.5384
0.727153 61.977 -103.2592
0.732422 62.039 -103.9819
0.737729 62.105 -104.7058
0.743075 62.175 -105.4302
0.748460 62.248 -106.1546
0.753883 62.323 -106.8783
0.759346 62.401 -107.6008
0.764849 62.481 -108.3216
0.770391 62.563 -109.0405
0.775974 62.646 -109.7569
0.781597 62.732 -110.4707
0.787261 62.819 -111.1815
0.792966 62.908 -111.8892
0.798712 62.998 -112.5934
0.804500 63.090 -113.2940
0.810329 63.184 -113.9908
0.816201 63.279 -114.6836
0.822116 63.376 -115.3724
0.828073 63.474 -116.0569
0.834074 63.574 -116.7372
0.840118 63.676 -117.4131
0.846206 63.779 -118.0846
0.852338 63.883 -118.7516
0.858514 63.989 -119.4142
0.864735 64.096 -120.0724
0.871001 64.205 -120.7262
0.877313 64.315 -121.3756
0.883670 64.426 -122.0207
0.890074 64.539 -122.6616
0.896524 64.653 -123.2983
0.903020 64.768 -123.9310
0.909564 64.884 -124.5598
0.916155 65.002 -125.1848
0.922794 65.120 -125.8061
0.929481 65.240 -126.4240
0.936216 65.360 -127.0386
0.943000 65.481 -127.6500
0.949834 65.604 -128.2585
0.956717 65.727 -128.8642
0.963649 65.851 -129.4673
0.970632 65.975 -130.0682
0.977666 66.100 -130.6669
0.984750 66.226 -131.2637
0.991886 66.352 -131.8589
0.999074 66.479 -132.4527
1.006314 66.605 -133.0453
1.013606 66.732 -133.6370
1.020951 66.860 -134.2281
1.028349 66.987 -134.8188
1.035801 67.114 -135.4094
1.043307 67.241 -136.0001
1.050867 67.368 -136.5911
1.058482 67.494 -137.1828
1.066152 67.621 -137.7753
1.073878 67.746 -138.3686
1.081660 67.872 -138.9628
1.089498 67.997 -139.5578
1.097393 68.121 -140.1530
1.105345 68.246 -140.7480
1.113355 68.371 -141.3423
1.121423 68.496 -141.9351
1.129549 68.621 -142.5261
1.137734 68.747 -143.1148
1.145979 68.874 -143.7011
1.154283 69.000 -144.2849
1.162647 69.128 -144.8659
1.171072 69.256 -145.4442
1.179558 69.384 -146.0198
1.188106 69.513 -146.5926
1.196715 69.642 -147.1626
1.205387 69.772 -147.7298
1.214122 69.902 -148.2944
1.222920 70.033 -148.8563
1.231782 70.164 -149.4156
1.240708 70.296 -149.9724
1.249699 70.428 -150.5267
1.258754 70.560 -151.0787
1.267876 70.693 -151.6283
1.277063 70.826 -152.1759
1.286318 70.960 -152.7213
1.295639 71.093 -153.2648
1.305027 71.228 -153.8066
1.314484 71.362 -154.3466
1.324009 71.496 -154.8852
1.333604 71.631 -155.4223
1.343268 71.766 -155.9583
1.353002 71.901 -156.4931
1.362806 72.037 -157.0271
1.372681 72.172 -157.5603
1.382628 72.308 -158.0930
1.392647 72.443 -158.6253
1.402739 72.579 -159.1574
1.412904 72.714 -159.6893
1.423142 72.850 -160.2213
1.433455 72.986 -160.7533
1.443843 73.121 -161.2852
1.454305 73.257 -161.8168
1.464844 73.392 -162.3479
1.475459 73.527 -162.8779
1.486150 73.662 -163.4063
1.496920 73.797 -163.9327
1.507767 73.932 -164.4570
1.518693 74.067 -164.9791
1.529698 74.201 -165.4989
1.540783 74.336 -166.0165
1.551948 74.470 -166.5322
1.563194 74.604 -167.0461
1.574521 74.738 -167.5584
1.585931 74.872 -168.0693
1.597423 75.005 -168.5792
1.608999 75.139 -169.0882
1.620658 75.272 -169.5967
1.632402 75.406 -170.1049
1.644232 75.539 -170.6131
1.656146 75.672 -171.1216
1.668147 75.805 -171.6307
1.680235 75.938 -172.1408
1.692411 76.071 -172.6522
1.704675 76.204 -173.1651
1.717028 76.336 -173.6800
1.729470 76.469 -174.1971
1.742003 76.602 -174.7168
1.754626 76.734 -175.2394
1.767341 76.867 -175.7653
1.780147 76.999 -176.2946
1.793047 77.132 -176.8278
1.806040 77.264 -177.3648
1.819128 77.397 -177.9057
1.832310 77.529 -178.4504
1.845587 77.661 -178.9985
1.858961 77.793 -179.5496
1.872432 77.924 179.8967
1.886001 78.055 179.3408
1.899667 78.185 178.7830
1.913433 78.316 178.2238
1.927299 78.445 177.6632
1.941265 78.575 177.1016
1.955332 78.704 176.5391
1.969501 78.832 175.9758
1.983773 78.960 175.4118
1.998148 79.088 174.8473
2.012627 79.216 174.2823
2.027212 79.343 173.7167
2.041902 79.470 173.1507
2.056698 79.596 172.5840
2.071602 79.723 172.0168
2.086614 79.849 171.4489
2.101734 79.974 170.8801
2.116964 80.100 170.3104
2.132304 80.225 169.7394
2.147756 80.350 169.1671
2.163320 80.475 168.5931
2.178996 80.600 168.0170
2.194786 80.724 167.4387
2.210690 80.848 166.8578
2.226710 80.972 166.2741
2.242845 81.095 165.6877
2.259098 81.217 165.0986
2.275468 81.339 164.5071
2.291957 81.460 163.9135
2.308566 81.580 163.3180
2.325295 81.700 162.7210
2.342145 81.820 162.1227
2.359117 81.939 161.5235
2.376212 82.057 160.9236
2.393431 82.175 160.3231
2.410775 82.292 159.7223
2.428244 82.409 159.1212
2.445840 82.526 158.5201
2.463564 82.642 157.9188
2.481416 82.757 157.3175
2.499397 82.873 156.7160
2.517509 82.988 156.1140
2.535752 83.102 155.5113
2.554127 83.216 154.9073
2.572635 83.329 154.3015
2.591277 83.442 153.6935
2.610055 83.555 153.0827
2.628968 83.666 152.4692
2.648019 83.777 151.8530
2.667208 83.887 151.2344
2.686535 83.996 150.6138
2.706003 84.105 149.9916
2.725612 84.213 149.3683
2.745363 84.320 148.7442
2.765257 84.426 148.1197
2.785295 84.532 147.4952
2.805478 84.638 146.8711
2.825808 84.743 146.2476
2.846285 84.847 145.6248
2.866910 84.951 145.0027
2.887685 85.054 144.3812
2.908611 85.157 143.7599
2.929688 85.259 143.1382
2.950917 85.361 142.5154
2.972301 85.462 141.8909
2.993839 85.562 141.2643
3.015534 85.661 140.6356
3.037386 85.759 140.0049
3.059396 85.857 139.3727
3.081565 85.954 138.7394
3.103896 86.050 138.1055
3.126388 86.145 137.4716
3.149043 86.240 136.8382
3.171862 86.334 136.2057
3.194847 86.427 135.5747
3.217998 86.520 134.9454
3.241317 86.613 134.3179
3.264805 86.705 133.6920
3.288463 86.796 133.0674
3.312293 86.886 132.4434
3.336295 86.976 131.8194
3.360471 87.065 131.1948
3.384822 87.154 130.5695
3.409350 87.241 129.9434
3.434056 87.328 129.3169
3.458940 87.414 128.6902
3.484005 87.499 128.0640
3.509252 87.584 127.4386
3.534681 87.668 126.8145
3.560295 87.751 126.1921
3.586094 87.834 125.5718
3.612081 87.917 124.9536
3.638255 87.999 124.3374
3.664620 88.080 123.7229
3.691175 88.161 123.1095
3.717923 88.241 122.4968
3.744864 88.320 121.8844
3.772001 88.399 121.2722
3.799335 88.477 120.6603
3.826866 88.554 120.0491
3.854597 88.631 119.4388
3.882529 88.707 118.8297
3.910664 88.783 118.2224
3.939002 88.858 117.6171
3.967546 88.932 117.0140
3.996296 89.007 116.4131
4.025255 89.080 115.8143
4.054423 89.154 115.2173
4.083804 89.227 114.6216
4.113396 89.299 114.0270
4.143204 89.370 113.4333
4.173227 89.442 112.8406
4.203468 89.512 112.2489
4.233928 89.582 111.6584
4.264609 89.652 111.0695
4.295512 89.721 110.4821
4.326639 89.790 109.8965
4.357992 89.858 109.3126
4.389572 89.926 108.7305
4.421380 89.994 108.1498
4.453419 90.061 107.5703
4.485691 90.128 106.9917
4.518196 90.194 106.4141
4.550936 90.260 105.8374
4.583914 90.326 105.2617
4.617131 90.391 104.6871
4.650589 90.455 104.1138
4.684289 90.519 103.5417
4.718233 90.583 102.9709
4.752424 90.647 102.4014
4.786862 90.710 101.8330
4.821549 90.773 101.2654
4.856488 90.835 100.6985
4.891680 90.897 100.1324
4.927127 90.958 99.5669
4.962831 91.019 99.0023
4.998794 91.080 98.4384
5.035017 91.140 97.8756
5.071503 91.200 97.3138
5.108253 91.259 96.7528
5.145270 91.318 96.1927
5.182555 91.377 95.6332
5.220110 91.435 95.0743
5.257937 91.492 94.5159
5.296038 91.550 93.9580
5.334415 91.606 93.4008
5.373071 91.663 92.8444
5.412006 91.719 92.2888
5.451224 91.774 91.7342
5.490725 91.829 91.1805
5.530514 91.884 90.6275
5.570590 91.938 90.0752
5.610957 91.991 89.5234
5.651616 92.044 88.9723
5.692570 92.097 88.4218
5.733821 92.149 87.8723
5.775370 92.201 87.3238
5.817221 92.252 86.7763
5.859375 92.303 86.2299
5.901834 92.353 85.6844
5.944602 92.403 85.1398
5.987679 92.452 84.5960
6.031068 92.500 84.0530
6.074771 92.549 83.5111
6.118792 92.596 82.9703
6.163131 92.644 82.4307
6.207792 92.690 81.8923
6.252776 92.737 81.3551
6.298086 92.782 80.8191
6.343725 92.828 80.2841
6.389694 92.872 79.7502
6.435996 92.917 79.2176
6.482634 92.960 78.6862
6.529610 93.004 78.1563
6.576926 93.046 77.6279
6.624585 93.089 77.1008
6.672590 93.130 76.5751
6.720942 93.172 76.0508
6.769645 93.212 75.5280
6.818700 93.252 75.0067
6.868111 93.292 74.4871
6.917881 93.331 73.9692
6.968010 93.370 73.4532
7.018504 93.408 72.9389
7.069362 93.446 72.4264
7.120590 93.483 71.9158
7.172189 93.519 71.4072
7.224161 93.555 70.9006
7.276511 93.591 70.3964
7.329239 93.626 69.8944
7.382350 93.661 69.3948
7.435845 93.695 68.8976
7.489729 93.729 68.4027
7.544002 93.762 67.9104
7.598669 93.795 67.4207
7.653732 93.827 66.9336
7.709194 93.859 66.4493
7.765058 93.891 65.9678
7.821327 93.922 65.4890
7.878004 93.953 65.0130
7.935091 93.983 64.5396
7.992592 94.014 64.0688
8.050510 94.044 63.6008
8.108847 94.074 63.1353
8.167607 94.103 62.6724
8.226793 94.133 62.2119
8.286408 94.162 61.7535
8.346454 94.191 61.2971
8.406936 94.220 60.8427
8.467856 94.249 60.3900
8.529218 94.278 59.9388
8.591024 94.306 59.4890
8.653278 94.335 59.0403
8.715983 94.363 58.5925
8.779143 94.391 58.1454
8.842760 94.419 57.6987
8.906839 94.447 57.2524
8.971381 94.474 56.8064
9.036392 94.502 56.3604
9.101873 94.529 55.9144
9.167829 94.555 55.4683
9.234263 94.582 55.0220
9.301178 94.607 54.5755
9.368578 94.633 54.1290
9.436467 94.658 53.6826
9.504847 94.682 53.2363
9.573723 94.706 52.7903
9.643099 94.729 52.3449
9.712976 94.752 51.9002
9.783361 94.774 51.4566
9.854255 94.796 51.0143
9.925663 94.816 50.5738
9.997588 94.836 50.1351
10.070035 94.856 49.6986
10.143007 94.875 49.2646
10.216507 94.893 48.8334
10.290540 94.911 48.4052
10.365109 94.929 47.9801
10.440219 94.946 47.5582
10.515873 94.963 47.1396
10.592076 94.979 46.7243
10.668830 94.995 46.3121
10.746141 95.011 45.9030
10.824012 95.027 45.4969
10.902447 95.043 45.0932
10.981451 95.059 44.6919
11.061027 95.074 44.2925
11.141180 95.090 43.8948
11.221913 95.106 43.4983
11.303232 95.121 43.1027
11.385140 95.137 42.7076
11.467641 95.152 42.3127
11.550741 95.168 41.9179
11.634442 95.183 41.5230
11.718750 95.198 41.1278
11.803669 95.212 40.7323
11.889203 95.226 40.3366
11.975357 95.240 39.9409
12.062136 95.253 39.5454
12.149543 95.266 39.1504
12.237583 95.279 38.7562
12.326262 95.291 38.3632
12.415583 95.302 37.9717
12.505552 95.313 37.5821
12.596172 95.323 37.1948
12.687449 95.333 36.8099
12.779387 95.343 36.4277
12.871992 95.352 36.0483
12.965268 95.362 35.6715
13.059220 95.371 35.2973
13.153852 95.380 34.9254
13.249170 95.389 34.5555
13.345179 95.398 34.1872
13.441884 95.408 33.8199
13.539289 95.417 33.4531
13.637401 95.426 33.0864
13.736223 95.436 32.7194
13.835761 95.445 32.3517
13.936021 95.454 31.9831
14.037007 95.462 31.6134
14.138725 95.471 31.2429
14.241180 95.479 30.8718
14.344377 95.486 30.5006
14.448323 95.492 30.1299
14.553021 95.498 29.7603
14.658478 95.503 29.3929
14.764700 95.508 29.0285
14.871691 95.512 28.6680
14.979457 95.515 28.3121
15.088005 95.518 27.9615
15.197339 95.520 27.6168
15.307465 95.523 27.2782
15.418389 95.525 26.9455
15.530117 95.528 26.6184
15.642655 95.532 26.2963
15.756008 95.536 25.9783
15.870182 95.541 25.6630
15.985184 95.546 25.3492
16.101019 95.553 25.0355
16.217694 95.560 24.7203
16.335214 95.568 24.4021
16.453586 95.577 24.0798
16.572815 95.585 23.7522
16.692909 95.594 23.4187
16.813872 95.603 23.0790
16.935713 95.612 22.7328
17.058436 95.619 22.3808
17.182048 95.626 22.0236
17.306556 95.632 21.6622
17.431967 95.636 21.2980
17.558286 95.639 20.9326
17.685521 95.640 20.5676
17.813677 95.640 20.2049
17.942762 95.638 19.8461
18.072783 95.635 19.4928
18.203746 95.631 19.1466
18.335658 95.626 18.8087
18.468526 95.620 18.4802
18.602356 95.614 18.1614
18.737156 95.608 17.8528
18.872934 95.601 17.5541
19.009695 95.596 17.2643
19.147447 95.591 16.9824
19.286197 95.587 16.7066
19.425953 95.585 16.4347
19.566721 95.583 16.1643
19.708510 95.584 15.8926
19.851326 95.585 15.6170
19.995177 95.588 15.3348
20.140070 95.591 15.0440
20.286013 95.594 14.7430
20.433014 95.597 14.4310
20.581080 95.600 14.1084
20.730219 95.601 13.7764
20.880439 95.600 13.4370
21.031747 95.597 13.0935
21.184152 95.592 12.7495
21.337661 95.584 12.4090
21.492282 95.574 12.0757
21.648024 95.562 11.7532
21.804895 95.549 11.4439
21.962902 95.536 11.1492
22.122054 95.522 10.8693
22.282360 95.510 10.6027
22.443827 95.498 10.3470
22.606464 95.488 10.0989
22.770280 95.480 9.8546
22.935283 95.473 9.6105
23.101481 95.467 9.3632
23.268884 95.463 9.1105
23.437500 95.459 8.8513
23.607338 95.455 8.5857
23.778406 95.450 8.3146
23.950714 95.445 8.0396
24.124271 95.439 7.7626
24.299086 95.432 7.4851
24.475167 95.425 7.2083
24.652524 95.417 6.9325
24.831166 95.410 6.6577
25.011103 95.401 6.3831
25.192344 95.393 6.1081
25.374898 95.384 5.8324
25.558775 95.374 5.5563
25.743984 95.363 5.2808
25.930536 95.351 5.0078
26.118439 95.338 4.7393
26.307704 95.325 4.4772
26.498341 95.310 4.2228
26.690359 95.296 3.9762
26.883768 95.282 3.7363
27.078579 95.268 3.5009
27.274801 95.256 3.2670
27.472446 95.243 3.0322
27.671522 95.231 2.7948
27.872042 95.218 2.5549
28.074014 95.204 2.3145
28.277450 95.189 2.0773
28.482360 95.172 1.8481
28.688755 95.154 1.6314
28.896645 95.137 1.4303
29.106042 95.120 1.2450
29.316957 95.106 1.0729
29.529400 95.095 0.9083
29.743382 95.087 0.7432
29.958915 95.082 0.5693
30.176009 95.080 0.3796
30.394677 95.079 0.1698
30.614929 95.078 -0.0610
30.836778 95.075 -0.3101
31.060234 95.071 -0.5722
31.285309 95.065 -0.8409
31.512015 95.056 -1.1102
31.740364 95.046 -1.3758
31.970368 95.034 -1.6356
32.202039 95.023 -1.8898
32.435388 95.011 -2.1400
32.670428 95.000 -2.3885
32.907171 94.988 -2.6369
33.145630 94.976 -2.8859
33.385817 94.964 -3.1351
33.627745 94.951 -3.3840
33.871425 94.937 -3.6318
34.116871 94.923 -3.8784
34.364096 94.909 -4.1239
34.613113 94.893 -4.3689
34.863934 94.877 -4.6129
35.116572 94.860 -4.8549
35.371041 94.842 -5.0923
35.627354 94.822 -5.3226
35.885525 94.802 -5.5436
36.145566 94.781 -5.7546
36.407492 94.761 -5.9570
36.671316 94.742 -6.1537
36.937051 94.723 -6.3485
37.204712 94.705 -6.5449
37.474313 94.688 -6.7449
37.745867 94.670 -6.9483
38.019389 94.651 -7.1537
38.294893 94.632 -7.3593
38.572394 94.612 -7.5633
38.851905 94.593 -7.7657
39.133442 94.573 -7.9676
39.417019 94.554 -8.1704
39.702651 94.534 -8.3752
39.990353 94.514 -8.5821
40.280140 94.494 -8.7899
40.572026 94.473 -8.9966
40.866028 94.452 -9.2001
41.162160 94.431 -9.3990
41.460438 94.409 -9.5931
41.760877 94.389 -9.7831
42.063494 94.369 -9.9706
42.368303 94.350 -10.1581
42.675322 94.332 -10.3480
42.984565 94.314 -10.5424
43.296048 94.296 -10.7424
43.609789 94.277 -10.9471
43.925804 94.257 -11.1534
44.244108 94.235 -11.3569
44.564719 94.211 -11.5522
44.887654 94.187 -11.7357
45.212928 94.162 -11.9058
45.540560 94.137 -12.0642
45.870565 94.114 -12.2144
46.202962 94.091 -12.3605
46.537768 94.069 -12.5054
46.875000 94.047 -12.6506
47.214676 94.025 -12.7965
47.556813 94.003 -12.9434
47.901429 93.981 -13.0920
48.248542 93.959 -13.2441
48.598171 93.937 -13.4011
48.950334 93.914 -13.5634
49.305048 93.890 -13.7296
49.662333 93.865 -13.8972
50.022206 93.839 -14.0630
50.384688 93.813 -14.2253
50.749796 93.786 -14.3841
51.117550 93.759 -14.5411
51.487969 93.733 -14.6989
51.861072 93.707 -14.8593
52.236879 93.681 -15.0221
52.615409 93.654 -15.1849
52.996681 93.626 -15.3447
53.380717 93.599 -15.4987
53.767536 93.571 -15.6458
54.157158 93.544 -15.7863
54.549603 93.517 -15.9218
54.944892 93.492 -16.0540
55.343045 93.467 -16.1852
55.744084 93.443 -16.3187
56.148028 93.419 -16.4578
56.554900 93.395 -16.6042
56.964720 93.369 -16.7555
57.377510 93.340 -16.9052
57.793291 93.309 -17.0453
58.212085 93.278 -17.1700
58.633914 93.246 -17.2794
59.058799 93.215 -17.3783
59.486764 93.186 -17.4735
59.917829 93.157 -17.5712
60.352019 93.130 -17.6753
60.789354 93.103 -17.7875
61.229859 93.076 -17.9073
61.673556 93.049 -18.0322
62.120468 93.020 -18.1570
62.570618 92.992 -18.2776
63.024031 92.964 -18.3930
63.480729 92.937 -18.5068
63.940736 92.912 -18.6247
64.404077 92.887 -18.7503
64.870776 92.861 -18.8834
65.340856 92.835 -19.0212
65.814343 92.807 -19.1599
66.291261 92.777 -19.2961
66.771635 92.745 -19.4268
67.255489 92.712 -19.5484
67.742850 92.677 -19.6585
68.233743 92.642 -19.7565
68.728193 92.606 -19.8439
69.226226 92.571 -19.9236
69.727867 92.536 -19.9991
70.233144 92.503 -20.0737
70.742083 92.470 -20.1493
71.254709 92.437 -20.2255
71.771050 92.405 -20.3000
72.291132 92.373 -20.3710
72.814984 92.342 -20.4380
73.342631 92.313 -20.5026
73.874102 92.284 -20.5660
74.409424 92.255 -20.6285
74.948626 92.226 -20.6887
75.491734 92.197 -20.7450
76.038779 92.166 -20.7958
76.589787 92.135 -20.8407
77.144788 92.103 -20.8818
77.703811 92.071 -20.9233
78.266885 92.039 -20.9704
78.834039 92.006 -21.0259
79.405303 91.972 -21.0899
79.980706 91.937 -21.1598
80.560280 91.901 -21.2323
81.144053 91.865 -21.3040
81.732056 91.831 -21.3729
82.324320 91.797 -21.4377
82.920876 91.765 -21.4980
83.521755 91.735 -21.5536
84.126988 91.706 -21.6036
84.736607 91.677 -21.6473
85.350643 91.649 -21.6849
85.969129 91.621 -21.7167
86.592097 91.591 -21.7434
87.219579 91.560 -21.7654
87.851608 91.528 -21.7827
88.488217 91.494 -21.7957
89.129439 91.460 -21.8054
89.775308 91.426 -21.8134
90.425856 91.393 -21.8210
91.081119 91.360 -21.8300
91.741131 91.330 -21.8410
92.405925 91.300 -21.8538
93.075536 91.272 -21.8663
93.750000 91.244 -21.8759
94.429351 91.216 -21.8812
95.113625 91.188 -21.8831
95.802858 91.157 -21.8822
96.497085 91.124 -21.8784
97.196342 91.088 -21.8709
97.900667 91.049 -21.8612
98.610096 91.008 -21.8538
99.324665 90.965 -21.8530
100.044413 90.922 -21.8618
100.769376 90.879 -21.8790
101.499592 90.837 -21.9016
102.235100 90.798 -21.9252
102.975938 90.761 -21.9458
103.722144 90.728 -21.9598
104.473757 90.698 -21.9639
105.230817 90.671 -21.9561
105.993363 90.645 -21.9358
106.761435 90.619 -21.9038
107.535072 90.593 -21.8629
108.314315 90.564 -21.8164
109.099206 90.534 -21.7677
109.889783 90.501 -21.7196
110.686090 90.468 -21.6746
111.488167 90.433 -21.6345
112.296056 90.400 -21.5997
113.109800 90.368 -21.5681
113.929440 90.337 -21.5347
114.755020 90.305 -21.4910
115.586582 90.272 -21.4265
116.424170 90.235 -21.3311
117.267827 90.193 -21.1981
118.117598 90.145 -21.0300
118.973527 90.092 -20.8426
119.835658 90.036 -20.6627
120.704037 89.978 -20.5243
121.578708 89.918 -20.4568
122.459718 89.858 -20.4678
123.347111 89.798 -20.5306
124.240935 89.746 -20.6017
125.141236 89.706 -20.6507
126.048061 89.683 -20.6702
126.961458 89.676 -20.6620
127.881473 89.679 -20.6239
128.808154 89.683 -20.5481
129.741551 89.684 -20.4319
130.681712 89.679 -20.2861
131.628686 89.665 -20.1344
132.582521 89.644 -20.0058
133.543269 89.617 -19.9259
134.510979 89.586 -19.9056
135.485701 89.552 -19.9326
136.467486 89.516 -19.9739
137.456386 89.479 -19.9884
138.452451 89.443 -19.9378
139.455735 89.409 -19.8031
140.466288 89.378 -19.5939
141.484165 89.349 -19.3393
142.509418 89.322 -19.0735
143.542100 89.295 -18.8246
144.582265 89.268 -18.6076
145.629968 89.242 -18.4272
146.685262 89.218 -18.2813
147.748204 89.195 -18.1636
148.818849 89.173 -18.0643
149.897251 89.150 -17.9724
150.983469 89.125 -17.8782
152.077557 89.098 -17.7734
153.179574 89.067 -17.6539
154.289576 89.035 -17.5210
155.407622 89.003 -17.3789
156.533770 88.974 -17.2313
157.668078 88.946 -17.0793
158.810606 88.922 -16.9227
159.961413 88.898 -16.7604
161.120559 88.874 -16.5900
162.288105 88.848 -16.4078
163.464112 88.819 -16.2112
164.648640 88.786 -15.9988
165.841752 88.752 -15.7688
167.043510 88.717 -15.5164
168.253976 88.684 -15.2344
169.473213 88.656 -14.9172
170.701286 88.633 -14.5652
171.938258 88.618 -14.1879
173.184194 88.610 -13.8073
174.439158 88.611 -13.4534
175.703216 88.622 -13.1569
176.976434 88.642 -12.9426
178.258878 88.671 -12.8212
179.550615 88.704 -12.7832
180.851713 88.738 -12.7991
182.162239 88.767 -12.8312
183.482262 88.787 -12.8491
184.811850 88.796 -12.8383
186.151073 88.793 -12.7983
187.500000 88.782 -12.7366
188.858702 88.766 -12.6647
190.227250 88.749 -12.5957
191.605715 88.730 -12.5378
192.994169 88.711 -12.4907
194.392685 88.691 -12.4492
195.801334 88.670 -12.4111
197.220191 88.650 -12.3766
198.649330 88.630 -12.3437
200.088825 88.612 -12.3057
201.538751 88.594 -12.2535
202.999184 88.576 -12.1809
204.470200 88.555 -12.0873
205.951875 88.532 -11.9788
207.444287 88.508 -11.8641
208.947514 88.482 -11.7485
210.461634 88.457 -11.6295
211.986726 88.434 -11.5010
213.522869 88.415 -11.3600
215.070144 88.398 -11.2081
216.628631 88.384 -11.0496
218.198411 88.372 -10.8881
219.779567 88.360 -10.7265
221.372180 88.349 -10.5674
222.976334 88.339 -10.4135
224.592112 88.329 -10.2673
226.219600 88.320 -10.1300
227.858880 88.310 -10.0006
229.510039 88.300 -9.8766
231.173164 88.289 -9.7546
232.848340 88.277 -9.6328
234.535655 88.265 -9.5099
236.235197 88.253 -9.3856
237.947054 88.241 -9.2586
239.671317 88.229 -9.1280
241.408074 88.217 -8.9937
243.157416 88.204 -8.8566
244.919435 88.191 -8.7172
246.694223 88.179 -8.5750
248.481871 88.167 -8.4288
250.282473 88.156 -8.2773
252.096123 88.147 -8.1200
253.922915 88.137 -7.9573
255.762945 88.128 -7.7915
257.616309 88.118 -7.6269
259.483103 88.108 -7.4697
261.363424 88.097 -7.3251
263.257372 88.087 -7.1932
265.165043 88.077 -7.0681
267.086538 88.068 -6.9414
269.021957 88.060 -6.8073
270.971401 88.053 -6.6654
272.934972 88.046 -6.5199
274.912771 88.039 -6.3749
276.904902 88.033 -6.2316
278.911469 88.028 -6.0890
280.932577 88.024 -5.9446
282.968330 88.019 -5.7961
285.018835 88.015 -5.6428
287.084199 88.010 -5.4858
289.164530 88.003 -5.3270
291.259935 87.995 -5.1682
293.370525 87.986 -5.0106
295.496408 87.978 -4.8546
297.637697 87.970 -4.6998
299.794503 87.963 -4.5457
301.966937 87.957 -4.3916
304.155114 87.952 -4.2354
306.359147 87.947 -4.0750
308.579152 87.942 -3.9113
310.815244 87.938 -3.7492
313.067539 87.934 -3.5940
315.336156 87.930 -3.4480
317.621211 87.927 -3.3109
319.922826 87.924 -3.1810
322.241118 87.920 -3.0568
324.576210 87.917 -2.9363
326.928223 87.913 -2.8169
329.297280 87.908 -2.6948
331.683504 87.903 -2.5668
334.087019 87.898 -2.4314
336.507952 87.892 -2.2888
338.946427 87.886 -2.1410
341.402572 87.879 -1.9895
343.876516 87.872 -1.8346
346.368387 87.865 -1.6749
348.878315 87.858 -1.5085
351.406431 87.852 -1.3336
353.952867 87.846 -1.1492
356.517756 87.841 -0.9549
359.101230 87.837 -0.7506
361.703426 87.834 -0.5364
364.324478 87.833 -0.3130
366.964523 87.835 -0.0822
369.623699 87.839 0.1534
372.302145 87.848 0.3887
375.000000 87.859 0.6147
377.717405 87.873 0.8210
380.454501 87.889 0.9983
383.211431 87.907 1.1405
385.988339 87.924 1.2484
388.785369 87.941 1.3301
391.602668 87.956 1.3965
394.440383 87.969 1.4554
397.298660 87.980 1.5103
400.177650 87.987 1.5637
403.077502 87.992 1.6189
405.998368 87.994 1.6781
408.940400 87.995 1.7426
411.903750 87.993 1.8143
414.888575 87.990 1.8953
417.895028 87.987 1.9859
420.923268 87.984 2.0848
423.973452 87.982 2.1898
427.045738 87.980 2.2986
430.140287 87.978 2.4098
433.257261 87.976 2.5233
436.396822 87.975 2.6385
439.559133 87.973 2.7544
442.744360 87.971 2.8696
445.952668 87.969 2.9841
449.184225 87.967 3.0990
452.439199 87.965 3.2152
455.717760 87.963 3.3332
459.020079 87.960 3.4527
462.346327 87.958 3.5736
465.696680 87.956 3.6957
469.071310 87.953 3.8190
472.470394 87.950 3.9435
475.894109 87.948 4.0696
479.342634 87.946 4.1978
482.816148 87.944 4.3280
486.314833 87.942 4.4598
489.838871 87.940 4.5927
493.388445 87.938 4.7266
496.963741 87.936 4.8618
500.564945 87.934 4.9990
504.192245 87.933 5.1385
507.845830 87.931 5.2798
511.525890 87.930 5.4225
515.232618 87.928 5.5660
518.966206 87.927 5.7100
522.726849 87.925 5.8544
526.514743 87.924 5.9995
530.330086 87.923 6.1459
534.173076 87.922 6.2943
538.043915 87.920 6.4449
541.942803 87.919 6.5977
545.869944 87.918 6.7527
549.825542 87.917 6.9095
553.809805 87.916 7.0676
557.822939 87.915 7.2258
561.865154 87.914 7.3837
565.936660 87.914 7.5411
570.037671 87.914 7.6989
574.168399 87.913 7.8573
578.329060 87.913 8.0171
582.519870 87.913 8.1786
586.741049 87.913 8.3422
590.992817 87.913 8.5078
595.275394 87.913 8.6760
599.589005 87.913 8.8468
603.933874 87.914 9.0204
608.310228 87.914 9.1965
612.718295 87.914 9.3745
617.158304 87.915 9.5540
621.630488 87.915 9.7347
626.135079 87.916 9.9168
630.672311 87.916 10.1003
635.242423 87.917 10.2859
639.845651 87.918 10.4739
644.482237 87.919 10.6646
649.152421 87.921 10.8583
653.856447 87.922 11.0552
658.594560 87.924 11.2552
663.367008 87.926 11.4584
668.174039 87.928 11.6642
673.015903 87.931 11.8727
677.892854 87.934 12.0840
682.805145 87.937 12.2985
687.753032 87.941 12.5163
692.736774 87.946 12.7374
697.756631 87.950 12.9612
702.812863 87.955 13.1869
707.905735 87.961 13.4144
713.035511 87.966 13.6437
718.202461 87.973 13.8749
723.406852 87.979 14.1080
728.648956 87.986 14.3434
733.929047 87.993 14.5812
739.247399 88.001 14.8217
744.604290 88.009 15.0646
750.000000 88.018 15.3103
755.434809 88.028 15.5593
760.909001 88.038 15.8124
766.422861 88.048 16.0696
771.976677 88.060 16.3307
777.570739 88.072 16.5950
783.205337 88.085 16.8618
788.880766 88.099 17.1306
794.597321 88.113 17.4005
800.355301 88.129 17.6715
806.155005 88.146 17.9433
811.996736 88.163 18.2158
817.880799 88.182 18.4890
823.807501 88.202 18.7626
829.777150 88.222 19.0370
835.790057 88.244 19.3129
841.846536 88.266 19.5906
847.946903 88.290 19.8701
854.091476 88.314 20.1503
860.280575 88.339 20.4304
866.514523 88.366 20.7098
872.793644 88.394 20.9882
879.118267 88.423 21.2654
885.488720 88.453 21.5413
891.905336 88.484 21.8154
898.368450 88.516 22.0875
904.878398 88.550 22.3572
911.435520 88.585 22.6244
918.040157 88.622 22.8887
924.692655 88.659 23.1499
931.393359 88.698 23.4073
938.142619 88.738 23.6606
944.940787 88.780 23.9093
951.788218 88.822 24.1528
958.685268 88.866 24.3906
965.632296 88.910 24.6219
972.629666 88.956 24.8461
979.677741 89.003 25.0626
986.776890 89.050 25.2715
993.927482 89.099 25.4729
1001.129891 89.149 25.6666
1008.384491 89.199 25.8524
1015.691660 89.251 26.0297
1023.051781 89.303 26.1979
1030.465236 89.356 26.3566
1037.932411 89.409 26.5054
1045.453698 89.464 26.6437
1053.029486 89.518 26.7714
1060.660172 89.574 26.8879
1068.346153 89.629 26.9934
1076.087829 89.685 27.0876
1083.885605 89.741 27.1709
1091.739887 89.797 27.2433
1099.651084 89.853 27.3057
1107.619609 89.908 27.3589
1115.645878 89.964 27.4036
1123.730308 90.019 27.4396
1131.873321 90.073 27.4662
1140.075341 90.128 27.4825
1148.336797 90.181 27.4887
1156.658119 90.234 27.4849
1165.039741 90.287 27.4717
1173.482099 90.339 27.4497
1181.985634 90.390 27.4196
1190.550789 90.440 27.3815
1199.178011 90.489 27.3362
1207.867749 90.538 27.2841
1216.620457 90.585 27.2257
1225.436590 90.632 27.1615
1234.316609 90.678 27.0917
1243.260976 90.723 27.0166
1252.270157 90.767 26.9368
1261.344623 90.810 26.8529
1270.484846 90.852 26.7656
1279.691303 90.893 26.6754
1288.964474 90.933 26.5826
1298.304842 90.972 26.4877
1307.712894 91.010 26.3908
1317.189120 91.047 26.2923
1326.734016 91.083 26.1921
1336.348077 91.118 26.0903
1346.031806 91.153 25.9874
1355.785708 91.186 25.8842
1365.610290 91.219 25.7809
1375.506065 91.251 25.6779
1385.473549 91.282 25.5756
1395.513261 91.312 25.4741
1405.625726 91.342 25.3738
1415.811469 91.371 25.2745
1426.071023 91.399 25.1766
1436.404921 91.427 25.0800
1446.813703 91.455 24.9850
1457.297912 91.482 24.8916
1467.858093 91.509 24.8000
1478.494798 91.535 24.7104
1489.208581 91.561 24.6226
1500.000000 91.586 24.5366
1510.869618 91.612 24.4525
1521.818002 91.637 24.3701
1532.845723 91.662 24.2894
1543.953355 91.687 24.2104
1555.141477 91.711 24.1334
1566.410674 91.736 24.0582
1577.761531 91.760 23.9847
1589.194642 91.785 23.9128
1600.710601 91.809 23.8425
1612.310010 91.834 23.7736
1623.993473 91.859 23.7059
1635.761599 91.884 23.6393
1647.615002 91.909 23.5739
1659.554299 91.935 23.5093
1671.580114 91.960 23.4456
1683.693072 91.986 23.3823
1695.893807 92.012 23.3195
1708.182952 92.038 23.2567
1720.561150 92.065 23.1940
1733.029045 92.092 23.1313
1745.587288 92.119 23.0687
1758.236533 92.147 23.0057
1770.977440 92.175 22.9422
1783.810673 92.203 22.8778
1796.736900 92.232 22.8123
1809.756796 92.261 22.7456
1822.871040 92.291 22.6774
1836.080315 92.321 22.6078
1849.385310 92.351 22.5363
1862.786718 92.382 22.4630
1876.285239 92.414 22.3875
1889.881575 92.446 22.3096
1903.576436 92.478 22.2292
1917.370535 92.511 22.1463
1931.264593 92.544 22.0603
1945.259332 92.578 21.9711
1959.355483 92.612 21.8781
1973.553781 92.647 21.7813
1987.854965 92.682 21.6804
2002.259781 92.718 21.5753
2016.768981 92.754 21.4657
2031.383320 92.791 21.3514
2046.103561 92.828 21.2323
2060.930471 92.865 21.1080
2075.864823 92.903 20.9784
2090.907395 92.941 20.8431
2106.058972 92.979 20.7018
2121.320344 93.018 20.5543
2136.692305 93.057 20.4003
2152.175658 93.097 20.2395
2167.771210 93.136 20.0718
2183.479774 93.176 19.8972
2199.302169 93.216 19.7155
2215.239219 93.256 19.5265
2231.291755 93.296 19.3299
2247.460615 93.337 19.1256
2263.746641 93.377 18.9135
2280.150683 93.417 18.6934
2296.673595 93.458 18.4650
2313.316238 93.498 18.2280
2330.079481 93.538 17.9825
2346.964198 93.578 17.7280
2363.971268 93.618 17.4646
2381.101578 93.657 17.1919
2398.356022 93.696 16.9097
2415.735498 93.735 16.6179
2433.240913 93.773 16.3165
2450.873180 93.811 16.0052
2468.633217 93.849 15.6843
2486.521951 93.885 15.3537
2504.540314 93.921 15.0135
2522.689246 93.956 14.6639
2540.969692 93.989 14.3051
2559.382606 94.022 13.9371
2577.928947 94.054 13.5601
2596.609683 94.084 13.1741
2615.425787 94.114 12.7792
2634.378241 94.142 12.3756
2653.468031 94.168 11.9637
2672.696154 94.194 11.5437
2692.063613 94.218 11.1160
2711.571415 94.240 10.6809
2731.220579 94.260 10.2389
2751.012130 94.279 9.7903
2770.947098 94.296 9.3356
2791.026522 94.311 8.8751
2811.251451 94.324 8.4095
2831.622938 94.335 7.9396
2852.142045 94.344 7.4659
2872.809842 94.351 6.9891
2893.627406 94.356 6.5098
2914.595823 94.359 6.0287
2935.716186 94.359 5.5465
2956.989596 94.357 5.0638
2978.417161 94.354 4.5815
3000.000000 94.348 4.1000
3021.739237 94.340 3.6201
3043.636005 94.329 3.1426
3065.691446 94.317 2.6685
3087.906710 94.302 2.1984
3110.282955 94.285 1.7332
3132.821347 94.266 1.2737
3155.523062 94.245 0.8206
3178.389283 94.222 0.3746
3201.421202 94.197 -0.0637
3224.620020 94.170 -0.4933
3247.986946 94.141 -0.9134
3271.523198 94.110 -1.3232
3295.230004 94.077 -1.7222
3319.108599 94.043 -2.1096
3343.160228 94.007 -2.4846
3367.386145 93.969 -2.8464
3391.787613 93.930 -3.1942
3416.365904 93.889 -3.5270
3441.122300 93.848 -3.8439
3466.058091 93.805 -4.1443
3491.174576 93.761 -4.4275
3516.473066 93.716 -4.6926
3541.954880 93.671 -4.9388
3567.621345 93.625 -5.1653
3593.473800 93.578 -5.3710
3619.513592 93.532 -5.5549
3645.742080 93.485 -5.7161
3672.160630 93.439 -5.8539
3698.770620 93.394 -5.9675
3725.573436 93.350 -6.0571
3752.570477 93.308 -6.1235
3779.763150 93.268 -6.1685
3807.152872 93.231 -6.1953
3834.741071 93.197 -6.2079
3862.529185 93.167 -6.2113
3890.518664 93.140 -6.2102
3918.710966 93.116 -6.2087
3947.107561 93.094 -6.2097
3975.709929 93.074 -6.2144
4004.519563 93.056 -6.2224
4033.537962 93.038 -6.2326
4062.766641 93.020 -6.2427
4092.207123 93.003 -6.2505
4121.860942 92.986 -6.2539
4151.729646 92.969 -6.2512
4181.814790 92.954 -6.2415
4212.117944 92.939 -6.2242
4242.640687 92.926 -6.1997
4273.384610 92.914 -6.1689
4304.351317 92.904 -6.1330
4335.542421 92.896 -6.0938
4366.959549 92.890 -6.0532
4398.604338 92.886 -6.0138
4430.478438 92.885 -5.9780
4462.583511 92.885 -5.9482
4494.921231 92.888 -5.9268
4527.493283 92.892 -5.9158
4560.301365 92.897 -5.9167
4593.347189 92.903 -5.9305
4626.632476 92.910 -5.9572
4660.158962 92.917 -5.9962
4693.928395 92.923 -6.0469
4727.942535 92.930 -6.1082
4762.203156 92.937 -6.1796
4796.712043 92.943 -6.2611
4831.470996 92.951 -6.3544
4866.481826 92.958 -6.4619
4901.746360 92.966 -6.5875
4937.266434 92.974 -6.7351
4973.043902 92.981 -6.9078
5009.080628 92.986 -7.1073
5045.378492 92.988 -7.3328
5081.939384 92.987 -7.5813
5118.765212 92.981 -7.8481
5155.857894 92.970 -8.1273
5193.219366 92.954 -8.4124
5230.851574 92.932 -8.6976
5268.756481 92.906 -8.9781
5306.936062 92.876 -9.2502
5345.392309 92.841 -9.5121
5384.127225 92.804 -9.7633
5423.142830 92.764 -10.0046
5462.441159 92.722 -10.2379
5502.024259 92.678 -10.4653
5541.894195 92.631 -10.6896
5582.053045 92.583 -10.9133
5622.502902 92.532 -11.1393
5663.245876 92.479 -11.3700
5704.284090 92.422 -11.6075
5745.619684 92.362 -11.8539
5787.254813 92.298 -12.1105
5829.191647 92.229 -12.3781
5871.432373 92.153 -12.6571
5913.979192 92.070 -12.9467
5956.834323 91.979 -13.2443
6000.000000 91.878 -13.5453
6043.478473 91.765 -13.8425
6087.272010 91.639 -14.1244
6131.382892 91.498 -14.3754
6175.813420 91.342 -14.5749
6220.565910 91.169 -14.6974
6265.642695 90.981 -14.7138
6311.046124 90.779 -14.5928
6356.778566 90.567 -14.3047
6402.842404 90.350 -13.8254
6449.240040 90.134 -13.1410
6495.973891 89.926 -12.2512
6543.046396 89.733 -11.1714
6590.460007 89.562 -9.9310
6638.217197 89.417 -8.5699
6686.320456 89.300 -7.1328
6734.772290 89.211 -5.6626
6783.575226 89.149 -4.1965
6832.731809 89.112 -2.7628
6882.244600 89.096 -1.3799
6932.116181 89.100 -0.0583
6982.349153 89.120 1.1974
7032.946133 89.154 2.3864
7083.909760 89.201 3.5090
7135.242690 89.260 4.5663
7186.947600 89.329 5.5581
7239.027185 89.409 6.4835
7291.484160 89.498 7.3409
7344.321260 89.597 8.1287
7397.541239 89.704 8.8458
7451.146872 89.818 9.4924
7505.140954 89.941 10.0688
7559.526299 90.072 10.5746
7614.305743 90.212 11.0056
7669.482141 90.361 11.3530
7725.058371 90.519 11.6038
7781.037328 90.685 11.7419
7837.421932 90.857 11.7528
7894.215122 91.033 11.6259
7951.419859 91.210 11.3560
8009.039125 91.384 10.9419
8067.075924 91.553 10.3871
8125.533282 91.713 9.6990
8184.414245 91.861 8.8900
8243.721885 91.994 7.9775
8303.459292 92.110 6.9855
8363.629581 92.208 5.9435
8424.235888 92.288 4.8871
8485.281374 92.351 3.8541
8546.769221 92.404 2.8790
8608.702634 92.453 1.9816
8671.084842 92.510 1.1533
8733.919097 92.581 0.3464
8797.208675 92.669 -0.5188
8860.956876 92.769 -1.5204
8925.167022 92.868 -2.6985
8989.842461 92.956 -4.0563
9054.986566 93.021 -5.5796
9120.602731 93.049 -7.2206
9186.694378 93.033 -8.8771
9253.264952 92.974 -10.4268
9320.317925 92.887 -11.7849
9387.856790 92.787 -12.9289
9455.885071 92.688 -13.8865
9524.406312 92.598 -14.7119
9593.424086 92.521 -15.4647
9662.941992 92.455 -16.1971
9732.963653 92.398 -16.9490
9803.492719 92.344 -17.7461
9874.532869 92.289 -18.6019
9946.087805 92.227 -19.5191
10018.161257 92.154 -20.4921
10090.756983 92.066 -21.5090
10163.878768 91.960 -22.5540
10237.530423 91.835 -23.6093
10311.715789 91.688 -24.6565
10386.438732 91.518 -25.6776
10461.703149 91.325 -26.6546
10537.512962 91.108 -27.5701
10613.872125 90.868 -28.4056
10690.784618 90.604 -29.1423
10768.254450 90.316 -29.7600
10846.285661 90.006 -30.2375
10924.882318 89.674 -30.5542
11004.048518 89.323 -30.6902
11083.788390 88.956 -30.6284
11164.106090 88.575 -30.3556
11245.005805 88.185 -29.8627
11326.491752 87.789 -29.1459
11408.568180 87.391 -28.2063
11491.239368 86.996 -27.0505
11574.509626 86.607 -25.6895
11658.383294 86.228 -24.1384
11742.864745 85.861 -22.4159
11827.958384 85.509 -20.5428
11913.668646 85.175 -18.5413
12000.000000 84.859 -16.4340
12086.956947 84.562 -14.2438
12174.544019 84.286 -11.9927
12262.765784 84.030 -9.7014
12351.626840 83.794 -7.3881
12441.131819 83.578 -5.0684
12531.285389 83.381 -2.7551
12622.092249 83.201 -0.4589
12713.557132 83.038 1.8124
12805.684808 82.891 4.0529
12898.480079 82.759 6.2583
12991.947783 82.643 8.4253
13086.092792 82.543 10.5508
13180.920015 82.460 12.6320
13276.434395 82.393 14.6653
13372.640911 82.345 16.6464
13469.544580 82.316 18.5697
13567.150452 82.308 20.4286
13665.463617 82.323 22.2163
13764.489200 82.361 23.9262
13864.232362 82.423 25.5524
13964.698305 82.510 27.0897
14065.892266 82.623 28.5345
14167.819519 82.761 29.8835
14270.485380 82.925 31.1339
14373.895200 83.116 32.2830
14478.054370 83.332 33.3274
14582.968320 83.575 34.2635
14688.642520 83.841 35.0873
14795.082478 84.131 35.7959
14902.293745 84.443 36.3866
15010.281908 84.774 36.8587
15119.052599 85.122 37.2139
15228.611486 85.487 37.4568
15338.964283 85.864 37.5959
15450.116741 86.255 37.6426
15562.074656 86.660 37.6082
15674.843864 87.082 37.4966
15788.430244 87.525 37.2943
15902.839718 87.996 36.9593
16018.078250 88.495 36.4135
16134.151848 89.019 35.5471
16251.066563 89.555 34.2373
16368.828491 90.082 32.3773
16487.443769 90.572 29.9059
16606.918584 90.996 26.8239
16727.259161 91.328 23.1973
16848.471777 91.545 19.1484
16970.562748 91.634 14.8372
17093.538442 91.589 10.4387
17217.405268 91.411 6.1226
17342.169684 91.109 2.0366
17467.838194 90.696 -1.6993
17594.417350 90.184 -4.9952
17721.913751 89.591 -7.7883
17850.334044 88.932 -10.0392
17979.684923 88.223 -11.7263
18109.973131 87.481 -12.8419
18241.205462 86.722 -13.3943
18373.388756 85.969 -13.4186
18506.529905 85.246 -12.9995
18640.635849 84.581 -12.2974
18775.713581 83.999 -11.5587
18911.770141 83.512 -11.0865
19048.812624 83.114 -11.1647
19186.848172 82.779 -11.9712
19325.883983 82.469 -13.5261
19465.927305 82.157 -15.6938
19606.985439 81.834 -18.2134
19749.065738 81.519 -20.7261
19892.175609 81.259 -22.7990
20036.322514 81.110 -23.9885
