* Measurement data measured by REW V5.31.3
* Source: Headset (2- CX31993 HIFI AUDIO), MICROPHONE (Master Volume), R, volume: 0.400
* Format: 256k Log Swept Sine, 1 sweep at -12.0 dBFS with no timing reference
* Dated: 09 24, 24 3:17:45 PM
* REW Settings:
*  C-weighting compensation: Off
*  Target level: 75.0 dB
* Note: ; 
* Measurement: DUSK L
* Smoothing: 1/12 octave
* Frequency Step: 96 ppo
* Start Frequency: 0.36621094 Hz
*
* Freq(Hz) SPL(dB) Phase(degrees)
0.366211 53.170 -31.9870
0.368865 53.187 -32.0816
0.371538 53.212 -32.2219
0.374230 53.243 -32.3959
0.376942 53.278 -32.5927
0.379673 53.315 -32.8049
0.382424 53.353 -33.0272
0.385196 53.393 -33.2566
0.387987 53.434 -33.4912
0.390798 53.474 -33.7300
0.393630 53.516 -33.9724
0.396483 53.557 -34.2181
0.399356 53.599 -34.4670
0.402250 53.641 -34.7190
0.405165 53.684 -34.9741
0.408101 53.727 -35.2322
0.411058 53.770 -35.4933
0.414037 53.814 -35.7573
0.417037 53.857 -36.0244
0.420059 53.901 -36.2944
0.423103 53.946 -36.5673
0.426169 53.991 -36.8433
0.429257 54.036 -37.1221
0.432368 54.081 -37.4039
0.435501 54.127 -37.6885
0.438656 54.173 -37.9761
0.441835 54.219 -38.2666
0.445037 54.266 -38.5600
0.448262 54.313 -38.8563
0.451510 54.361 -39.1554
0.454782 54.408 -39.4575
0.458077 54.457 -39.7624
0.461397 54.505 -40.0702
0.464740 54.554 -40.3808
0.468108 54.603 -40.6944
0.471500 54.653 -41.0108
0.474917 54.703 -41.3301
0.478358 54.753 -41.6523
0.481825 54.803 -41.9774
0.485316 54.854 -42.3054
0.488833 54.906 -42.6364
0.492375 54.957 -42.9702
0.495943 55.010 -43.3071
0.499537 55.062 -43.6469
0.503157 55.115 -43.9897
0.506803 55.168 -44.3355
0.510475 55.222 -44.6844
0.514175 55.276 -45.0364
0.517900 55.330 -45.3915
0.521653 55.385 -45.7498
0.525434 55.440 -46.1112
0.529241 55.496 -46.4759
0.533076 55.552 -46.8439
0.536939 55.608 -47.2152
0.540830 55.665 -47.5899
0.544749 55.722 -47.9681
0.548696 55.780 -48.3497
0.552673 55.838 -48.7350
0.556677 55.897 -49.1239
0.560711 55.956 -49.5165
0.564774 56.015 -49.9129
0.568867 56.075 -50.3131
0.572989 56.135 -50.7174
0.577141 56.195 -51.1257
0.581324 56.257 -51.5381
0.585536 56.318 -51.9548
0.589779 56.380 -52.3758
0.594053 56.443 -52.8012
0.598358 56.505 -53.2313
0.602694 56.569 -53.6660
0.607061 56.633 -54.1055
0.611460 56.697 -54.5499
0.615891 56.761 -54.9994
0.620354 56.827 -55.4541
0.624849 56.892 -55.9141
0.629377 56.958 -56.3796
0.633938 57.025 -56.8507
0.638532 57.092 -57.3276
0.643159 57.160 -57.8104
0.647819 57.228 -58.2994
0.652514 57.296 -58.7946
0.657242 57.366 -59.2962
0.662005 57.435 -59.8045
0.666802 57.505 -60.3196
0.671634 57.576 -60.8417
0.676501 57.647 -61.3710
0.681403 57.718 -61.9077
0.686341 57.791 -62.4519
0.691314 57.863 -63.0039
0.696324 57.937 -63.5639
0.701370 58.010 -64.1320
0.706452 58.085 -64.7082
0.711571 58.160 -65.2928
0.716728 58.236 -65.8855
0.721921 58.313 -66.4860
0.727153 58.392 -67.0938
0.732422 58.471 -67.7080
0.737729 58.553 -68.3274
0.743075 58.636 -68.9509
0.748460 58.721 -69.5771
0.753883 58.806 -70.2052
0.759346 58.894 -70.8344
0.764849 58.982 -71.4642
0.770391 59.071 -72.0941
0.775974 59.162 -72.7238
0.781597 59.254 -73.3529
0.787261 59.346 -73.9813
0.792966 59.440 -74.6087
0.798712 59.535 -75.2350
0.804500 59.631 -75.8600
0.810329 59.727 -76.4836
0.816201 59.825 -77.1057
0.822116 59.924 -77.7263
0.828073 60.024 -78.3453
0.834074 60.125 -78.9626
0.840118 60.227 -79.5783
0.846206 60.330 -80.1924
0.852338 60.434 -80.8050
0.858514 60.539 -81.4161
0.864735 60.644 -82.0257
0.871001 60.751 -82.6341
0.877313 60.859 -83.2413
0.883670 60.967 -83.8475
0.890074 61.077 -84.4528
0.896524 61.187 -85.0574
0.903020 61.298 -85.6615
0.909564 61.410 -86.2653
0.916155 61.523 -86.8691
0.922794 61.636 -87.4731
0.929481 61.751 -88.0775
0.936216 61.866 -88.6825
0.943000 61.982 -89.2886
0.949834 62.098 -89.8960
0.956717 62.216 -90.5050
0.963649 62.334 -91.1158
0.970632 62.452 -91.7289
0.977666 62.571 -92.3446
0.984750 62.691 -92.9633
0.991886 62.811 -93.5852
0.999074 62.931 -94.2108
1.006314 63.053 -94.8405
1.013606 63.174 -95.4746
1.020951 63.296 -96.1136
1.028349 63.418 -96.7578
1.035801 63.540 -97.4077
1.043307 63.663 -98.0637
1.050867 63.786 -98.7262
1.058482 63.909 -99.3955
1.066152 64.032 -100.0720
1.073878 64.155 -100.7558
1.081660 64.279 -101.4469
1.089498 64.402 -102.1452
1.097393 64.526 -102.8500
1.105345 64.650 -103.5605
1.113355 64.775 -104.2756
1.121423 64.899 -104.9943
1.129549 65.025 -105.7155
1.137734 65.151 -106.4386
1.145979 65.277 -107.1628
1.154283 65.404 -107.8876
1.162647 65.532 -108.6125
1.171072 65.660 -109.3370
1.179558 65.789 -110.0609
1.188106 65.919 -110.7839
1.196715 66.049 -111.5058
1.205387 66.179 -112.2262
1.214122 66.310 -112.9451
1.222920 66.441 -113.6623
1.231782 66.573 -114.3778
1.240708 66.706 -115.0915
1.249699 66.839 -115.8033
1.258754 66.972 -116.5133
1.267876 67.106 -117.2215
1.277063 67.240 -117.9280
1.286318 67.374 -118.6328
1.295639 67.509 -119.3362
1.305027 67.644 -120.0382
1.314484 67.780 -120.7391
1.324009 67.915 -121.4390
1.333604 68.052 -122.1383
1.343268 68.188 -122.8371
1.353002 68.324 -123.5357
1.362806 68.461 -124.2344
1.372681 68.598 -124.9336
1.382628 68.735 -125.6336
1.392647 68.872 -126.3348
1.402739 69.009 -127.0374
1.412904 69.147 -127.7420
1.423142 69.284 -128.4487
1.433455 69.421 -129.1580
1.443843 69.559 -129.8699
1.454305 69.696 -130.5846
1.464844 69.833 -131.3018
1.475459 69.970 -132.0212
1.486150 70.107 -132.7422
1.496920 70.244 -133.4645
1.507767 70.382 -134.1873
1.518693 70.519 -134.9105
1.529698 70.656 -135.6335
1.540783 70.792 -136.3563
1.551948 70.929 -137.0785
1.563194 71.066 -137.8001
1.574521 71.203 -138.5210
1.585931 71.340 -139.2412
1.597423 71.476 -139.9607
1.608999 71.613 -140.6795
1.620658 71.750 -141.3979
1.632402 71.886 -142.1158
1.644232 72.022 -142.8335
1.656146 72.159 -143.5512
1.668147 72.295 -144.2692
1.680235 72.431 -144.9876
1.692411 72.567 -145.7069
1.704675 72.703 -146.4274
1.717028 72.839 -147.1494
1.729470 72.975 -147.8733
1.742003 73.110 -148.5995
1.754626 73.246 -149.3287
1.767341 73.381 -150.0611
1.780147 73.517 -150.7974
1.793047 73.652 -151.5380
1.806040 73.787 -152.2836
1.819128 73.922 -153.0345
1.832310 74.057 -153.7912
1.845587 74.191 -154.5538
1.858961 74.325 -155.3222
1.872432 74.458 -156.0961
1.886001 74.592 -156.8749
1.899667 74.724 -157.6579
1.913433 74.857 -158.4446
1.927299 74.988 -159.2340
1.941265 75.120 -160.0256
1.955332 75.251 -160.8187
1.969501 75.381 -161.6128
1.983773 75.511 -162.4073
1.998148 75.640 -163.2017
2.012627 75.770 -163.9957
2.027212 75.898 -164.7889
2.041902 76.027 -165.5812
2.056698 76.155 -166.3722
2.071602 76.282 -167.1620
2.086614 76.409 -167.9504
2.101734 76.536 -168.7375
2.116964 76.663 -169.5235
2.132304 76.789 -170.3086
2.147756 76.915 -171.0932
2.163320 77.040 -171.8781
2.178996 77.165 -172.6641
2.194786 77.290 -173.4521
2.210690 77.414 -174.2433
2.226710 77.537 -175.0385
2.242845 77.660 -175.8382
2.259098 77.782 -176.6423
2.275468 77.903 -177.4505
2.291957 78.023 -178.2622
2.308566 78.143 -179.0766
2.325295 78.262 -179.8930
2.342145 78.380 179.2894
2.359117 78.498 178.4715
2.376212 78.615 177.6539
2.393431 78.731 176.8374
2.410775 78.847 176.0225
2.428244 78.962 175.2098
2.445840 79.076 174.3997
2.463564 79.190 173.5925
2.481416 79.303 172.7885
2.499397 79.416 171.9875
2.517509 79.528 171.1893
2.535752 79.640 170.3930
2.554127 79.751 169.5977
2.572635 79.861 168.8020
2.591277 79.970 168.0045
2.610055 80.079 167.2041
2.628968 80.186 166.4005
2.648019 80.293 165.5936
2.667208 80.399 164.7839
2.686535 80.503 163.9722
2.706003 80.607 163.1593
2.725612 80.710 162.3463
2.745363 80.812 161.5340
2.765257 80.913 160.7235
2.785295 81.014 159.9157
2.805478 81.114 159.1114
2.825808 81.213 158.3113
2.846285 81.311 157.5161
2.866910 81.409 156.7260
2.887685 81.506 155.9407
2.908611 81.602 155.1598
2.929688 81.698 154.3821
2.950917 81.793 153.6063
2.972301 81.887 152.8310
2.993839 81.980 152.0552
3.015534 82.071 151.2788
3.037386 82.162 150.5018
3.059396 82.252 149.7247
3.081565 82.341 148.9484
3.103896 82.429 148.1738
3.126388 82.516 147.4019
3.149043 82.602 146.6338
3.171862 82.688 145.8704
3.194847 82.773 145.1125
3.217998 82.858 144.3611
3.241317 82.942 143.6163
3.264805 83.025 142.8783
3.288463 83.108 142.1464
3.312293 83.189 141.4198
3.336295 83.271 140.6974
3.360471 83.351 139.9782
3.384822 83.430 139.2617
3.409350 83.509 138.5479
3.434056 83.587 137.8367
3.458940 83.664 137.1289
3.484005 83.740 136.4250
3.509252 83.816 135.7257
3.534681 83.891 135.0318
3.560295 83.966 134.3441
3.586094 84.041 133.6631
3.612081 84.115 132.9893
3.638255 84.189 132.3229
3.664620 84.263 131.6636
3.691175 84.336 131.0109
3.717923 84.409 130.3642
3.744864 84.482 129.7229
3.772001 84.554 129.0867
3.799335 84.625 128.4554
3.826866 84.697 127.8290
3.854597 84.768 127.2075
3.882529 84.838 126.5911
3.910664 84.909 125.9800
3.939002 84.980 125.3747
3.967546 85.051 124.7752
3.996296 85.122 124.1818
4.025255 85.193 123.5946
4.054423 85.264 123.0136
4.083804 85.336 122.4385
4.113396 85.407 121.8691
4.143204 85.479 121.3050
4.173227 85.550 120.7457
4.203468 85.622 120.1907
4.233928 85.694 119.6396
4.264609 85.766 119.0921
4.295512 85.838 118.5478
4.326639 85.911 118.0066
4.357992 85.984 117.4683
4.389572 86.058 116.9330
4.421380 86.132 116.4006
4.453419 86.206 115.8714
4.485691 86.281 115.3452
4.518196 86.356 114.8216
4.550936 86.432 114.3001
4.583914 86.508 113.7802
4.617131 86.584 113.2612
4.650589 86.660 112.7426
4.684289 86.737 112.2237
4.718233 86.814 111.7043
4.752424 86.891 111.1840
4.786862 86.969 110.6629
4.821549 87.047 110.1411
4.856488 87.125 109.6184
4.891680 87.204 109.0949
4.927127 87.282 108.5702
4.962831 87.361 108.0440
4.998794 87.440 107.5159
5.035017 87.518 106.9855
5.071503 87.597 106.4522
5.108253 87.676 105.9158
5.145270 87.754 105.3760
5.182555 87.832 104.8329
5.220110 87.910 104.2864
5.257937 87.988 103.7367
5.296038 88.065 103.1839
5.334415 88.142 102.6283
5.373071 88.218 102.0698
5.412006 88.294 101.5085
5.451224 88.369 100.9441
5.490725 88.443 100.3765
5.530514 88.517 99.8055
5.570590 88.590 99.2311
5.610957 88.662 98.6533
5.651616 88.733 98.0728
5.692570 88.803 97.4900
5.733821 88.872 96.9056
5.775370 88.940 96.3200
5.817221 89.007 95.7335
5.859375 89.073 95.1460
5.901834 89.137 94.5575
5.944602 89.200 93.9679
5.987679 89.262 93.3776
6.031068 89.322 92.7871
6.074771 89.381 92.1974
6.118792 89.439 91.6093
6.163131 89.496 91.0236
6.207792 89.551 90.4407
6.252776 89.604 89.8607
6.298086 89.656 89.2837
6.343725 89.707 88.7098
6.389694 89.756 88.1395
6.435996 89.804 87.5738
6.482634 89.850 87.0134
6.529610 89.896 86.4593
6.576926 89.940 85.9120
6.624585 89.983 85.3720
6.672590 90.024 84.8392
6.720942 90.065 84.3138
6.769645 90.104 83.7961
6.818700 90.143 83.2867
6.868111 90.181 82.7862
6.917881 90.218 82.2950
6.968010 90.254 81.8136
7.018504 90.290 81.3422
7.069362 90.326 80.8806
7.120590 90.361 80.4286
7.172189 90.396 79.9861
7.224161 90.431 79.5529
7.276511 90.466 79.1288
7.329239 90.502 78.7140
7.382350 90.537 78.3081
7.435845 90.574 77.9108
7.489729 90.611 77.5212
7.544002 90.648 77.1385
7.598669 90.687 76.7616
7.653732 90.726 76.3895
7.709194 90.767 76.0216
7.765058 90.808 75.6573
7.821327 90.851 75.2956
7.878004 90.894 74.9353
7.935091 90.939 74.5750
7.992592 90.985 74.2132
8.050510 91.031 73.8487
8.108847 91.079 73.4807
8.167607 91.128 73.1083
8.226793 91.177 72.7308
8.286408 91.227 72.3470
8.346454 91.278 71.9560
8.406936 91.329 71.5568
8.467856 91.380 71.1487
8.529218 91.431 70.7315
8.591024 91.482 70.3051
8.653278 91.532 69.8694
8.715983 91.582 69.4247
8.779143 91.631 68.9707
8.842760 91.679 68.5078
8.906839 91.725 68.0363
8.971381 91.771 67.5573
9.036392 91.815 67.0716
9.101873 91.857 66.5805
9.167829 91.897 66.0848
9.234263 91.936 65.5856
9.301178 91.972 65.0840
9.368578 92.007 64.5813
9.436467 92.039 64.0791
9.504847 92.070 63.5790
9.573723 92.099 63.0820
9.643099 92.126 62.5893
9.712976 92.151 62.1019
9.783361 92.175 61.6208
9.854255 92.198 61.1470
9.925663 92.219 60.6815
9.997588 92.240 60.2246
10.070035 92.259 59.7765
10.143007 92.279 59.3371
10.216507 92.298 58.9064
10.290540 92.317 58.4841
10.365109 92.336 58.0697
10.440219 92.355 57.6624
10.515873 92.375 57.2611
10.592076 92.395 56.8647
10.668830 92.416 56.4722
10.746141 92.438 56.0823
10.824012 92.460 55.6939
10.902447 92.483 55.3059
10.981451 92.506 54.9171
11.061027 92.530 54.5264
11.141180 92.553 54.1334
11.221913 92.577 53.7376
11.303232 92.601 53.3385
11.385140 92.625 52.9362
11.467641 92.648 52.5306
11.550741 92.671 52.1223
11.634442 92.693 51.7119
11.718750 92.715 51.3000
11.803669 92.735 50.8876
11.889203 92.755 50.4755
11.975357 92.774 50.0646
12.062136 92.792 49.6559
12.149543 92.809 49.2501
12.237583 92.826 48.8478
12.326262 92.842 48.4493
12.415583 92.858 48.0550
12.505552 92.874 47.6647
12.596172 92.890 47.2781
12.687449 92.906 46.8948
12.779387 92.921 46.5140
12.871992 92.938 46.1349
12.965268 92.954 45.7566
13.059220 92.971 45.3781
13.153852 92.987 44.9987
13.249170 93.004 44.6176
13.345179 93.020 44.2343
13.441884 93.036 43.8488
13.539289 93.052 43.4612
13.637401 93.066 43.0720
13.736223 93.080 42.6820
13.835761 93.092 42.2923
13.936021 93.104 41.9044
14.037007 93.114 41.5195
14.138725 93.123 41.1394
14.241180 93.131 40.7654
14.344377 93.138 40.3988
14.448323 93.145 40.0406
14.553021 93.152 39.6910
14.658478 93.158 39.3502
14.764700 93.165 39.0175
14.871691 93.173 38.6918
14.979457 93.181 38.3712
15.088005 93.191 38.0537
15.197339 93.202 37.7370
15.307465 93.214 37.4184
15.418389 93.227 37.0955
15.530117 93.241 36.7662
15.642655 93.255 36.4291
15.756008 93.269 36.0831
15.870182 93.283 35.7282
15.985184 93.295 35.3652
16.101019 93.306 34.9956
16.217694 93.315 34.6220
16.335214 93.322 34.2472
16.453586 93.326 33.8748
16.572815 93.329 33.5082
16.692909 93.330 33.1508
16.813872 93.330 32.8054
16.935713 93.328 32.4742
17.058436 93.327 32.1582
17.182048 93.326 31.8574
17.306556 93.326 31.5703
17.431967 93.329 31.2944
17.558286 93.333 31.0262
17.685521 93.341 30.7613
17.813677 93.350 30.4950
17.942762 93.363 30.2226
18.072783 93.377 29.9400
18.203746 93.393 29.6439
18.335658 93.410 29.3320
18.468526 93.428 29.0036
18.602356 93.444 28.6592
18.737156 93.459 28.3007
18.872934 93.473 27.9310
19.009695 93.484 27.5538
19.147447 93.494 27.1731
19.286197 93.501 26.7928
19.425953 93.506 26.4167
19.566721 93.509 26.0477
19.708510 93.511 25.6876
19.851326 93.513 25.3376
19.995177 93.514 24.9977
20.140070 93.515 24.6672
20.286013 93.517 24.3450
20.433014 93.519 24.0297
20.581080 93.522 23.7198
20.730219 93.525 23.4146
20.880439 93.529 23.1134
21.031747 93.533 22.8163
21.184152 93.537 22.5233
21.337661 93.541 22.2352
21.492282 93.546 21.9520
21.648024 93.551 21.6738
21.804895 93.557 21.3998
21.962902 93.564 21.1285
22.122054 93.572 20.8578
22.282360 93.582 20.5852
22.443827 93.592 20.3079
22.606464 93.603 20.0234
22.770280 93.614 19.7301
22.935283 93.624 19.4271
23.101481 93.633 19.1152
23.268884 93.641 18.7962
23.437500 93.646 18.4730
23.607338 93.648 18.1494
23.778406 93.648 17.8295
23.950714 93.646 17.5172
24.124271 93.642 17.2158
24.299086 93.636 16.9277
24.475167 93.629 16.6539
24.652524 93.621 16.3945
24.831166 93.614 16.1484
25.011103 93.606 15.9141
25.192344 93.600 15.6893
25.374898 93.594 15.4719
25.558775 93.589 15.2595
25.743984 93.585 15.0502
25.930536 93.582 14.8419
26.118439 93.579 14.6327
26.307704 93.577 14.4208
26.498341 93.576 14.2043
26.690359 93.574 13.9819
26.883768 93.573 13.7526
27.078579 93.571 13.5164
27.274801 93.568 13.2739
27.472446 93.563 13.0273
27.671522 93.558 12.7792
27.872042 93.550 12.5323
28.074014 93.542 12.2894
28.277450 93.533 12.0522
28.482360 93.523 11.8212
28.688755 93.514 11.5955
28.896645 93.504 11.3728
29.106042 93.496 11.1506
29.316957 93.488 10.9264
29.529400 93.480 10.6987
29.743382 93.471 10.4674
29.958915 93.462 10.2339
30.176009 93.452 10.0007
30.394677 93.441 9.7708
30.614929 93.429 9.5466
30.836778 93.417 9.3295
31.060234 93.405 9.1193
31.285309 93.394 8.9142
31.512015 93.384 8.7116
31.740364 93.375 8.5087
31.970368 93.366 8.3032
32.202039 93.358 8.0936
32.435388 93.350 7.8799
32.670428 93.341 7.6627
32.907171 93.331 7.4437
33.145630 93.321 7.2244
33.385817 93.310 7.0065
33.627745 93.299 6.7919
33.871425 93.286 6.5822
34.116871 93.273 6.3790
34.364096 93.260 6.1833
34.613113 93.247 5.9956
34.863934 93.234 5.8151
35.116572 93.222 5.6395
35.371041 93.212 5.4656
35.627354 93.202 5.2900
35.885525 93.194 5.1099
36.145566 93.185 4.9243
36.407492 93.176 4.7337
36.671316 93.167 4.5399
36.937051 93.156 4.3450
37.204712 93.146 4.1503
37.474313 93.135 3.9553
37.745867 93.125 3.7589
38.019389 93.114 3.5593
38.294893 93.103 3.3561
38.572394 93.091 3.1509
38.851905 93.078 2.9471
39.133442 93.064 2.7491
39.417019 93.049 2.5601
39.702651 93.035 2.3806
39.990353 93.022 2.2085
40.280140 93.011 2.0389
40.572026 93.002 1.8666
40.866028 92.994 1.6874
41.162160 92.987 1.4998
41.460438 92.979 1.3051
41.760877 92.971 1.1061
42.063494 92.962 0.9064
42.368303 92.952 0.7082
42.675322 92.942 0.5125
42.984565 92.931 0.3188
43.296048 92.920 0.1268
43.609789 92.907 -0.0629
43.925804 92.892 -0.2473
44.244108 92.875 -0.4203
44.564719 92.855 -0.5745
44.887654 92.835 -0.7029
45.212928 92.814 -0.8022
45.540560 92.796 -0.8755
45.870565 92.781 -0.9327
46.202962 92.770 -0.9873
46.537768 92.762 -1.0527
46.875000 92.755 -1.1375
47.214676 92.749 -1.2430
47.556813 92.741 -1.3658
47.901429 92.731 -1.5002
48.248542 92.720 -1.6422
48.598171 92.706 -1.7898
48.950334 92.691 -1.9412
49.305048 92.674 -2.0933
49.662333 92.656 -2.2410
50.022206 92.636 -2.3804
50.384688 92.617 -2.5105
50.749796 92.598 -2.6347
51.117550 92.581 -2.7567
51.487969 92.563 -2.8772
51.861072 92.545 -2.9918
52.236879 92.528 -3.0940
52.615409 92.511 -3.1809
52.996681 92.497 -3.2561
53.380717 92.485 -3.3276
53.767536 92.475 -3.4028
54.157158 92.466 -3.4834
54.549603 92.458 -3.5669
54.944892 92.449 -3.6514
55.343045 92.442 -3.7403
55.744084 92.436 -3.8419
56.148028 92.429 -3.9634
56.554900 92.420 -4.1050
56.964720 92.407 -4.2593
57.377510 92.391 -4.4164
57.793291 92.372 -4.5697
58.212085 92.352 -4.7189
58.633914 92.332 -4.8667
59.058799 92.310 -5.0147
59.486764 92.288 -5.1606
59.917829 92.265 -5.2998
60.352019 92.242 -5.4294
60.789354 92.221 -5.5499
61.229859 92.202 -5.6655
61.673556 92.185 -5.7803
62.120468 92.169 -5.8964
62.570618 92.153 -6.0114
63.024031 92.137 -6.1195
63.480729 92.121 -6.2156
63.940736 92.107 -6.2980
64.404077 92.094 -6.3705
64.870776 92.082 -6.4404
65.340856 92.072 -6.5135
65.814343 92.062 -6.5917
66.291261 92.052 -6.6729
66.771635 92.041 -6.7561
67.255489 92.031 -6.8433
67.742850 92.020 -6.9383
68.233743 92.008 -7.0435
68.728193 91.996 -7.1579
69.226226 91.982 -7.2801
69.727867 91.967 -7.4110
70.233144 91.951 -7.5522
70.742083 91.931 -7.7001
71.254709 91.907 -7.8419
71.771050 91.880 -7.9611
72.291132 91.851 -8.0475
72.814984 91.824 -8.1042
73.342631 91.800 -8.1433
73.874102 91.778 -8.1763
74.409424 91.759 -8.2083
74.948626 91.740 -8.2413
75.491734 91.723 -8.2788
76.038779 91.707 -8.3254
76.589787 91.690 -8.3827
77.144788 91.672 -8.4470
77.703811 91.652 -8.5125
78.266885 91.631 -8.5752
78.834039 91.609 -8.6342
79.405303 91.587 -8.6892
79.980706 91.564 -8.7396
80.560280 91.541 -8.7855
81.144053 91.519 -8.8281
81.732056 91.497 -8.8696
82.324320 91.476 -8.9127
82.920876 91.456 -8.9583
83.521755 91.436 -9.0057
84.126988 91.416 -9.0522
84.736607 91.396 -9.0947
85.350643 91.378 -9.1315
85.969129 91.360 -9.1630
86.592097 91.343 -9.1918
87.219579 91.327 -9.2225
87.851608 91.311 -9.2593
88.488217 91.295 -9.3027
89.129439 91.276 -9.3495
89.775308 91.255 -9.3951
90.425856 91.233 -9.4368
91.081119 91.209 -9.4721
91.741131 91.184 -9.4987
92.405925 91.160 -9.5172
93.075536 91.138 -9.5335
93.750000 91.118 -9.5551
94.429351 91.100 -9.5851
95.113625 91.083 -9.6216
95.802858 91.067 -9.6622
96.497085 91.052 -9.7062
97.196342 91.037 -9.7531
97.900667 91.022 -9.7997
98.610096 91.006 -9.8409
99.324665 90.989 -9.8740
100.044413 90.972 -9.9012
100.769376 90.953 -9.9258
101.499592 90.934 -9.9468
102.235100 90.913 -9.9601
102.975938 90.892 -9.9637
103.722144 90.871 -9.9615
104.473757 90.852 -9.9598
105.230817 90.832 -9.9622
105.993363 90.813 -9.9679
106.761435 90.794 -9.9748
107.535072 90.776 -9.9819
108.314315 90.757 -9.9904
109.099206 90.739 -10.0015
109.889783 90.721 -10.0151
110.686090 90.703 -10.0294
111.488167 90.684 -10.0422
112.296056 90.665 -10.0532
113.109800 90.647 -10.0634
113.929440 90.629 -10.0743
114.755020 90.611 -10.0873
115.586582 90.593 -10.1023
116.424170 90.574 -10.1201
117.267827 90.556 -10.1420
118.117598 90.537 -10.1685
118.973527 90.516 -10.1949
119.835658 90.494 -10.2116
120.704037 90.472 -10.2098
121.578708 90.450 -10.1884
122.459718 90.430 -10.1520
123.347111 90.412 -10.1078
124.240935 90.395 -10.0621
125.141236 90.379 -10.0186
126.048061 90.363 -9.9769
126.961458 90.348 -9.9351
127.881473 90.332 -9.8909
128.808154 90.317 -9.8439
129.741551 90.303 -9.7953
130.681712 90.289 -9.7463
131.628686 90.276 -9.6980
132.582521 90.262 -9.6508
133.543269 90.246 -9.6041
134.510979 90.229 -9.5565
135.485701 90.209 -9.5062
136.467486 90.187 -9.4522
137.456386 90.165 -9.3936
138.452451 90.142 -9.3312
139.455735 90.121 -9.2697
140.466288 90.103 -9.2174
141.484165 90.086 -9.1809
142.509418 90.070 -9.1609
143.542100 90.054 -9.1523
144.582265 90.036 -9.1470
145.629968 90.018 -9.1379
146.685262 90.000 -9.1218
147.748204 89.982 -9.0981
148.818849 89.965 -9.0680
149.897251 89.948 -9.0330
150.983469 89.932 -8.9948
152.077557 89.917 -8.9547
153.179574 89.902 -8.9139
154.289576 89.887 -8.8722
155.407622 89.873 -8.8284
156.533770 89.859 -8.7814
157.668078 89.846 -8.7306
158.810606 89.832 -8.6755
159.961413 89.817 -8.6165
161.120559 89.802 -8.5540
162.288105 89.786 -8.4893
163.464112 89.768 -8.4237
164.648640 89.751 -8.3588
165.841752 89.733 -8.2969
167.043510 89.716 -8.2400
168.253976 89.699 -8.1893
169.473213 89.683 -8.1440
170.701286 89.667 -8.1014
171.938258 89.651 -8.0582
173.184194 89.635 -8.0111
174.439158 89.618 -7.9570
175.703216 89.601 -7.8933
176.976434 89.584 -7.8190
178.258878 89.567 -7.7357
179.550615 89.551 -7.6493
180.851713 89.536 -7.5670
182.162239 89.522 -7.4931
183.482262 89.507 -7.4265
184.811850 89.491 -7.3618
186.151073 89.475 -7.2921
187.500000 89.458 -7.2129
188.858702 89.441 -7.1226
190.227250 89.425 -7.0225
191.605715 89.410 -6.9180
192.994169 89.397 -6.8165
194.392685 89.385 -6.7230
195.801334 89.374 -6.6381
197.220191 89.364 -6.5564
198.649330 89.353 -6.4690
200.088825 89.340 -6.3681
201.538751 89.325 -6.2510
202.999184 89.308 -6.1183
204.470200 89.290 -5.9722
205.951875 89.269 -5.8174
207.444287 89.248 -5.6600
208.947514 89.227 -5.5028
210.461634 89.206 -5.3422
211.986726 89.186 -5.1693
213.522869 89.167 -4.9747
215.070144 89.151 -4.7521
216.628631 89.139 -4.5004
218.198411 89.131 -4.2240
219.779567 89.128 -3.9324
221.372180 89.131 -3.6398
222.976334 89.141 -3.3638
224.592112 89.158 -3.1219
226.219600 89.181 -2.9257
227.858880 89.208 -2.7784
229.510039 89.237 -2.6755
231.173164 89.265 -2.6099
232.848340 89.291 -2.5769
234.535655 89.314 -2.5742
236.235197 89.332 -2.5984
237.947054 89.345 -2.6420
239.671317 89.354 -2.6951
241.408074 89.359 -2.7495
243.157416 89.361 -2.8000
244.919435 89.360 -2.8430
246.694223 89.356 -2.8762
248.481871 89.350 -2.8986
250.282473 89.343 -2.9099
252.096123 89.334 -2.9113
253.922915 89.324 -2.9041
255.762945 89.314 -2.8890
257.616309 89.303 -2.8665
259.483103 89.293 -2.8373
261.363424 89.282 -2.8026
263.257372 89.270 -2.7632
265.165043 89.258 -2.7202
267.086538 89.247 -2.6746
269.021957 89.236 -2.6281
270.971401 89.225 -2.5823
272.934972 89.214 -2.5363
274.912771 89.203 -2.4863
276.904902 89.191 -2.4272
278.911469 89.179 -2.3546
280.932577 89.167 -2.2678
282.968330 89.155 -2.1717
285.018835 89.144 -2.0739
287.084199 89.136 -1.9819
289.164530 89.131 -1.9000
291.259935 89.127 -1.8262
293.370525 89.124 -1.7556
295.496408 89.120 -1.6841
297.637697 89.116 -1.6096
299.794503 89.111 -1.5309
301.966937 89.106 -1.4476
304.155114 89.100 -1.3607
306.359147 89.093 -1.2715
308.579152 89.087 -1.1810
310.815244 89.080 -1.0900
313.067539 89.073 -0.9990
315.336156 89.067 -0.9083
317.621211 89.060 -0.8182
319.922826 89.055 -0.7293
322.241118 89.050 -0.6423
324.576210 89.044 -0.5577
326.928223 89.039 -0.4749
329.297280 89.034 -0.3918
331.683504 89.028 -0.3074
334.087019 89.022 -0.2214
336.507952 89.017 -0.1351
338.946427 89.011 -0.0491
341.402572 89.005 0.0369
343.876516 89.000 0.1235
346.368387 88.995 0.2110
348.878315 88.991 0.2992
351.406431 88.988 0.3879
353.952867 88.984 0.4772
356.517756 88.981 0.5670
359.101230 88.977 0.6577
361.703426 88.973 0.7502
364.324478 88.969 0.8454
366.964523 88.964 0.9429
369.623699 88.959 1.0411
372.302145 88.954 1.1385
375.000000 88.949 1.2338
377.717405 88.944 1.3267
380.454501 88.940 1.4179
383.211431 88.936 1.5095
385.988339 88.932 1.6039
388.785369 88.928 1.7023
391.602668 88.924 1.8040
394.440383 88.919 1.9073
397.298660 88.915 2.0108
400.177650 88.911 2.1138
403.077502 88.907 2.2162
405.998368 88.903 2.3177
408.940400 88.899 2.4189
411.903750 88.895 2.5203
414.888575 88.891 2.6226
417.895028 88.888 2.7265
420.923268 88.884 2.8323
423.973452 88.880 2.9394
427.045738 88.876 3.0466
430.140287 88.872 3.1523
433.257261 88.869 3.2556
436.396822 88.865 3.3575
439.559133 88.861 3.4597
442.744360 88.857 3.5634
445.952668 88.852 3.6689
449.184225 88.848 3.7764
452.439199 88.844 3.8853
455.717760 88.840 3.9955
459.020079 88.836 4.1063
462.346327 88.832 4.2175
465.696680 88.828 4.3292
469.071310 88.823 4.4419
472.470394 88.819 4.5566
475.894109 88.815 4.6744
479.342634 88.810 4.7958
482.816148 88.805 4.9208
486.314833 88.800 5.0494
489.838871 88.796 5.1810
493.388445 88.792 5.3151
496.963741 88.788 5.4515
500.564945 88.784 5.5907
504.192245 88.781 5.7331
507.845830 88.778 5.8790
511.525890 88.776 6.0280
515.232618 88.774 6.1790
518.966206 88.773 6.3302
522.726849 88.773 6.4796
526.514743 88.773 6.6257
530.330086 88.774 6.7681
534.173076 88.776 6.9067
538.043915 88.777 7.0419
541.942803 88.778 7.1736
545.869944 88.779 7.3027
549.825542 88.779 7.4307
553.809805 88.778 7.5588
557.822939 88.777 7.6877
561.865154 88.776 7.8175
565.936660 88.775 7.9486
570.037671 88.773 8.0819
574.168399 88.772 8.2179
578.329060 88.770 8.3564
582.519870 88.768 8.4971
586.741049 88.767 8.6402
590.992817 88.765 8.7853
595.275394 88.763 8.9317
599.589005 88.762 9.0792
603.933874 88.760 9.2275
608.310228 88.759 9.3762
612.718295 88.757 9.5248
617.158304 88.755 9.6746
621.630488 88.751 9.8292
626.135079 88.748 9.9932
630.672311 88.745 10.1674
635.242423 88.744 10.3472
639.845651 88.744 10.5255
644.482237 88.744 10.6982
649.152421 88.743 10.8673
653.856447 88.743 11.0384
658.594560 88.742 11.2156
663.367008 88.742 11.3979
668.174039 88.744 11.5815
673.015903 88.746 11.7648
677.892854 88.748 11.9512
682.805145 88.749 12.1462
687.753032 88.751 12.3529
692.736774 88.752 12.5680
697.756631 88.754 12.7839
702.812863 88.756 12.9943
707.905735 88.759 13.1992
713.035511 88.762 13.4049
718.202461 88.765 13.6187
723.406852 88.768 13.8417
728.648956 88.771 14.0691
733.929047 88.775 14.2958
739.247399 88.780 14.5221
744.604290 88.785 14.7537
750.000000 88.792 14.9940
755.434809 88.797 15.2407
760.909001 88.802 15.4885
766.422861 88.807 15.7358
771.976677 88.813 15.9867
777.570739 88.821 16.2466
783.205337 88.830 16.5165
788.880766 88.840 16.7914
794.597321 88.851 17.0649
800.355301 88.862 17.3333
806.155005 88.875 17.5978
811.996736 88.888 17.8623
817.880799 88.903 18.1305
823.807501 88.920 18.4041
829.777150 88.938 18.6828
835.790057 88.957 18.9653
841.846536 88.977 19.2497
847.946903 88.998 19.5337
854.091476 89.020 19.8153
860.280575 89.043 20.0941
866.514523 89.067 20.3717
872.793644 89.094 20.6498
879.118267 89.122 20.9288
885.488720 89.151 21.2069
891.905336 89.182 21.4817
898.368450 89.213 21.7524
904.878398 89.246 22.0195
911.435520 89.280 22.2838
918.040157 89.315 22.5453
924.692655 89.351 22.8038
931.393359 89.388 23.0591
938.142619 89.426 23.3112
944.940787 89.464 23.5590
951.788218 89.504 23.8013
958.685268 89.545 24.0369
965.632296 89.587 24.2655
972.629666 89.630 24.4873
979.677741 89.675 24.7022
986.776890 89.721 24.9095
993.927482 89.767 25.1088
1001.129891 89.815 25.2999
1008.384491 89.863 25.4834
1015.691660 89.912 25.6592
1023.051781 89.962 25.8268
1030.465236 90.012 25.9852
1037.932411 90.062 26.1335
1045.453698 90.113 26.2719
1053.029486 90.165 26.4003
1060.660172 90.217 26.5188
1068.346153 90.269 26.6273
1076.087829 90.322 26.7256
1083.885605 90.375 26.8135
1091.739887 90.429 26.8907
1099.651084 90.482 26.9573
1107.619609 90.535 27.0133
1115.645878 90.589 27.0599
1123.730308 90.642 27.0980
1131.873321 90.694 27.1282
1140.075341 90.746 27.1502
1148.336797 90.797 27.1631
1156.658119 90.848 27.1663
1165.039741 90.897 27.1602
1173.482099 90.946 27.1460
1181.985634 90.994 27.1259
1190.550789 91.042 27.1011
1199.178011 91.089 27.0718
1207.867749 91.134 27.0376
1216.620457 91.180 26.9976
1225.436590 91.224 26.9509
1234.316609 91.267 26.8981
1243.260976 91.310 26.8398
1252.270157 91.351 26.7773
1261.344623 91.392 26.7115
1270.484846 91.432 26.6429
1279.691303 91.471 26.5719
1288.964474 91.509 26.4985
1298.304842 91.546 26.4233
1307.712894 91.582 26.3467
1317.189120 91.617 26.2693
1326.734016 91.651 26.1918
1336.348077 91.684 26.1144
1346.031806 91.716 26.0375
1355.785708 91.748 25.9606
1365.610290 91.779 25.8837
1375.506065 91.809 25.8064
1385.473549 91.839 25.7292
1395.513261 91.869 25.6527
1405.625726 91.898 25.5774
1415.811469 91.927 25.5038
1426.071023 91.955 25.4318
1436.404921 91.984 25.3612
1446.813703 92.012 25.2917
1457.297912 92.039 25.2233
1467.858093 92.067 25.1562
1478.494798 92.094 25.0914
1489.208581 92.121 25.0294
1500.000000 92.147 24.9701
1510.869618 92.173 24.9126
1521.818002 92.200 24.8563
1532.845723 92.226 24.8010
1543.953355 92.251 24.7467
1555.141477 92.277 24.6942
1566.410674 92.303 24.6437
1577.761531 92.329 24.5948
1589.194642 92.356 24.5475
1600.710601 92.382 24.5012
1612.310010 92.408 24.4559
1623.993473 92.434 24.4117
1635.761599 92.461 24.3684
1647.615002 92.488 24.3261
1659.554299 92.514 24.2847
1671.580114 92.541 24.2441
1683.693072 92.569 24.2044
1695.893807 92.596 24.1652
1708.182952 92.624 24.1262
1720.561150 92.652 24.0868
1733.029045 92.681 24.0468
1745.587288 92.710 24.0060
1758.236533 92.739 23.9647
1770.977440 92.769 23.9231
1783.810673 92.800 23.8806
1796.736900 92.831 23.8366
1809.756796 92.862 23.7909
1822.871040 92.895 23.7433
1836.080315 92.928 23.6940
1849.385310 92.961 23.6428
1862.786718 92.995 23.5895
1876.285239 93.030 23.5339
1889.881575 93.065 23.4756
1903.576436 93.100 23.4147
1917.370535 93.136 23.3507
1931.264593 93.173 23.2837
1945.259332 93.210 23.2133
1959.355483 93.248 23.1392
1973.553781 93.286 23.0609
1987.854965 93.325 22.9781
2002.259781 93.365 22.8907
2016.768981 93.405 22.7983
2031.383320 93.445 22.7008
2046.103561 93.486 22.5979
2060.930471 93.527 22.4893
2075.864823 93.569 22.3746
2090.907395 93.611 22.2538
2106.058972 93.654 22.1267
2121.320344 93.697 21.9930
2136.692305 93.740 21.8527
2152.175658 93.783 21.7051
2167.771210 93.827 21.5503
2183.479774 93.871 21.3879
2199.302169 93.915 21.2178
2215.239219 93.959 21.0397
2231.291755 94.003 20.8533
2247.460615 94.047 20.6585
2263.746641 94.092 20.4551
2280.150683 94.136 20.2430
2296.673595 94.181 20.0220
2313.316238 94.225 19.7918
2330.079481 94.269 19.5521
2346.964198 94.314 19.3026
2363.971268 94.358 19.0433
2381.101578 94.402 18.7739
2398.356022 94.445 18.4944
2415.735498 94.488 18.2047
2433.240913 94.531 17.9045
2450.873180 94.573 17.5939
2468.633217 94.614 17.2726
2486.521951 94.655 16.9408
2504.540314 94.694 16.5985
2522.689246 94.733 16.2459
2540.969692 94.771 15.8829
2559.382606 94.807 15.5097
2577.928947 94.842 15.1263
2596.609683 94.876 14.7333
2615.425787 94.909 14.3308
2634.378241 94.940 13.9193
2653.468031 94.969 13.4993
2672.696154 94.997 13.0709
2692.063613 95.023 12.6346
2711.571415 95.047 12.1909
2731.220579 95.069 11.7405
2751.012130 95.089 11.2842
2770.947098 95.107 10.8226
2791.026522 95.122 10.3566
2811.251451 95.136 9.8867
2831.622938 95.147 9.4139
2852.142045 95.155 8.9388
2872.809842 95.162 8.4626
2893.627406 95.165 7.9860
2914.595823 95.167 7.5100
2935.716186 95.166 7.0354
2956.989596 95.162 6.5632
2978.417161 95.156 6.0947
3000.000000 95.148 5.6310
3021.739237 95.137 5.1731
3043.636005 95.125 4.7220
3065.691446 95.110 4.2787
3087.906710 95.093 3.8439
3110.282955 95.075 3.4182
3132.821347 95.055 3.0023
3155.523062 95.033 2.5966
3178.389283 95.009 2.2017
3201.421202 94.984 1.8177
3224.620020 94.958 1.4451
3247.986946 94.930 1.0837
3271.523198 94.901 0.7340
3295.230004 94.871 0.3960
3319.108599 94.840 0.0699
3343.160228 94.808 -0.2438
3367.386145 94.775 -0.5448
3391.787613 94.741 -0.8327
3416.365904 94.706 -1.1068
3441.122300 94.670 -1.3662
3466.058091 94.633 -1.6102
3491.174576 94.596 -1.8379
3516.473066 94.557 -2.0481
3541.954880 94.518 -2.2400
3567.621345 94.479 -2.4124
3593.473800 94.439 -2.5643
3619.513592 94.399 -2.6948
3645.742080 94.360 -2.8027
3672.160630 94.320 -2.8875
3698.770620 94.282 -2.9485
3725.573436 94.245 -2.9857
3752.570477 94.209 -2.9987
3779.763150 94.175 -2.9882
3807.152872 94.143 -2.9548
3834.741071 94.115 -2.9003
3862.529185 94.089 -2.8269
3890.518664 94.067 -2.7376
3918.710966 94.049 -2.6360
3947.107561 94.035 -2.5255
3975.709929 94.024 -2.4095
4004.519563 94.016 -2.2905
4033.537962 94.012 -2.1700
4062.766641 94.010 -2.0485
4092.207123 94.011 -1.9253
4121.860942 94.014 -1.7994
4151.729646 94.020 -1.6698
4181.814790 94.028 -1.5356
4212.117944 94.038 -1.3964
4242.640687 94.052 -1.2520
4273.384610 94.069 -1.1030
4304.351317 94.090 -0.9507
4335.542421 94.115 -0.7969
4366.959549 94.145 -0.6439
4398.604338 94.180 -0.4948
4430.478438 94.220 -0.3525
4462.583511 94.265 -0.2212
4494.921231 94.316 -0.1051
4527.493283 94.372 -0.0099
4560.301365 94.435 0.0584
4593.347189 94.503 0.0928
4626.632476 94.576 0.0857
4660.158962 94.655 0.0291
4693.928395 94.739 -0.0853
4727.942535 94.826 -0.2662
4762.203156 94.916 -0.5214
4796.712043 95.006 -0.8578
4831.470996 95.095 -1.2803
4866.481826 95.180 -1.7910
4901.746360 95.260 -2.3888
4937.266434 95.331 -3.0690
4973.043902 95.392 -3.8228
5009.080628 95.439 -4.6378
5045.378492 95.473 -5.4988
5081.939384 95.491 -6.3882
5118.765212 95.494 -7.2878
5155.857894 95.482 -8.1807
5193.219366 95.457 -9.0510
5230.851574 95.419 -9.8868
5268.756481 95.371 -10.6790
5306.936062 95.315 -11.4226
5345.392309 95.253 -12.1163
5384.127225 95.186 -12.7621
5423.142830 95.116 -13.3639
5462.441159 95.044 -13.9277
5502.024259 94.971 -14.4602
5541.894195 94.898 -14.9690
5582.053045 94.826 -15.4617
5622.502902 94.753 -15.9459
5663.245876 94.680 -16.4293
5704.284090 94.607 -16.9195
5745.619684 94.532 -17.4237
5787.254813 94.456 -17.9489
5829.191647 94.376 -18.5018
5871.432373 94.293 -19.0883
5913.979192 94.203 -19.7131
5956.834323 94.104 -20.3799
6000.000000 93.995 -21.0895
6043.478473 93.873 -21.8389
6087.272010 93.733 -22.6201
6131.382892 93.574 -23.4188
6175.813420 93.390 -24.2130
6220.565910 93.181 -24.9724
6265.642695 92.943 -25.6581
6311.046124 92.675 -26.2234
6356.778566 92.379 -26.6155
6402.842404 92.058 -26.7803
6449.240040 91.717 -26.6669
6495.973891 91.366 -26.2341
6543.046396 91.014 -25.4584
6590.460007 90.673 -24.3381
6638.217197 90.355 -22.8972
6686.320456 90.071 -21.1828
6734.772290 89.829 -19.2597
6783.575226 89.633 -17.2014
6832.731809 89.484 -15.0807
6882.244600 89.381 -12.9616
6932.116181 89.320 -10.8944
6982.349153 89.296 -8.9139
7032.946133 89.304 -7.0405
7083.909760 89.339 -5.2828
7135.242690 89.398 -3.6416
7186.947600 89.478 -2.1133
7239.027185 89.579 -0.6941
7291.484160 89.700 0.6141
7344.321260 89.843 1.7964
7397.541239 90.009 2.8196
7451.146872 90.194 3.6353
7505.140954 90.390 4.1990
7559.526299 90.587 4.4974
7614.305743 90.777 4.5583
7669.482141 90.953 4.4323
7725.058371 91.116 4.1637
7781.037328 91.266 3.7781
7837.421932 91.405 3.2836
7894.215122 91.533 2.6796
7951.419859 91.648 1.9650
8009.039125 91.747 1.1433
8067.075924 91.827 0.2247
8125.533282 91.886 -0.7729
8184.414245 91.921 -1.8243
8243.721885 91.930 -2.8977
8303.459292 91.913 -3.9569
8363.629581 91.870 -4.9628
8424.235888 91.804 -5.8763
8485.281374 91.719 -6.6628
8546.769221 91.623 -7.2969
8608.702634 91.522 -7.7714
8671.084842 91.424 -8.1041
8733.919097 91.334 -8.3391
8797.208675 91.252 -8.5302
8860.956876 91.170 -8.7074
8925.167022 91.081 -8.8481
8989.842461 90.981 -8.8855
9054.986566 90.873 -8.7504
9120.602731 90.768 -8.4047
9186.694378 90.676 -7.8488
9253.264952 90.607 -7.1113
9320.317925 90.567 -6.2350
9387.856790 90.560 -5.2676
9455.885071 90.589 -4.2571
9524.406312 90.657 -3.2521
9593.424086 90.763 -2.3056
9662.941992 90.907 -1.4803
9732.963653 91.086 -0.8513
9803.492719 91.292 -0.4995
9874.532869 91.511 -0.4913
9946.087805 91.726 -0.8505
10018.161257 91.920 -1.5437
10090.756983 92.083 -2.5015
10163.878768 92.212 -3.6536
10237.530423 92.305 -4.9495
10311.715789 92.361 -6.3552
10386.438732 92.378 -7.8436
10461.703149 92.356 -9.3851
10537.512962 92.291 -10.9443
10613.872125 92.181 -12.4809
10690.784618 92.028 -13.9514
10768.254450 91.832 -15.3119
10846.285661 91.595 -16.5214
10924.882318 91.321 -17.5427
11004.048518 91.015 -18.3451
11083.788390 90.681 -18.9048
11164.106090 90.325 -19.2058
11245.005805 89.952 -19.2399
11326.491752 89.569 -19.0061
11408.568180 89.180 -18.5098
11491.239368 88.790 -17.7611
11574.509626 88.404 -16.7737
11658.383294 88.025 -15.5632
11742.864745 87.656 -14.1467
11827.958384 87.300 -12.5417
11913.668646 86.959 -10.7657
12000.000000 86.635 -8.8364
12086.956947 86.330 -6.7707
12174.544019 86.046 -4.5857
12262.765784 85.783 -2.2977
12351.626840 85.542 0.0776
12441.131819 85.325 2.5252
12531.285389 85.131 5.0315
12622.092249 84.962 7.5835
12713.557132 84.820 10.1688
12805.684808 84.704 12.7743
12898.480079 84.618 15.3864
12991.947783 84.561 17.9905
13086.092792 84.536 20.5709
13180.920015 84.544 23.1105
13276.434395 84.585 25.5905
13372.640911 84.662 27.9905
13469.544580 84.775 30.2893
13567.150452 84.924 32.4652
13665.463617 85.110 34.4972
13764.489200 85.330 36.3655
13864.232362 85.586 38.0525
13964.698305 85.873 39.5435
14065.892266 86.191 40.8272
14167.819519 86.538 41.8947
14270.485380 86.910 42.7383
14373.895200 87.307 43.3497
14478.054370 87.725 43.7204
14582.968320 88.163 43.8412
14688.642520 88.617 43.7029
14795.082478 89.084 43.2952
14902.293745 89.560 42.6076
15010.281908 90.041 41.6284
15119.052599 90.521 40.3456
15228.611486 90.993 38.7485
15338.964283 91.450 36.8305
15450.116741 91.882 34.5922
15562.074656 92.279 32.0453
15674.843864 92.632 29.2157
15788.430244 92.933 26.1447
15902.839718 93.173 22.8865
16018.078250 93.349 19.5026
16134.151848 93.462 16.0503
16251.066563 93.512 12.5729
16368.828491 93.503 9.0929
16487.443769 93.435 5.6166
16606.918584 93.305 2.1494
16727.259161 93.107 -1.2880
16848.471777 92.834 -4.6497
16970.562748 92.483 -7.8683
17093.538442 92.053 -10.8660
17217.405268 91.548 -13.5667
17342.169684 90.975 -15.9043
17467.838194 90.343 -17.8270
17594.417350 89.664 -19.2969
17721.913751 88.950 -20.2910
17850.334044 88.216 -20.8055
17979.684923 87.477 -20.8633
18109.973131 86.751 -20.5211
18241.205462 86.055 -19.8708
18373.388756 85.405 -19.0367
18506.529905 84.813 -18.1663
18640.635849 84.286 -17.4184
18775.713581 83.827 -16.9487
18911.770141 83.430 -16.8921
19048.812624 83.082 -17.3448
19186.848172 82.769 -18.3483
19325.883983 82.472 -19.8770
19465.927305 82.179 -21.8307
19606.985439 81.891 -24.0267
19749.065738 81.624 -26.1937
19892.175609 81.412 -27.9785
20036.322514 81.292 -29.0038
