* Measurement data measured by REW V5.31
* Source: Headset (CX31993 HIFI AUDIO), MICROPHONE (Master Volume), R, volume: 0.600
* Format: 256k Log Swept Sine, 1 sweep at -12.0 dBFS with no timing reference
* Dated: Nov 17, 2024 12:08:38 PM
* REW Settings:
*  C-weighting compensation: Off
*  Target level: 75.0 dB
* Note: ; 
* Measurement: FatFreq x HBB Deuce Bass R
* Smoothing: 1/24 octave
* Frequency Step: 96 ppo
* Start Frequency: 20.141602 Hz
*
* Freq(Hz) SPL(dB) Phase(degrees)
20.141602 100.982 179.2080
20.287556 100.971 178.9134
20.434568 100.954 178.4970
20.582645 100.937 178.0400
20.731796 100.921 177.5770
20.882027 100.908 177.1162
21.033346 100.901 176.6566
21.185763 100.898 176.1926
21.339284 100.899 175.7178
21.493917 100.904 175.2282
21.649671 100.911 174.7215
21.806553 100.918 174.1983
21.964572 100.924 173.6640
22.123737 100.926 173.1249
22.284054 100.923 172.5898
22.445534 100.914 172.0696
22.608183 100.900 171.5731
22.772012 100.881 171.1094
22.937027 100.858 170.6835
23.103238 100.832 170.2969
23.270654 100.805 169.9478
23.439282 100.778 169.6288
23.609133 100.754 169.3299
23.780215 100.732 169.0384
23.952536 100.713 168.7403
24.126106 100.698 168.4236
24.300934 100.685 168.0771
24.477028 100.673 167.6945
24.654399 100.662 167.2727
24.833055 100.650 166.8130
25.013005 100.636 166.3208
25.194260 100.620 165.8038
25.376828 100.602 165.2726
25.560719 100.581 164.7374
25.745942 100.557 164.2099
25.932508 100.533 163.6994
26.120426 100.507 163.2146
26.309705 100.481 162.7614
26.500356 100.456 162.3433
26.692388 100.433 161.9605
26.885812 100.412 161.6101
27.080638 100.395 161.2856
27.276876 100.380 160.9773
27.474535 100.369 160.6732
27.673627 100.361 160.3600
27.874161 100.354 160.0244
28.076149 100.347 159.6559
28.279600 100.337 159.2478
28.484526 100.324 158.7988
28.690937 100.304 158.3141
28.898843 100.278 157.8038
29.108256 100.245 157.2833
29.319186 100.205 156.7684
29.531645 100.161 156.2744
29.745644 100.117 155.8127
29.961193 100.073 155.3882
30.178304 100.035 154.9987
30.396989 100.002 154.6360
30.617258 99.976 154.2879
30.839123 99.956 153.9415
31.062596 99.940 153.5871
31.287688 99.924 153.2197
31.514412 99.906 152.8399
31.742778 99.884 152.4526
31.972800 99.858 152.0644
32.204488 99.826 151.6799
32.437855 99.792 151.2998
32.672913 99.755 150.9194
32.909674 99.720 150.5300
33.148151 99.685 150.1205
33.388356 99.653 149.6822
33.630302 99.622 149.2111
33.874001 99.592 148.7104
34.119466 99.562 148.1895
34.366710 99.531 147.6620
34.615745 99.499 147.1436
34.866585 99.467 146.6464
35.119243 99.433 146.1781
35.373731 99.399 145.7401
35.630064 99.363 145.3287
35.888254 99.325 144.9365
36.148315 99.284 144.5550
36.410261 99.240 144.1767
36.674104 99.192 143.7968
36.939860 99.140 143.4133
37.207542 99.087 143.0277
37.477163 99.034 142.6432
37.748738 98.984 142.2634
38.022281 98.938 141.8909
38.297806 98.899 141.5251
38.575327 98.867 141.1621
38.854860 98.841 140.7963
39.136419 98.818 140.4227
39.420017 98.794 140.0406
39.705671 98.766 139.6557
39.993395 98.731 139.2789
40.283203 98.689 138.9213
40.575112 98.643 138.5880
40.869136 98.597 138.2708
41.165290 98.556 137.9468
41.463591 98.523 137.5857
41.764053 98.495 137.1596
42.066693 98.470 136.6570
42.371525 98.441 136.0914
42.678567 98.403 135.4989
42.987834 98.355 134.9252
43.299341 98.297 134.4106
43.613106 98.234 133.9766
43.929145 98.170 133.6193
44.247473 98.109 133.3134
44.568109 98.052 133.0246
44.891068 98.000 132.7229
45.216367 97.951 132.3892
45.544023 97.905 132.0157
45.874054 97.862 131.6030
46.206476 97.821 131.1587
46.541307 97.779 130.6977
46.878565 97.735 130.2421
47.218266 97.686 129.8168
47.560429 97.633 129.4394
47.905072 97.577 129.1092
48.252212 97.521 128.8054
48.601867 97.463 128.4971
48.954056 97.401 128.1624
49.308798 97.332 127.8025
49.666109 97.257 127.4399
50.026010 97.181 127.1019
50.388520 97.111 126.7971
50.753656 97.054 126.5050
51.121437 97.009 126.1868
51.491884 96.970 125.8127
51.865016 96.928 125.3849
52.240851 96.873 124.9375
52.619410 96.806 124.5143
53.000712 96.732 124.1380
53.384777 96.659 123.7945
53.771625 96.592 123.4425
54.161276 96.531 123.0443
54.553751 96.471 122.5957
54.949070 96.406 122.1332
55.347254 96.335 121.7126
55.748323 96.262 121.3722
56.152298 96.194 121.0993
56.559201 96.135 120.8254
56.969052 96.082 120.4590
57.381873 96.026 119.9419
57.797686 95.957 119.2958
58.216512 95.870 118.6243
58.638373 95.774 118.0628
59.063291 95.685 117.7020
59.491288 95.619 117.5331
59.922386 95.577 117.4601
60.356608 95.544 117.3772
60.793977 95.497 117.2421
61.234515 95.423 117.0780
61.678246 95.330 116.9082
62.125192 95.236 116.6892
62.575377 95.157 116.3144
63.028824 95.093 115.7038
63.485557 95.028 114.9071
63.945599 94.946 114.1280
64.408975 94.850 113.6364
64.875709 94.764 113.6067
65.345825 94.718 113.9786
65.819348 94.728 114.4497
66.296302 94.775 114.6536
66.776713 94.813 114.3954
67.260604 94.802 113.7378
67.748002 94.725 112.9042
68.238932 94.596 112.1095
68.733420 94.436 111.4666
69.231490 94.261 111.0182
69.733170 94.080 110.8158
70.238485 93.911 110.9071
70.747463 93.782 111.2147
71.260128 93.710 111.4833
71.776508 93.678 111.4345
72.296630 93.643 111.0017
72.820521 93.577 110.3673
73.348209 93.482 109.7781
73.879720 93.382 109.3418
74.415083 93.292 108.9996
74.954326 93.206 108.6652
75.497475 93.110 108.3464
76.044561 92.999 108.1216
76.595612 92.887 108.0252
77.150655 92.789 107.9821
77.709720 92.710 107.8684
78.272837 92.640 107.6302
78.840034 92.569 107.3237
79.411342 92.494 107.0403
79.986789 92.418 106.8205
80.566406 92.338 106.6418
81.150224 92.250 106.4647
81.738272 92.152 106.2634
82.330581 92.047 106.0251
82.927182 91.943 105.7581
83.528107 91.843 105.4990
84.133386 91.752 105.2860
84.743051 91.668 105.1158
85.357134 91.586 104.9439
85.975667 91.497 104.7312
86.598682 91.391 104.4857
87.226212 91.269 104.2538
87.858289 91.139 104.0744
88.494946 91.011 103.9427
89.136217 90.897 103.8175
89.782135 90.805 103.6482
90.432733 90.736 103.3950
91.088046 90.678 103.0631
91.748108 90.607 102.7451
92.412952 90.508 102.5683
93.082615 90.385 102.5617
93.757130 90.251 102.6199
94.436533 90.114 102.6410
95.120859 89.987 102.6409
95.810144 89.883 102.6740
96.504423 89.805 102.7087
97.203734 89.736 102.6546
97.908112 89.649 102.4807
98.617595 89.531 102.2637
99.332219 89.386 102.1430
100.052021 89.233 102.2457
100.777039 89.087 102.6103
101.507311 88.955 103.1266
102.242875 88.839 103.5624
102.983769 88.732 103.7001
103.730032 88.630 103.4697
104.481702 88.528 102.9665
105.238820 88.418 102.3748
106.001424 88.293 101.8778
106.769554 88.153 101.6085
107.543250 88.011 101.6254
108.322553 87.886 101.8934
109.107503 87.787 102.3020
109.898141 87.709 102.7306
110.694508 87.637 103.1078
111.496646 87.558 103.4371
112.304596 87.475 103.8038
113.118402 87.407 104.3590
113.938104 87.377 105.1584
114.763747 87.391 105.8839
115.595372 87.397 106.0094
116.433024 87.324 105.4433
117.276746 87.170 104.6609
118.126581 86.991 104.1671
118.982575 86.824 104.0831
119.844772 86.657 104.1637
120.713217 86.469 104.0764
121.587954 86.273 103.7633
122.469031 86.108 103.5027
123.356492 85.990 103.5626
124.250384 85.895 103.9315
125.150753 85.787 104.4074
126.057647 85.662 104.8371
126.971113 85.536 105.2125
127.891198 85.428 105.5843
128.817950 85.338 105.9782
129.751418 85.255 106.3791
130.691651 85.167 106.7432
131.638696 85.070 107.0467
132.592604 84.973 107.3248
133.553425 84.874 107.6209
134.521208 84.761 107.9193
135.496004 84.634 108.1367
136.477864 84.514 108.1818
137.466839 84.407 108.0930
138.462981 84.293 108.1029
139.466340 84.167 108.4432
140.476971 84.059 109.0228
141.494925 83.977 109.4693
142.520256 83.903 109.5554
143.553016 83.830 109.4279
144.593260 83.767 109.4154
145.641043 83.688 109.7384
146.696418 83.552 110.3342
147.759441 83.366 110.9818
148.830166 83.182 111.7152
149.908651 83.051 112.6252
150.994951 82.960 113.5171
152.089123 82.871 114.2215
153.191223 82.785 114.7673
154.301310 82.725 115.1810
155.419441 82.683 115.4912
156.545674 82.635 115.8217
157.680069 82.575 116.2560
158.822683 82.503 116.7734
159.973578 82.423 117.3068
161.132813 82.336 117.8023
162.300447 82.244 118.2397
163.476543 82.155 118.6470
164.661162 82.072 119.0888
165.854364 81.995 119.5997
167.056213 81.921 120.1470
168.266772 81.846 120.6863
169.486102 81.770 121.1950
170.714268 81.695 121.6723
171.951334 81.620 122.1588
173.197364 81.544 122.7052
174.452424 81.470 123.3054
175.716578 81.398 123.9140
176.989893 81.327 124.4864
178.272434 81.257 125.0299
179.564270 81.194 125.6024
180.865467 81.139 126.2243
182.176092 81.089 126.8582
183.496216 81.041 127.4724
184.825905 80.992 128.0662
186.165229 80.942 128.6580
187.514259 80.894 129.2699
188.873065 80.848 129.8980
190.241717 80.805 130.5184
191.620287 80.765 131.1162
193.008847 80.724 131.6860
194.407468 80.682 132.2375
195.816225 80.642 132.7948
197.235190 80.610 133.3527
198.664438 80.585 133.8592
200.104042 80.562 134.2998
201.554078 80.534 134.7543
203.014622 80.497 135.2670
204.485750 80.454 135.7828
205.967538 80.410 136.2550
207.460064 80.365 136.6933
208.963405 80.322 137.1680
210.477640 80.284 137.7198
212.002848 80.251 138.3131
213.539108 80.219 138.8989
215.086500 80.188 139.4611
216.645105 80.160 140.0052
218.215005 80.133 140.5539
219.796281 80.105 141.1145
221.389015 80.075 141.6702
222.993292 80.047 142.2117
224.609193 80.021 142.7440
226.236804 79.994 143.2749
227.876209 79.967 143.8026
229.527494 79.944 144.2939
231.190745 79.928 144.7317
232.866048 79.920 145.2286
234.553491 79.909 145.8624
236.253163 79.896 146.5117
237.965150 79.885 147.0792
239.689544 79.883 147.5941
241.426433 79.896 148.1551
243.175909 79.919 148.7495
244.938062 79.939 149.2828
246.712984 79.954 149.7236
248.500768 79.962 150.1017
250.301507 79.967 150.4565
252.115295 79.967 150.8074
253.942226 79.965 151.1669
255.782396 79.961 151.5367
257.635901 79.959 151.8878
259.502837 79.959 152.1769
261.383301 79.958 152.4453
263.277392 79.952 152.7752
265.185209 79.940 153.1497
267.106850 79.928 153.5210
269.042417 79.921 153.8578
270.992009 79.918 154.1680
272.955729 79.915 154.4688
274.933678 79.910 154.7737
276.925961 79.903 155.1083
278.932681 79.897 155.4683
280.953942 79.889 155.8174
282.989850 79.878 156.1492
285.040511 79.866 156.4668
287.106032 79.853 156.7757
289.186521 79.843 157.1001
291.282086 79.837 157.4415
293.392836 79.832 157.7783
295.518881 79.825 158.0956
297.660333 79.815 158.4072
299.817302 79.805 158.7247
301.989902 79.796 159.0610
304.178245 79.786 159.4256
306.382446 79.774 159.7811
308.602620 79.761 160.1117
310.838882 79.748 160.4442
313.091348 79.735 160.7915
315.360137 79.725 161.1453
317.645367 79.717 161.4890
319.947156 79.710 161.8238
322.265625 79.702 162.1637
324.600895 79.693 162.5144
326.953086 79.683 162.8735
329.322323 79.672 163.2452
331.708729 79.661 163.6343
334.112427 79.650 164.0401
336.533543 79.642 164.4598
338.972204 79.639 164.8823
341.428536 79.643 165.3213
343.902668 79.651 165.8106
346.394729 79.657 166.3351
348.904848 79.664 166.8495
351.433156 79.678 167.3233
353.979786 79.703 167.7497
356.544869 79.739 168.1288
359.128540 79.785 168.4544
361.730934 79.833 168.7172
364.352185 79.876 168.9262
366.992431 79.909 169.0787
369.651810 79.931 169.1880
372.330459 79.944 169.2736
375.028519 79.951 169.3502
377.746130 79.953 169.4395
380.483434 79.953 169.5558
383.240574 79.950 169.6966
386.017693 79.946 169.8636
388.814937 79.940 170.0513
391.632450 79.935 170.2460
394.470380 79.930 170.4480
397.328875 79.926 170.6623
400.208084 79.924 170.8882
403.108157 79.920 171.1281
406.029245 79.916 171.3725
408.971500 79.909 171.6005
411.935076 79.902 171.8186
414.920127 79.896 172.0444
417.926810 79.891 172.2768
420.955280 79.886 172.5023
424.005695 79.881 172.7222
427.078215 79.876 172.9455
430.173000 79.872 173.1785
433.290211 79.868 173.4136
436.430010 79.864 173.6480
439.592562 79.858 173.8908
442.778031 79.852 174.1439
445.986583 79.847 174.4001
449.218386 79.842 174.6568
452.473607 79.840 174.9125
455.752418 79.837 175.1691
459.054987 79.834 175.4244
462.381489 79.831 175.6741
465.732096 79.829 175.9166
469.106983 79.828 176.1524
472.506325 79.825 176.3986
475.930301 79.823 176.6575
479.379088 79.819 176.9135
482.852867 79.818 177.1665
486.351817 79.817 177.4046
489.876123 79.817 177.6252
493.425968 79.815 177.8583
497.001536 79.814 178.0957
500.603014 79.812 178.3229
504.230589 79.809 178.5568
507.884452 79.805 178.8052
511.564792 79.803 179.0555
515.271802 79.800 179.3010
519.005673 79.798 179.5468
522.766602 79.795 179.7999
526.554785 79.792 -179.9426
530.370418 79.791 -179.6947
534.213700 79.790 -179.4607
538.084833 79.787 -179.2271
541.984018 79.783 -178.9831
545.911457 79.779 -178.7289
549.867357 79.776 -178.4684
553.851922 79.774 -178.2092
557.865362 79.772 -177.9567
561.907884 79.769 -177.7094
565.979700 79.765 -177.4588
570.081022 79.762 -177.1976
574.212064 79.760 -176.9286
578.373042 79.757 -176.6626
582.564171 79.753 -176.4044
586.785671 79.748 -176.1457
591.037762 79.743 -175.8780
595.320665 79.738 -175.5969
599.634604 79.735 -175.3074
603.979804 79.734 -175.0265
608.356491 79.735 -174.7604
612.764893 79.735 -174.5020
617.205240 79.733 -174.2416
621.677763 79.731 -173.9715
626.182696 79.728 -173.6921
630.720274 79.726 -173.4078
635.290733 79.725 -173.1198
639.894312 79.724 -172.8275
644.531250 79.722 -172.5334
649.201789 79.719 -172.2400
653.906173 79.717 -171.9468
658.644647 79.714 -171.6523
663.417457 79.711 -171.3552
668.224854 79.709 -171.0569
673.067086 79.708 -170.7573
677.944408 79.708 -170.4525
682.857073 79.708 -170.1392
687.805336 79.708 -169.8197
692.789457 79.710 -169.4954
697.809695 79.712 -169.1709
702.866312 79.715 -168.8486
707.959571 79.719 -168.5236
713.089738 79.724 -168.1940
718.257080 79.729 -167.8637
723.461867 79.732 -167.5316
728.704370 79.733 -167.1939
733.984862 79.735 -166.8513
739.303619 79.737 -166.5047
744.660918 79.740 -166.1551
750.057038 79.745 -165.8034
755.492260 79.749 -165.4490
760.966869 79.755 -165.0909
766.481148 79.761 -164.7307
772.035387 79.768 -164.3712
777.629873 79.775 -164.0096
783.264900 79.784 -163.6404
788.940760 79.793 -163.2618
794.657750 79.803 -162.8775
800.416168 79.814 -162.4931
806.216313 79.828 -162.1123
812.058489 79.842 -161.7338
817.943000 79.856 -161.3555
823.870152 79.871 -160.9757
829.840255 79.886 -160.5930
835.853619 79.903 -160.2074
841.910559 79.922 -159.8182
848.011390 79.942 -159.4245
854.156430 79.964 -159.0288
860.346000 79.985 -158.6365
866.580422 80.007 -158.2478
872.860020 80.030 -157.8580
879.185124 80.054 -157.4655
885.556062 80.078 -157.0710
891.973166 80.104 -156.6771
898.436771 80.132 -156.2828
904.947215 80.161 -155.8860
911.504835 80.192 -155.4910
918.109975 80.224 -155.1022
924.762978 80.257 -154.7191
931.464192 80.291 -154.3392
938.213966 80.327 -153.9620
945.012651 80.365 -153.5874
951.860602 80.405 -153.2143
958.758176 80.444 -152.8466
965.705733 80.484 -152.4944
972.703635 80.525 -152.1570
979.752246 80.568 -151.8232
986.851935 80.611 -151.4895
994.003071 80.656 -151.1572
1001.206027 80.700 -150.8298
1008.461179 80.745 -150.5121
1015.768904 80.791 -150.2042
1023.129584 80.838 -149.9015
1030.543603 80.886 -149.6025
1038.011347 80.934 -149.3098
1045.533205 80.983 -149.0273
1053.109569 81.032 -148.7559
1060.740836 81.081 -148.4922
1068.427401 81.130 -148.2336
1076.169666 81.181 -147.9822
1083.968035 81.232 -147.7416
1091.822915 81.283 -147.5128
1099.734713 81.333 -147.2920
1107.703844 81.383 -147.0794
1115.730723 81.434 -146.8763
1123.815768 81.484 -146.6804
1131.959400 81.535 -146.4920
1140.162045 81.584 -146.3109
1148.424129 81.633 -146.1337
1156.746083 81.682 -145.9600
1165.128342 81.731 -145.7903
1173.571343 81.778 -145.6246
1182.075524 81.826 -145.4622
1190.641331 81.873 -145.3022
1199.269209 81.919 -145.1468
1207.959608 81.965 -145.0006
1216.712981 82.009 -144.8611
1225.529785 82.053 -144.7230
1234.410479 82.097 -144.5853
1243.355526 82.140 -144.4476
1252.365393 82.184 -144.3104
1261.440549 82.227 -144.1754
1270.581467 82.269 -144.0438
1279.788624 82.311 -143.9163
1289.062500 82.352 -143.7900
1298.403578 82.394 -143.6628
1307.812346 82.436 -143.5328
1317.289293 82.477 -143.4009
1326.834914 82.518 -143.2709
1336.449707 82.558 -143.1435
1346.134173 82.599 -143.0173
1355.888816 82.639 -142.8923
1365.714145 82.679 -142.7661
1375.610673 82.718 -142.6346
1385.578915 82.758 -142.4988
1395.619391 82.798 -142.3641
1405.732624 82.837 -142.2308
1415.919142 82.877 -142.0954
1426.179476 82.917 -141.9552
1436.514160 82.957 -141.8097
1446.923734 82.996 -141.6624
1457.408740 83.036 -141.5189
1467.969724 83.077 -141.3794
1478.607238 83.118 -141.2396
1489.321836 83.159 -141.0963
1500.114076 83.201 -140.9509
1510.984521 83.243 -140.8042
1521.933737 83.287 -140.6559
1532.962297 83.331 -140.5076
1544.070773 83.376 -140.3617
1555.259747 83.422 -140.2173
1566.529800 83.468 -140.0756
1577.881521 83.515 -139.9391
1589.315501 83.562 -139.8068
1600.832336 83.609 -139.6752
1612.432627 83.657 -139.5435
1624.116978 83.706 -139.4150
1635.886000 83.756 -139.2932
1647.740304 83.806 -139.1783
1659.680509 83.856 -139.0685
1671.707238 83.908 -138.9620
1683.821118 83.960 -138.8627
1696.022780 84.012 -138.7752
1708.312860 84.063 -138.6970
1720.692000 84.114 -138.6229
1733.160843 84.164 -138.5509
1745.720041 84.215 -138.4814
1758.370248 84.265 -138.4129
1771.112124 84.315 -138.3466
1783.946332 84.364 -138.2836
1796.873543 84.414 -138.2236
1809.894429 84.464 -138.1661
1823.009670 84.513 -138.1116
1836.219950 84.563 -138.0596
1849.525956 84.611 -138.0072
1862.928384 84.659 -137.9554
1876.427931 84.707 -137.9042
1890.025301 84.755 -137.8523
1903.721204 84.804 -137.8000
1917.516352 84.852 -137.7477
1931.411466 84.900 -137.6936
1945.407270 84.948 -137.6382
1959.504493 84.996 -137.5829
1973.703870 85.045 -137.5297
1988.006142 85.094 -137.4811
2002.412054 85.144 -137.4354
2016.922357 85.195 -137.3861
2031.537808 85.247 -137.3311
2046.259169 85.300 -137.2742
2061.087206 85.354 -137.2195
2076.022694 85.408 -137.1685
2091.066410 85.462 -137.1209
2106.219139 85.517 -137.0763
2121.481671 85.572 -137.0344
2136.854802 85.628 -136.9949
2152.339333 85.685 -136.9584
2167.936071 85.743 -136.9247
2183.645829 85.801 -136.8931
2199.469427 85.861 -136.8649
2215.407689 85.921 -136.8405
2231.461446 85.982 -136.8211
2247.631536 86.044 -136.8080
2263.918800 86.107 -136.7997
2280.324089 86.172 -136.7947
2296.848258 86.237 -136.7946
2313.492167 86.303 -136.8009
2330.256685 86.370 -136.8156
2347.142685 86.438 -136.8400
2364.151049 86.507 -136.8732
2381.282662 86.577 -136.9147
2398.538418 86.647 -136.9653
2415.919216 86.719 -137.0260
2433.425962 86.791 -137.0974
2451.059570 86.864 -137.1804
2468.820958 86.938 -137.2754
2486.711052 87.013 -137.3818
2504.730786 87.088 -137.4995
2522.881098 87.164 -137.6299
2541.162934 87.240 -137.7758
2559.577248 87.315 -137.9368
2578.125000 87.392 -138.1118
2596.807157 87.468 -138.2997
2615.624692 87.545 -138.5005
2634.578586 87.622 -138.7153
2653.669829 87.699 -138.9458
2672.899414 87.776 -139.1930
2692.268345 87.853 -139.4570
2711.777632 87.930 -139.7360
2731.428290 88.006 -140.0291
2751.221345 88.082 -140.3369
2771.157829 88.158 -140.6612
2791.238781 88.233 -141.0031
2811.465248 88.308 -141.3625
2831.838284 88.381 -141.7394
2852.358952 88.455 -142.1330
2873.028321 88.527 -142.5430
2893.847468 88.598 -142.9709
2914.817480 88.669 -143.4188
2935.939449 88.738 -143.8868
2957.214476 88.807 -144.3738
2978.643672 88.873 -144.8798
3000.228152 88.938 -145.4053
3021.969041 89.001 -145.9496
3043.867475 89.063 -146.5125
3065.924593 89.122 -147.0939
3088.141547 89.180 -147.6932
3110.519493 89.235 -148.3118
3133.059600 89.289 -148.9504
3155.763041 89.339 -149.6093
3178.631001 89.387 -150.2876
3201.664672 89.431 -150.9849
3224.865254 89.473 -151.7008
3248.233957 89.512 -152.4355
3271.771999 89.547 -153.1882
3295.480608 89.577 -153.9574
3319.361019 89.603 -154.7419
3343.414477 89.625 -155.5411
3367.642236 89.641 -156.3535
3392.045560 89.653 -157.1758
3416.625721 89.660 -158.0040
3441.383999 89.662 -158.8361
3466.321686 89.659 -159.6718
3491.440082 89.652 -160.5108
3516.740496 89.641 -161.3535
3542.224247 89.626 -162.1994
3567.892664 89.607 -163.0491
3593.747085 89.583 -163.9036
3619.788858 89.554 -164.7635
3646.019340 89.519 -165.6274
3672.439900 89.480 -166.4932
3699.051913 89.434 -167.3587
3725.856768 89.382 -168.2220
3752.855862 89.323 -169.0797
3780.050603 89.258 -169.9257
3807.442408 89.186 -170.7544
3835.032705 89.107 -171.5614
3862.822933 89.023 -172.3439
3890.814540 88.934 -173.1011
3919.008986 88.841 -173.8328
3947.407741 88.743 -174.5385
3976.012284 88.642 -175.2191
4004.824108 88.536 -175.8761
4033.844715 88.427 -176.5089
4063.075616 88.313 -177.1164
4092.518337 88.194 -177.6973
4122.174412 88.072 -178.2480
4152.045387 87.944 -178.7633
4182.132820 87.813 -179.2384
4212.438278 87.678 -179.6683
4242.963342 87.541 179.9504
4273.709604 87.403 179.6185
4304.678665 87.265 179.3328
4335.872141 87.127 179.0881
4367.291658 86.990 178.8790
4398.938854 86.855 178.7003
4430.815378 86.721 178.5469
4462.922893 86.587 178.4159
4495.263072 86.454 178.3067
4527.837601 86.321 178.2208
4560.648179 86.188 178.1605
4593.696515 86.055 178.1265
4626.984334 85.922 178.1184
4660.513370 85.788 178.1370
4694.285371 85.655 178.1839
4728.302098 85.523 178.2599
4762.565324 85.391 178.3648
4797.076835 85.260 178.4977
4831.838432 85.131 178.6584
4866.851925 85.002 178.8464
4902.119140 84.875 179.0601
4937.641916 84.749 179.3002
4973.422105 84.625 179.5679
5009.461572 84.503 179.8627
5045.762195 84.382 -179.8162
5082.325868 84.264 -179.4678
5119.154496 84.147 -179.0916
5156.250000 84.032 -178.6885
5193.614313 83.921 -178.2591
5231.249383 83.811 -177.8027
5269.157173 83.706 -177.3206
5307.339658 83.603 -176.8161
5345.798829 83.504 -176.2910
5384.536691 83.409 -175.7451
5423.555263 83.318 -175.1778
5462.856580 83.230 -174.5887
5502.442691 83.146 -173.9778
5542.315659 83.065 -173.3474
5582.477563 82.989 -172.7006
5622.930497 82.918 -172.0372
5663.676569 82.851 -171.3531
5704.717904 82.789 -170.6480
5746.056642 82.731 -169.9252
5787.694937 82.680 -169.1864
5829.634960 82.634 -168.4320
5871.878898 82.594 -167.6629
5914.428953 82.561 -166.8809
5957.287343 82.534 -166.0885
6000.456303 82.514 -165.2873
6043.938083 82.501 -164.4809
6087.734950 82.495 -163.6750
6131.849187 82.497 -162.8717
6176.283094 82.507 -162.0711
6221.038987 82.524 -161.2744
6266.119200 82.550 -160.4860
6311.526083 82.585 -159.7104
6357.262002 82.630 -158.9509
6403.329344 82.683 -158.2115
6449.730508 82.746 -157.4973
6496.467914 82.817 -156.8123
6543.543998 82.896 -156.1614
6590.961215 82.985 -155.5480
6638.722037 83.083 -154.9763
6686.828954 83.192 -154.4523
6735.284473 83.310 -153.9845
6784.091120 83.439 -153.5815
6833.251441 83.577 -153.2534
6882.767998 83.724 -153.0128
6932.643372 83.878 -152.8691
6982.880164 84.037 -152.8260
7033.480992 84.200 -152.8865
7084.448495 84.364 -153.0513
7135.785329 84.529 -153.3135
7187.494171 84.695 -153.6626
7239.577717 84.861 -154.0858
7292.038681 85.032 -154.5721
7344.879799 85.210 -155.1208
7398.103826 85.400 -155.7459
7451.713536 85.607 -156.4809
7505.711724 85.835 -157.3818
7560.101205 86.084 -158.5250
7614.884815 86.350 -159.9988
7670.065409 86.622 -161.8859
7725.645865 86.884 -164.2470
7781.629080 87.117 -167.1100
7838.017972 87.299 -170.4609
7894.815481 87.410 -174.2361
7952.024569 87.430 -178.3242
8009.648217 87.349 177.4183
8067.689429 87.161 173.1492
8126.151233 86.869 169.0273
8185.036674 86.481 165.1915
8244.348824 86.013 161.7481
8304.090774 85.483 158.7687
8364.265639 84.906 156.2900
8424.876556 84.299 154.3171
8485.926684 83.677 152.8375
8547.419207 83.051 151.8249
8609.357330 82.431 151.2391
8671.744282 81.825 151.0318
8734.583316 81.238 151.1549
8797.877707 80.673 151.5660
8861.630756 80.133 152.2262
8925.845785 79.620 153.1006
8990.526143 79.132 154.1594
9055.675202 78.669 155.3735
9121.296357 78.232 156.7168
9187.393031 77.819 158.1709
9253.968668 77.430 159.7213
9321.026740 77.064 161.3568
9388.570742 76.719 163.0675
9456.604196 76.393 164.8440
9525.130648 76.087 166.6798
9594.153671 75.799 168.5693
9663.676863 75.530 170.5107
9733.703850 75.279 172.5019
9804.238280 75.047 174.5349
9875.283832 74.835 176.6002
9946.844210 74.641 178.6906
10018.923143 74.466 -179.1977
10091.524390 74.309 -177.0642
10164.651736 74.170 -174.9121
10238.308993 74.050 -172.7497
10312.500000 73.949 -170.5787
10387.228626 73.867 -168.3997
10462.498767 73.803 -166.2207
10538.314345 73.757 -164.0527
10614.679315 73.730 -161.8993
10691.597657 73.723 -159.7578
10769.073381 73.736 -157.6302
10847.110526 73.769 -155.5261
10925.713161 73.823 -153.4529
11004.885382 73.899 -151.4127
11084.631318 73.998 -149.4108
11164.955126 74.122 -147.4571
11245.860993 74.269 -145.5643
11327.353138 74.443 -143.7484
11409.435808 74.643 -142.0219
11492.113283 74.870 -140.3933
11575.389873 75.126 -138.8755
11659.269920 75.410 -137.4916
11743.757796 75.726 -136.2667
11828.857906 76.072 -135.2293
11914.574686 76.452 -134.4135
12000.912606 76.865 -133.8568
12087.876166 77.309 -133.6046
12175.469900 77.782 -133.7074
12263.698373 78.279 -134.2235
12352.566187 78.794 -135.2196
12442.077974 79.316 -136.7611
12532.238400 79.830 -138.9030
12623.052165 80.318 -141.6805
12714.524005 80.758 -145.0954
12806.658687 81.124 -149.1021
12899.461015 81.397 -153.5987
12992.935827 81.557 -158.4330
13087.087996 81.595 -163.4198
13181.922430 81.513 -168.3619
13277.444074 81.318 -173.0757
13373.657907 81.030 -177.4158
13470.568945 80.670 178.7108
13568.182241 80.263 175.3442
13666.502883 79.831 172.4761
13765.535996 79.394 170.0626
13865.286744 78.964 168.0405
13965.760328 78.550 166.3419
14066.961984 78.158 164.9068
14168.896989 77.792 163.6858
14271.570658 77.456 162.6354
14374.988342 77.151 161.7126
14479.155433 76.885 160.8678
14584.077362 76.659 160.0378
14689.759598 76.479 159.1412
14796.207652 76.342 158.0788
14903.427072 76.243 156.7479
15011.423448 76.170 155.0634
15120.202410 76.105 152.9713
15229.769630 76.028 150.4594
15340.130819 75.919 147.5635
15451.291730 75.765 144.3555
15563.258160 75.554 140.9238
15676.035944 75.280 137.3642
15789.630962 74.943 133.7745
15904.049137 74.543 130.2419
16019.296433 74.087 126.8415
16135.378859 73.581 123.6354
16252.302465 73.034 120.6710
16370.073348 72.455 117.9786
16488.697648 71.855 115.5712
16608.181548 71.245 113.4479
16728.531278 70.634 111.5998
16849.753112 70.029 110.0044
16971.853368 69.439 108.6307
17094.838414 68.868 107.4468
17218.714660 68.322 106.4199
17343.488565 67.807 105.5176
17469.166632 67.330 104.7062
17595.755415 66.894 103.9437
17723.261512 66.504 103.1813
17851.691571 66.161 102.3695
17981.052287 65.867 101.4575
18111.350404 65.626 100.3860
18242.592715 65.442 99.0868
18374.786062 65.318 97.4775
18507.937336 65.254 95.4575
18642.053479 65.247 92.9153
18777.141484 65.293 89.7338
18913.208391 65.379 85.7839
19050.261296 65.487 80.9284
19188.307342 65.592 75.0499
19327.353727 65.660 68.0677
19467.407699 65.653 59.9505
19608.476560 65.538 50.7973
19750.567664 65.316 40.9993
19893.688419 65.055 31.6317
20037.846286 64.885 25.1865
