* Measurement data measured by REW V5.30.4
* Source: Headset (2- CX31993 HIFI AUDIO), MICROPHONE (Master Volume), L, volume: 0.500
* Format: 256k Log Swept Sine, 1 sweep at -12.0 dBFS with no timing reference
* Dated: 06 23, 24 2:12:51 PM
* REW Settings:
*  C-weighting compensation: Off
*  Target level: 75.0 dB
* Note: ; 
* Measurement: Fengru MY88 Red FOAM R
* Smoothing: 1/12 octave
* Frequency Step: 96 ppo
* Start Frequency: 20.141602 Hz
*
* Freq(Hz) SPL(dB) Phase(degrees)
20.141602 97.769 -2.9715
20.287556 97.769 -3.0088
20.434568 97.768 -3.1103
20.582645 97.768 -3.2566
20.731796 97.766 -3.4316
20.882027 97.765 -3.6240
21.033346 97.763 -3.8290
21.185762 97.761 -4.0479
21.339283 97.758 -4.2716
21.493916 97.755 -4.4985
21.649670 97.750 -4.7276
21.806553 97.744 -4.9573
21.964573 97.737 -5.1859
22.123737 97.729 -5.4184
22.284056 97.719 -5.6479
22.445536 97.709 -5.8707
22.608185 97.698 -6.0858
22.772013 97.688 -6.2927
22.937029 97.678 -6.4919
23.103241 97.669 -6.6893
23.270657 97.661 -6.8851
23.439285 97.655 -7.0785
23.609137 97.650 -7.2720
23.780218 97.647 -7.4674
23.952539 97.644 -7.6663
24.126110 97.641 -7.8748
24.300938 97.638 -8.0893
24.477032 97.634 -8.3064
24.654402 97.629 -8.5248
24.833057 97.623 -8.7425
25.013008 97.616 -8.9585
25.194263 97.607 -9.1777
25.376831 97.598 -9.3932
25.560722 97.587 -9.6052
25.745945 97.576 -9.8148
25.932510 97.565 -10.0235
26.120428 97.553 -10.2378
26.309708 97.542 -10.4571
26.500359 97.530 -10.6797
26.692390 97.518 -10.9059
26.885815 97.506 -11.1349
27.080641 97.494 -11.3683
27.276878 97.482 -11.6053
27.474539 97.470 -11.8402
27.673630 97.459 -12.0710
27.874165 97.447 -12.2965
28.076153 97.436 -12.5178
28.279604 97.426 -12.7364
28.484529 97.416 -12.9494
28.690941 97.406 -13.1580
28.898848 97.397 -13.3636
29.108261 97.388 -13.5703
29.319191 97.378 -13.7789
29.531651 97.369 -13.9880
29.745649 97.358 -14.1976
29.961199 97.347 -14.4077
30.178310 97.335 -14.6220
30.396996 97.322 -14.8366
30.617264 97.309 -15.0501
30.839128 97.295 -15.2619
31.062601 97.281 -15.4734
31.287693 97.267 -15.6866
31.514416 97.253 -15.8990
31.742783 97.238 -16.1110
31.972803 97.224 -16.3235
32.204491 97.210 -16.5400
32.437859 97.195 -16.7580
32.672916 97.179 -16.9768
32.909679 97.164 -17.1959
33.148155 97.147 -17.4173
33.388359 97.131 -17.6394
33.630306 97.114 -17.8596
33.874004 97.097 -18.0775
34.119469 97.080 -18.2950
34.366711 97.064 -18.5122
34.615746 97.047 -18.7268
34.866585 97.031 -18.9389
35.119244 97.015 -19.1498
35.373734 96.999 -19.3594
35.630066 96.982 -19.5659
35.888256 96.966 -19.7695
36.148315 96.949 -19.9735
36.410259 96.933 -20.1784
36.674103 96.917 -20.3830
36.939857 96.901 -20.5877
37.207539 96.884 -20.7939
37.477161 96.868 -20.9993
37.748737 96.850 -21.2019
38.022282 96.833 -21.4014
38.297806 96.815 -21.6013
38.575329 96.797 -21.7997
38.854862 96.779 -21.9989
39.136421 96.760 -22.2024
39.420021 96.741 -22.4117
39.705673 96.720 -22.6254
39.993397 96.699 -22.8417
40.283207 96.677 -23.0601
40.575115 96.655 -23.2750
40.869141 96.632 -23.4844
41.165295 96.610 -23.6896
41.463596 96.588 -23.8909
41.764057 96.566 -24.0881
42.066696 96.544 -24.2831
42.371529 96.522 -24.4785
42.678570 96.500 -24.6748
42.987835 96.477 -24.8733
43.299343 96.455 -25.0771
43.613110 96.432 -25.2819
43.929150 96.410 -25.4841
44.247478 96.389 -25.6811
44.568115 96.367 -25.8671
44.891075 96.345 -26.0403
45.216373 96.322 -26.2054
45.544029 96.295 -26.3686
45.874062 96.264 -26.5353
46.206486 96.225 -26.7084
46.541317 96.177 -26.8823
46.878574 96.124 -27.0473
47.218277 96.069 -27.1987
47.560440 96.019 -27.3392
47.905083 95.979 -27.4828
48.252224 95.954 -27.6531
48.601879 95.941 -27.8674
48.954067 95.939 -28.1294
49.308807 95.939 -28.4255
49.666119 95.938 -28.7285
50.026020 95.932 -29.0104
50.388531 95.920 -29.2562
50.753666 95.903 -29.4626
51.121449 95.883 -29.6430
51.491894 95.861 -29.8162
51.865025 95.837 -29.9946
52.240860 95.811 -30.1848
52.619419 95.783 -30.3834
53.000721 95.755 -30.5834
53.384785 95.727 -30.7809
53.771633 95.700 -30.9709
54.161285 95.673 -31.1538
54.553761 95.646 -31.3315
54.949081 95.617 -31.5053
55.347263 95.588 -31.6787
55.748333 95.557 -31.8524
56.152309 95.525 -32.0280
56.559212 95.494 -32.2070
56.969063 95.462 -32.3901
57.381886 95.432 -32.5806
57.797699 95.402 -32.7756
58.216526 95.373 -32.9726
58.638386 95.343 -33.1682
59.063305 95.313 -33.3590
59.491302 95.282 -33.5435
59.922401 95.251 -33.7194
60.356625 95.220 -33.8881
60.793995 95.188 -34.0493
61.234531 95.155 -34.2046
61.678261 95.123 -34.3565
62.125206 95.090 -34.5084
62.575390 95.058 -34.6652
63.028835 95.026 -34.8305
63.485569 94.994 -35.0067
63.945610 94.961 -35.1902
64.408989 94.929 -35.3783
64.875725 94.897 -35.5659
65.345840 94.865 -35.7504
65.819366 94.832 -35.9318
66.296318 94.799 -36.1155
66.776726 94.763 -36.3073
67.260620 94.726 -36.5096
67.748016 94.686 -36.7184
68.238945 94.646 -36.9213
68.733429 94.607 -37.0983
69.231499 94.571 -37.2309
69.733177 94.541 -37.3127
70.238495 94.514 -37.3526
70.747475 94.490 -37.3749
71.260139 94.466 -37.4144
71.776520 94.439 -37.5044
72.296638 94.408 -37.6615
72.820526 94.371 -37.8794
73.348213 94.329 -38.1322
73.879723 94.286 -38.3887
74.415085 94.243 -38.6289
74.954330 94.202 -38.8447
75.497482 94.163 -39.0372
76.044571 94.123 -39.2098
76.595619 94.083 -39.3646
77.150665 94.043 -39.5044
77.709732 94.003 -39.6337
78.272850 93.965 -39.7578
78.840050 93.928 -39.8821
79.411354 93.891 -40.0098
79.986801 93.855 -40.1442
80.566422 93.819 -40.2864
81.150238 93.783 -40.4331
81.738289 93.746 -40.5793
82.330597 93.709 -40.7229
82.927200 93.671 -40.8621
83.528122 93.631 -40.9966
84.133400 93.592 -41.1316
84.743065 93.553 -41.2714
85.357147 93.514 -41.4156
85.975677 93.475 -41.5611
86.598694 93.436 -41.7021
87.226227 93.396 -41.8399
87.858307 93.355 -41.9765
88.494965 93.314 -42.1118
89.136238 93.272 -42.2475
89.782158 93.229 -42.3831
90.432755 93.185 -42.5179
91.088066 93.143 -42.6495
91.748131 93.101 -42.7757
92.412979 93.060 -42.8978
93.082642 93.021 -43.0157
93.757156 92.983 -43.1303
94.436562 92.944 -43.2400
95.120888 92.904 -43.3440
95.810173 92.863 -43.4428
96.504456 92.821 -43.5358
97.203766 92.778 -43.6265
97.908142 92.735 -43.7187
98.617622 92.691 -43.8103
99.332245 92.648 -43.9068
100.052048 92.605 -44.0140
100.777069 92.562 -44.1371
101.507339 92.520 -44.2710
102.242905 92.478 -44.4082
102.983795 92.436 -44.5396
103.730057 92.395 -44.6629
104.481728 92.354 -44.7723
105.238846 92.313 -44.8693
106.001450 92.270 -44.9581
106.769577 92.226 -45.0476
107.543274 92.181 -45.1402
108.322578 92.135 -45.2348
109.107529 92.089 -45.3250
109.898170 92.044 -45.4072
110.694534 91.999 -45.4800
111.496674 91.956 -45.5493
112.304626 91.911 -45.6256
113.118431 91.866 -45.7153
113.938133 91.818 -45.8185
114.763779 91.769 -45.9367
115.595406 91.720 -46.0736
116.433060 91.670 -46.2377
117.276779 91.621 -46.4223
118.126617 91.574 -46.6044
118.982613 91.529 -46.7621
119.844810 91.484 -46.8637
120.713257 91.438 -46.8970
121.587997 91.391 -46.8825
122.469070 91.344 -46.8564
123.356529 91.297 -46.8424
124.250420 91.249 -46.8495
125.150787 91.204 -46.8840
126.057678 91.160 -46.9457
126.971146 91.120 -47.0297
127.891228 91.080 -47.1321
128.817978 91.039 -47.2380
129.751450 90.994 -47.3339
130.691681 90.946 -47.4069
131.638733 90.893 -47.4539
132.592636 90.838 -47.4821
133.553452 90.782 -47.5026
134.521240 90.725 -47.5197
135.496033 90.669 -47.5307
136.477890 90.615 -47.5387
137.466858 90.561 -47.5560
138.462997 90.509 -47.6002
139.466354 90.459 -47.6745
140.476990 90.414 -47.7610
141.494949 90.370 -47.8432
142.520279 90.326 -47.9139
143.553040 90.276 -47.9767
144.593277 90.218 -48.0396
145.641052 90.155 -48.1017
146.696426 90.088 -48.1532
147.759445 90.022 -48.1806
148.830170 89.959 -48.1796
149.908661 89.899 -48.1521
150.994965 89.842 -48.1092
152.089142 89.788 -48.0735
153.191238 89.736 -48.0534
154.301331 89.686 -48.0467
155.419464 89.634 -48.0440
156.545700 89.581 -48.0332
157.680099 89.525 -48.0122
158.822708 89.465 -47.9821
159.973602 89.400 -47.9326
161.132843 89.330 -47.8508
162.300476 89.256 -47.7143
163.476578 89.180 -47.5076
164.661194 89.106 -47.2255
165.854401 89.040 -46.8695
167.056244 88.984 -46.4478
168.266800 88.945 -45.9853
169.486130 88.924 -45.5083
170.714294 88.922 -45.0379
171.951355 88.938 -44.5839
173.197388 88.971 -44.1515
174.452454 89.019 -43.7628
175.716614 89.076 -43.4561
176.989929 89.133 -43.2637
178.272476 89.180 -43.2105
179.564316 89.212 -43.2983
180.865509 89.227 -43.5089
182.176132 89.227 -43.8116
183.496262 89.213 -44.1484
184.825958 89.187 -44.4795
186.165283 89.151 -44.7839
187.514313 89.107 -45.0625
188.873123 89.058 -45.3334
190.241776 89.008 -45.5998
191.620346 88.957 -45.8751
193.008911 88.905 -46.1394
194.407532 88.853 -46.3930
195.816284 88.800 -46.6140
197.235245 88.748 -46.8105
198.664490 88.699 -46.9831
200.104095 88.653 -47.1292
201.554138 88.608 -47.2505
203.014679 88.564 -47.3539
204.485809 88.518 -47.4439
205.967590 88.471 -47.5179
207.460114 88.421 -47.5747
208.963455 88.369 -47.6090
210.477692 88.316 -47.6245
212.002899 88.263 -47.6232
213.539154 88.212 -47.6093
215.086548 88.161 -47.5909
216.645157 88.113 -47.5682
218.215057 88.065 -47.5505
219.796341 88.017 -47.5410
221.389069 87.969 -47.5419
222.993347 87.919 -47.5558
224.609253 87.868 -47.5759
226.236862 87.816 -47.5943
227.876266 87.764 -47.6041
229.527557 87.714 -47.6036
231.190811 87.665 -47.5964
232.866119 87.617 -47.5844
234.553558 87.570 -47.5754
236.253235 87.522 -47.5636
237.965225 87.473 -47.5502
239.689621 87.426 -47.5391
241.426514 87.380 -47.5220
243.175995 87.335 -47.4954
244.938141 87.290 -47.4575
246.713058 87.245 -47.4117
248.500839 87.199 -47.3579
250.301575 87.152 -47.3059
252.115356 87.105 -47.2531
253.942291 87.057 -47.1973
255.782455 87.010 -47.1418
257.635956 86.963 -47.0822
259.502899 86.915 -47.0262
261.383362 86.869 -46.9730
263.277466 86.822 -46.9135
265.185272 86.776 -46.8540
267.106903 86.730 -46.7898
269.042480 86.684 -46.7218
270.992065 86.637 -46.6422
272.955780 86.591 -46.5532
274.933716 86.544 -46.4534
276.925995 86.498 -46.3405
278.932709 86.453 -46.2263
280.953979 86.411 -46.1070
282.989899 86.370 -45.9833
285.040558 86.331 -45.8697
287.106079 86.293 -45.7659
289.186554 86.257 -45.6738
291.282104 86.222 -45.5892
293.392853 86.188 -45.5079
295.518890 86.154 -45.4247
297.660339 86.120 -45.3424
299.817322 86.087 -45.2623
301.989929 86.052 -45.1814
304.178284 86.015 -45.1031
306.382477 85.978 -45.0238
308.602661 85.941 -44.9414
310.838928 85.906 -44.8620
313.091400 85.871 -44.7923
315.360199 85.837 -44.7319
317.645416 85.803 -44.6815
319.947205 85.767 -44.6323
322.265686 85.730 -44.5847
324.600952 85.692 -44.5341
326.953156 85.654 -44.4756
329.322388 85.615 -44.4116
331.708801 85.576 -44.3425
334.112488 85.537 -44.2671
336.533600 85.498 -44.1815
338.972260 85.458 -44.0831
341.428589 85.418 -43.9690
343.902710 85.378 -43.8428
346.394775 85.340 -43.7074
348.904907 85.303 -43.5699
351.433228 85.268 -43.4308
353.979858 85.235 -43.2985
356.544952 85.204 -43.1721
359.128632 85.174 -43.0530
361.731018 85.145 -42.9433
364.352264 85.119 -42.8409
366.992523 85.093 -42.7492
369.651917 85.069 -42.6630
372.330566 85.044 -42.5938
375.028625 85.017 -42.5255
377.746246 84.989 -42.4675
380.483551 84.959 -42.4101
383.240692 84.927 -42.3530
386.017822 84.894 -42.2889
388.815063 84.860 -42.2138
391.632568 84.825 -42.1358
394.470490 84.791 -42.0478
397.328979 84.756 -41.9518
400.208191 84.722 -41.8516
403.108276 84.688 -41.7413
406.029358 84.654 -41.6317
408.971619 84.620 -41.5235
411.935181 84.587 -41.4161
414.920227 84.555 -41.3057
417.926910 84.523 -41.2005
420.955383 84.492 -41.0918
424.005798 84.462 -40.9869
427.078308 84.431 -40.8788
430.173096 84.402 -40.7682
433.290314 84.373 -40.6565
436.430115 84.344 -40.5406
439.592682 84.315 -40.4287
442.778137 84.287 -40.3206
445.986694 84.259 -40.2151
449.218506 84.232 -40.1065
452.473724 84.204 -39.9994
455.752533 84.177 -39.8934
459.055115 84.150 -39.7888
462.381622 84.124 -39.6769
465.732239 84.098 -39.5670
469.107117 84.072 -39.4564
472.506470 84.046 -39.3401
475.930450 84.021 -39.2302
479.379242 83.996 -39.1223
482.853027 83.971 -39.0176
486.351990 83.948 -38.9188
489.876282 83.924 -38.8179
493.426117 83.900 -38.7178
497.001678 83.875 -38.6243
500.603149 83.851 -38.5238
504.230713 83.827 -38.4270
507.884583 83.803 -38.3329
511.564911 83.778 -38.2453
515.271912 83.754 -38.1595
519.005798 83.729 -38.0746
522.766724 83.704 -37.9976
526.554932 83.678 -37.9157
530.370544 83.652 -37.8418
534.213806 83.625 -37.7614
538.084961 83.598 -37.6871
541.984131 83.569 -37.6138
545.911560 83.540 -37.5333
549.867432 83.510 -37.4548
553.851990 83.479 -37.3748
557.865417 83.447 -37.2908
561.907959 83.414 -37.1991
565.979797 83.379 -37.1034
570.081116 83.344 -36.9989
574.212158 83.308 -36.8831
578.373108 83.271 -36.7539
582.564209 83.233 -36.6091
586.785706 83.196 -36.4477
591.037781 83.158 -36.2758
595.320679 83.120 -36.0912
599.634644 83.083 -35.8926
603.979858 83.047 -35.6838
608.356567 83.012 -35.4625
612.764954 82.978 -35.2274
617.205322 82.947 -34.9841
621.677856 82.918 -34.7256
626.182800 82.891 -34.4571
630.720398 82.866 -34.1791
635.290833 82.844 -33.8988
639.894409 82.824 -33.6176
644.531372 82.806 -33.3353
649.201904 82.791 -33.0536
653.906311 82.777 -32.7738
658.644775 82.765 -32.4912
663.417603 82.755 -32.2116
668.224976 82.746 -31.9331
673.067200 82.738 -31.6574
677.944519 82.732 -31.3851
682.857178 82.727 -31.1172
687.805420 82.722 -30.8531
692.789551 82.719 -30.5872
697.809814 82.717 -30.3305
702.866455 82.716 -30.0737
707.959717 82.716 -29.8191
713.089905 82.717 -29.5685
718.257263 82.720 -29.3222
723.462036 82.723 -29.0701
728.704529 82.727 -28.8261
733.985046 82.732 -28.5866
739.303833 82.738 -28.3442
744.661133 82.744 -28.1041
750.057251 82.751 -27.8679
755.492493 82.759 -27.6327
760.967102 82.768 -27.4034
766.481384 82.778 -27.1767
772.035645 82.789 -26.9531
777.630127 82.801 -26.7275
783.265137 82.814 -26.5063
788.940979 82.828 -26.2805
794.657959 82.843 -26.0618
800.416382 82.859 -25.8455
806.216553 82.876 -25.6258
812.058716 82.894 -25.4091
817.943237 82.913 -25.1883
823.870361 82.933 -24.9683
829.840454 82.954 -24.7538
835.853821 82.976 -24.5391
841.910767 83.000 -24.3285
848.011597 83.024 -24.1172
854.156616 83.049 -23.9151
860.346191 83.075 -23.7158
866.580627 83.103 -23.5204
872.860229 83.133 -23.3285
879.185364 83.164 -23.1453
885.556274 83.196 -22.9617
891.973389 83.231 -22.7872
898.437012 83.266 -22.6086
904.947449 83.303 -22.4351
911.505066 83.340 -22.2706
918.110229 83.379 -22.1044
924.763245 83.418 -21.9470
931.464478 83.459 -21.7887
938.214233 83.501 -21.6427
945.012939 83.545 -21.5055
951.860901 83.591 -21.3803
958.758484 83.638 -21.2565
965.706055 83.687 -21.1450
972.703979 83.736 -21.0361
979.752563 83.787 -20.9334
986.852234 83.839 -20.8461
994.003357 83.892 -20.7649
1001.206299 83.945 -20.6947
1008.461426 84.000 -20.6324
1015.769165 84.055 -20.5879
1023.129822 84.112 -20.5483
1030.543823 84.169 -20.5184
1038.011597 84.228 -20.5016
1045.533447 84.287 -20.4948
1053.109863 84.348 -20.4945
1060.741089 84.408 -20.5109
1068.427612 84.470 -20.5361
1076.169922 84.532 -20.5670
1083.968262 84.595 -20.6137
1091.823120 84.659 -20.6735
1099.734863 84.722 -20.7415
1107.703979 84.786 -20.8201
1115.730835 84.851 -20.9132
1123.815918 84.916 -21.0138
1131.959595 84.980 -21.1245
1140.162231 85.046 -21.2546
1148.424316 85.111 -21.3833
1156.746216 85.176 -21.5277
1165.128418 85.241 -21.6793
1173.571411 85.307 -21.8416
1182.075562 85.372 -22.0165
1190.641357 85.438 -22.1950
1199.269287 85.503 -22.3903
1207.959717 85.568 -22.5940
1216.713135 85.633 -22.8030
1225.529907 85.698 -23.0248
1234.410645 85.763 -23.2500
1243.355713 85.827 -23.4873
1252.365601 85.892 -23.7292
1261.440796 85.957 -23.9846
1270.581665 86.021 -24.2383
1279.788818 86.085 -24.5038
1289.062744 86.150 -24.7788
1298.403809 86.214 -25.0576
1307.812622 86.278 -25.3414
1317.289551 86.343 -25.6376
1326.835205 86.407 -25.9307
1336.449951 86.472 -26.2320
1346.134399 86.538 -26.5394
1355.889038 86.604 -26.8592
1365.714355 86.671 -27.1838
1375.610840 86.738 -27.5159
1385.579102 86.806 -27.8524
1395.619629 86.873 -28.1993
1405.732910 86.940 -28.5457
1415.919434 87.007 -28.8968
1426.179810 87.074 -29.2482
1436.514526 87.140 -29.6113
1446.924072 87.207 -29.9734
1457.409058 87.275 -30.3543
1467.970093 87.343 -30.7389
1478.607666 87.411 -31.1316
1489.322266 87.480 -31.5196
1500.114502 87.549 -31.9144
1510.984985 87.619 -32.3162
1521.934204 87.689 -32.7323
1532.962769 87.759 -33.1455
1544.071289 87.830 -33.5710
1555.260254 87.902 -34.0009
1566.530273 87.974 -34.4372
1577.881958 88.047 -34.8704
1589.315918 88.121 -35.3254
1600.832764 88.195 -35.7815
1612.433105 88.271 -36.2381
1624.117432 88.347 -36.7089
1635.886475 88.425 -37.1851
1647.740723 88.504 -37.6725
1659.680908 88.584 -38.1626
1671.707642 88.665 -38.6649
1683.821533 88.748 -39.1765
1696.023193 88.832 -39.6982
1708.313232 88.918 -40.2196
1720.692383 89.006 -40.7580
1733.161255 89.095 -41.3071
1745.720459 89.186 -41.8786
1758.370728 89.280 -42.4597
1771.112549 89.376 -43.0625
1783.946777 89.474 -43.6713
1796.874023 89.574 -44.2967
1809.894897 89.676 -44.9624
1823.010132 89.781 -45.6395
1836.220459 89.888 -46.3397
1849.526489 89.997 -47.0723
1862.928955 90.107 -47.8286
1876.428467 90.219 -48.6263
1890.025879 90.333 -49.4524
1903.721802 90.447 -50.3225
1917.516968 90.562 -51.2279
1931.412109 90.676 -52.1796
1945.407959 90.789 -53.1682
1959.505127 90.901 -54.2019
1973.704468 91.011 -55.2769
1988.006714 91.118 -56.3882
2002.412598 91.222 -57.5443
2016.922852 91.323 -58.7339
2031.538330 91.419 -59.9603
2046.259644 91.510 -61.2149
2061.087646 91.597 -62.4953
2076.023193 91.678 -63.7916
2091.066895 91.755 -65.1187
2106.219727 91.826 -66.4539
2121.482178 91.892 -67.8116
2136.855225 91.953 -69.1635
2152.339844 92.009 -70.5223
2167.936523 92.061 -71.8752
2183.646240 92.109 -73.2510
2199.469727 92.152 -74.6111
2215.407959 92.193 -75.9717
2231.461670 92.230 -77.3258
2247.631836 92.265 -78.6695
2263.919189 92.297 -80.0051
2280.324463 92.327 -81.3293
2296.848633 92.356 -82.6558
2313.492432 92.383 -83.9802
2330.256836 92.408 -85.2989
2347.142822 92.433 -86.6096
2364.151123 92.457 -87.9106
2381.282715 92.481 -89.2036
2398.538574 92.504 -90.5026
2415.919434 92.527 -91.7940
2433.426270 92.550 -93.0777
2451.059814 92.574 -94.3604
2468.821289 92.598 -95.6494
2486.711426 92.622 -96.9299
2504.731201 92.647 -98.2333
2522.881592 92.673 -99.5326
2541.163330 92.699 -100.8280
2559.577637 92.727 -102.1235
2578.125488 92.755 -103.4093
2596.807617 92.785 -104.7515
2615.625244 92.816 -106.0786
2634.579102 92.848 -107.4194
2653.670410 92.881 -108.7571
2672.899902 92.916 -110.1047
2692.268799 92.952 -111.4722
2711.778076 92.990 -112.8718
2731.428711 93.029 -114.2802
2751.221680 93.070 -115.7006
2771.158203 93.113 -117.1432
2791.239258 93.156 -118.6191
2811.465820 93.202 -120.1095
2831.838867 93.248 -121.6235
2852.359619 93.296 -123.1800
2873.029053 93.346 -124.7569
2893.848145 93.396 -126.3715
2914.818115 93.447 -128.0376
2935.940186 93.498 -129.7055
2957.215332 93.550 -131.4473
2978.644531 93.601 -133.2248
3000.229004 93.653 -135.0530
3021.969971 93.703 -136.9120
3043.868408 93.752 -138.8351
3065.925537 93.798 -140.8255
3088.142578 93.842 -142.8533
3110.520508 93.883 -144.9298
3133.060547 93.920 -147.0822
3155.763916 93.952 -149.2932
3178.631836 93.978 -151.5443
3201.665527 93.997 -153.8590
3224.866211 94.009 -156.2346
3248.234863 94.011 -158.6681
3271.772949 94.004 -161.1502
3295.481445 93.986 -163.6783
3319.361816 93.955 -166.2462
3343.415283 93.912 -168.8494
3367.643066 93.854 -171.4755
3392.046387 93.783 -174.0993
3416.626465 93.698 -176.7329
3441.384766 93.599 -179.3651
3466.322510 93.490 178.0366
3491.440918 93.369 175.4355
3516.741455 93.239 172.8451
3542.225098 93.097 170.2754
3567.893555 92.945 167.7168
3593.748047 92.780 165.1513
3619.789795 92.602 162.6423
3646.020264 92.411 160.1597
3672.440918 92.208 157.6984
3699.052979 91.992 155.3024
3725.857910 91.765 152.9758
3752.856934 91.527 150.7026
3780.051758 91.281 148.5186
3807.443604 91.026 146.3981
3835.033936 90.763 144.3580
3862.824219 90.494 142.4065
3890.815918 90.220 140.5251
3919.010254 89.942 138.7286
3947.408936 89.661 137.0322
3976.013428 89.378 135.3945
4004.825195 89.094 133.8649
4033.845703 88.811 132.4072
4063.076660 88.530 131.0146
4092.519287 88.250 129.7136
4122.175293 87.974 128.4762
4152.046387 87.701 127.3035
4182.133789 87.431 126.1721
4212.439453 87.164 125.0967
4242.964355 86.900 124.0734
4273.710449 86.639 123.1072
4304.679688 86.382 122.1830
4335.873047 86.129 121.2878
4367.292480 85.880 120.4559
4398.939453 85.635 119.6518
4430.815918 85.395 118.8901
4462.923340 85.159 118.1729
4495.263672 84.928 117.4795
4527.838379 84.701 116.8340
4560.648926 84.479 116.2189
4593.697266 84.260 115.6391
4626.984863 84.046 115.0925
4660.513672 83.836 114.5955
4694.285645 83.630 114.1041
4728.302246 83.429 113.6861
4762.565430 83.234 113.2826
4797.077148 83.044 112.9216
4831.838867 82.860 112.5886
4866.852539 82.682 112.2997
4902.119629 82.511 112.0234
4937.642578 82.347 111.7876
4973.422852 82.191 111.5606
5009.462402 82.041 111.3621
5045.763184 81.898 111.1696
5082.326660 81.762 110.9994
5119.155273 81.632 110.8472
5156.250977 81.510 110.7006
5193.615234 81.394 110.5668
5231.250488 81.285 110.4555
5269.158203 81.182 110.3576
5307.340820 81.086 110.2521
5345.799805 80.997 110.1761
5384.537598 80.915 110.0978
5423.556152 80.840 110.0271
5462.857422 80.772 109.9727
5502.443359 80.712 109.9178
5542.316406 80.659 109.8688
5582.478516 80.613 109.8436
5622.931641 80.576 109.7974
5663.677734 80.546 109.7683
5704.719238 80.525 109.7451
5746.058105 80.512 109.7286
5787.696289 80.507 109.7234
5829.636230 80.512 109.6952
5871.880371 80.525 109.6816
5914.430664 80.548 109.6640
5957.289062 80.580 109.6398
6000.458008 80.622 109.6158
6043.939941 80.674 109.6149
6087.736816 80.737 109.5685
6131.851074 80.811 109.5522
6176.285156 80.897 109.5052
6221.041016 80.994 109.4645
6266.121094 81.104 109.4081
6311.527832 81.227 109.3420
6357.263672 81.363 109.2629
6403.331055 81.515 109.1597
6449.732422 81.681 109.0392
6496.469727 81.864 108.8983
6543.545898 82.063 108.7558
6590.962891 82.279 108.5482
6638.723633 82.514 108.3202
6686.830566 82.768 108.0592
6735.286133 83.043 107.7308
6784.092773 83.339 107.3536
6833.252930 83.657 106.9425
6882.769531 84.000 106.4591
6932.645020 84.368 105.8995
6982.881836 84.765 105.2389
7033.482910 85.191 104.4977
7084.450195 85.649 103.6374
7135.787109 86.142 102.6453
7187.496094 86.672 101.5138
7239.579590 87.242 100.1925
7292.040527 87.854 98.6505
7344.881836 88.508 96.8358
7398.105957 89.204 94.7198
7451.715820 89.940 92.2189
7505.713867 90.712 89.2535
7560.103516 91.511 85.7822
7614.887207 92.326 81.6999
7670.067871 93.140 76.9481
7725.648438 93.935 71.5145
7781.631836 94.690 65.3762
7838.020508 95.383 58.5380
7894.817871 95.991 51.0661
7952.026855 96.496 43.0312
8009.650391 96.880 34.5892
8067.691406 97.135 25.8630
8126.153320 97.257 17.0801
8185.038574 97.252 8.3992
8244.350586 97.135 -0.0446
8304.092773 96.923 -8.0912
8364.267578 96.642 -15.6962
8424.878906 96.316 -22.8188
8485.928711 95.969 -29.4595
8547.420898 95.624 -35.6928
8609.359375 95.295 -41.5818
8671.746094 94.994 -47.2404
8734.584961 94.726 -52.7581
8797.878906 94.490 -58.2419
8861.631836 94.279 -63.7783
8925.846680 94.084 -69.4469
8990.527344 93.892 -75.2740
9055.676758 93.690 -81.2964
9121.297852 93.461 -87.4858
9187.394531 93.195 -93.8004
9253.969727 92.880 -100.2095
9321.027344 92.507 -106.6102
9388.571289 92.074 -112.9359
9456.604492 91.579 -119.1024
9525.130859 91.025 -125.0220
9594.154297 90.419 -130.6517
9663.677734 89.768 -135.9009
9733.705078 89.083 -140.7377
9804.239258 88.374 -145.1648
9875.285156 87.652 -149.1417
9946.845703 86.927 -152.7041
10018.924805 86.208 -155.8718
10091.526367 85.504 -158.6589
10164.653320 84.822 -161.1055
10238.310547 84.167 -163.2483
10312.501953 83.545 -165.1367
10387.230469 82.958 -166.7908
10462.500977 82.409 -168.2480
10538.316406 81.900 -169.5552
10614.681641 81.432 -170.7360
10691.599609 81.004 -171.8054
10769.075195 80.619 -172.8076
10847.112305 80.275 -173.7875
10925.714844 79.974 -174.7344
11004.886719 79.716 -175.6915
11084.632812 79.501 -176.6774
11164.957031 79.331 -177.7150
11245.863281 79.204 -178.8740
11327.355469 79.123 179.8442
11409.438477 79.087 178.4227
11492.116211 79.097 176.7651
11575.392578 79.153 174.8701
11659.272461 79.251 172.6642
11743.760742 79.390 170.0989
11828.861328 79.564 167.1061
11914.578125 79.766 163.6295
12000.916016 79.984 159.6295
12087.879883 80.206 155.0660
12175.473633 80.416 149.9268
12263.702148 80.599 144.2272
12352.570312 80.736 137.9960
12442.082031 80.812 131.3092
12532.242188 80.812 124.2885
12623.055664 80.727 117.0093
12714.527344 80.552 109.6718
12806.662109 80.287 102.3628
12899.464844 79.939 95.2604
12992.939453 79.519 88.4767
13087.091797 79.041 82.0914
13181.925781 78.524 76.1974
13277.447266 77.986 70.8122
13373.661133 77.449 65.9483
13470.572266 76.930 61.5910
13568.185547 76.446 57.6925
13666.505859 76.013 54.2006
13765.539062 75.645 51.0460
13865.290039 75.351 48.1320
13965.763672 75.142 45.3860
14066.965820 75.023 42.6814
14168.900391 74.998 39.8815
14271.574219 75.067 36.8656
14374.992188 75.227 33.4579
14479.159180 75.465 29.5338
14584.081055 75.762 24.8774
14689.763672 76.092 19.3879
14796.211914 76.419 12.9770
14903.431641 76.704 5.6296
15011.427734 76.905 -2.6317
15120.207031 76.982 -11.6613
15229.774414 76.902 -21.2415
15340.135742 76.642 -31.1150
15451.296875 76.194 -40.9450
15563.263672 75.562 -50.5048
15676.041016 74.764 -59.5215
15789.635742 73.825 -67.8610
15904.053711 72.774 -75.3862
16019.300781 71.642 -82.1466
16135.382812 70.458 -88.1844
16252.306641 69.250 -93.6475
16370.077148 68.041 -98.7294
16488.701172 66.849 -103.6461
16608.185547 65.685 -108.7131
16728.535156 64.558 -114.1774
16849.757812 63.469 -120.2933
16971.857422 62.416 -127.3113
17094.841797 61.396 -135.4109
17218.718750 60.409 -144.7791
17343.492188 59.458 -155.4354
17469.169922 58.551 -167.3228
17595.757812 57.703 179.8629
17723.263672 56.932 166.6115
17851.693359 56.254 153.6245
17981.054688 55.683 141.5234
18111.353516 55.218 130.8003
18242.595703 54.852 121.7000
18374.789062 54.568 114.2559
18507.939453 54.348 108.3926
18642.054688 54.175 103.9771
18777.142578 54.034 100.7866
18913.208984 53.917 98.6838
19050.261719 53.818 97.4377
19188.308594 53.733 96.8882
19327.355469 53.661 96.7595
19467.410156 53.602 96.8173
19608.478516 53.556 96.6486
19750.570312 53.523 95.7415
19893.691406 53.500 93.4646
20037.849609 0.000 449.1489
