* Measurement data measured by REW V5.30.4
* Source: Headset (CX31993 HIFI AUDIO), MICROPHONE (Master Volume), L, volume: 1.000
* Format: 256k Log Swept Sine, 1 sweep at -12.0 dBFS with no timing reference
* Dated: 05 28, 24 1:05:59 PM
* REW Settings:
*  C-weighting compensation: Off
*  Target level: 75.0 dB
* Note: ; 
* Measurement: Galaxy Buds2 Clear L
* Smoothing: 1/12 octave
* Frequency Step: 96 ppo
* Start Frequency: 20.141602 Hz
*
* Freq(Hz) SPL(dB) Phase(degrees)
20.141602 87.747 -123.6298
20.287556 87.740 -123.7573
20.434568 87.729 -123.8689
20.582645 87.718 -123.9644
20.731796 87.709 -124.0468
20.882027 87.703 -124.1227
21.033346 87.703 -124.2011
21.185762 87.708 -124.2922
21.339283 87.718 -124.4047
21.493916 87.733 -124.5444
21.649670 87.750 -124.7132
21.806553 87.769 -124.9080
21.964573 87.787 -125.1214
22.123737 87.803 -125.3424
22.284056 87.817 -125.5582
22.445536 87.827 -125.7557
22.608185 87.835 -125.9245
22.772013 87.841 -126.0578
22.937029 87.847 -126.1538
23.103241 87.854 -126.2169
23.270657 87.863 -126.2565
23.439285 87.875 -126.2859
23.609137 87.889 -126.3203
23.780218 87.905 -126.3740
23.952539 87.920 -126.4584
24.126110 87.934 -126.5798
24.300938 87.944 -126.7390
24.477032 87.949 -126.9310
24.654402 87.950 -127.1465
24.833057 87.946 -127.3737
25.013008 87.938 -127.6000
25.194263 87.928 -127.8149
25.376831 87.918 -128.0109
25.560722 87.910 -128.1849
25.745945 87.907 -128.3384
25.932510 87.907 -128.4759
26.120428 87.913 -128.6040
26.309708 87.922 -128.7289
26.500359 87.933 -128.8553
26.692390 87.944 -128.9844
26.885815 87.953 -129.1144
27.080641 87.959 -129.2405
27.276878 87.961 -129.3562
27.474539 87.959 -129.4549
27.673630 87.954 -129.5313
27.874165 87.947 -129.5828
28.076153 87.941 -129.6104
28.279604 87.937 -129.6184
28.484529 87.937 -129.6145
28.690941 87.943 -129.6084
28.898848 87.955 -129.6105
29.108261 87.972 -129.6303
29.319191 87.994 -129.6750
29.531651 88.019 -129.7481
29.745649 88.044 -129.8490
29.961199 88.066 -129.9725
30.178310 88.084 -130.1099
30.396996 88.095 -130.2501
30.617264 88.098 -130.3813
30.839128 88.094 -130.4940
31.062601 88.084 -130.5820
31.287693 88.069 -130.6451
31.514416 88.052 -130.6881
31.742783 88.034 -130.7205
31.972803 88.018 -130.7536
32.204491 88.006 -130.7971
32.437859 87.997 -130.8566
32.672916 87.991 -130.9320
32.909679 87.991 -131.0177
33.148155 87.995 -131.1052
33.388359 88.004 -131.1868
33.630306 88.019 -131.2579
33.874004 88.039 -131.3191
34.119469 88.064 -131.3755
34.366711 88.089 -131.4338
34.615746 88.113 -131.4991
34.866585 88.132 -131.5729
35.119244 88.145 -131.6530
35.373734 88.149 -131.7361
35.630066 88.148 -131.8216
35.888256 88.143 -131.9150
36.148315 88.138 -132.0278
36.410259 88.133 -132.1745
36.674103 88.130 -132.3649
36.939857 88.128 -132.5964
37.207539 88.123 -132.8499
37.477161 88.115 -133.0901
37.748737 88.104 -133.2736
38.022282 88.092 -133.3614
38.297806 88.083 -133.3318
38.575329 88.081 -133.1907
38.854862 88.089 -132.9711
39.136421 88.106 -132.7248
39.420021 88.129 -132.5055
39.705673 88.151 -132.3528
39.993397 88.165 -132.2823
40.283207 88.169 -132.2856
40.575115 88.161 -132.3385
40.869141 88.146 -132.4130
41.165295 88.129 -132.4884
41.463596 88.117 -132.5567
41.764057 88.114 -132.6220
42.066696 88.121 -132.6939
42.371529 88.135 -132.7797
42.678570 88.153 -132.8792
42.987835 88.170 -132.9838
43.299343 88.182 -133.0806
43.613110 88.187 -133.1579
43.929150 88.185 -133.2106
44.247478 88.177 -133.2422
44.568115 88.167 -133.2630
44.891075 88.157 -133.2861
45.216373 88.149 -133.3217
45.544029 88.145 -133.3730
45.874062 88.144 -133.4343
46.206486 88.146 -133.4935
46.541317 88.151 -133.5363
46.878574 88.159 -133.5517
47.218277 88.167 -133.5368
47.560440 88.175 -133.4977
47.905083 88.182 -133.4465
48.252224 88.186 -133.3961
48.601879 88.185 -133.3536
48.954067 88.177 -133.3166
49.308807 88.165 -133.2744
49.666119 88.150 -133.2137
50.026020 88.136 -133.1279
50.388531 88.129 -133.0249
50.753666 88.131 -132.9296
51.121449 88.142 -132.8763
51.491894 88.159 -132.8963
51.865025 88.178 -133.0038
52.240860 88.191 -133.1886
52.619419 88.195 -133.4186
53.000721 88.188 -133.6497
53.384785 88.172 -133.8380
53.771633 88.151 -133.9503
54.161285 88.128 -133.9692
54.553761 88.107 -133.8951
54.949081 88.092 -133.7447
55.347263 88.084 -133.5478
55.748333 88.082 -133.3407
56.152309 88.084 -133.1574
56.559212 88.087 -133.0213
56.969063 88.089 -132.9404
57.381886 88.087 -132.9084
57.797699 88.082 -132.9105
58.216526 88.075 -132.9277
58.638386 88.067 -132.9406
59.063305 88.058 -132.9304
59.491302 88.047 -132.8814
59.922401 88.032 -132.7841
60.356625 88.013 -132.6402
60.793995 87.993 -132.4664
61.234531 87.974 -132.2948
61.678261 87.962 -132.1655
62.125206 87.959 -132.1126
62.575390 87.963 -132.1472
63.028835 87.969 -132.2466
63.485569 87.969 -132.3621
63.945610 87.957 -132.4420
64.408989 87.932 -132.4613
64.875725 87.897 -132.4385
65.345840 87.857 -132.4270
65.819366 87.820 -132.4828
66.296318 87.790 -132.6303
66.776726 87.769 -132.8536
67.260620 87.756 -133.1203
67.748016 87.752 -133.4167
68.238945 87.751 -133.7630
68.733429 87.756 -134.2009
69.231499 87.773 -134.7714
69.733177 87.811 -135.4981
70.238495 87.874 -136.3624
70.747475 87.948 -137.2664
71.260139 88.006 -138.0128
71.776520 88.020 -138.3532
72.296638 87.980 -138.1051
72.820526 87.897 -137.2754
73.348213 87.791 -136.0912
73.879723 87.680 -134.8863
74.415085 87.573 -133.9207
74.954330 87.477 -133.2800
75.497482 87.397 -132.9054
76.044571 87.335 -132.6830
76.595619 87.287 -132.5117
77.150665 87.246 -132.3350
77.709732 87.208 -132.1480
78.272850 87.171 -131.9822
78.840050 87.136 -131.8724
79.411354 87.104 -131.8292
79.986801 87.075 -131.8386
80.566422 87.050 -131.8804
81.150238 87.025 -131.9416
81.738289 86.996 -132.0169
82.330597 86.955 -132.1055
82.927200 86.904 -132.2096
83.528122 86.844 -132.3348
84.133400 86.787 -132.4912
84.743065 86.746 -132.6924
85.357147 86.732 -132.9461
85.975677 86.747 -133.2375
86.598694 86.786 -133.5219
87.226227 86.840 -133.7373
87.858307 86.903 -133.8280
88.494965 86.968 -133.7576
89.136238 87.030 -133.5119
89.782158 87.082 -133.1018
90.432755 87.119 -132.5691
91.088066 87.135 -131.9818
91.748131 87.127 -131.4160
92.412979 87.095 -130.9332
93.082642 87.040 -130.5683
93.757156 86.962 -130.3369
94.436562 86.870 -130.2550
95.120888 86.774 -130.3462
95.810173 86.692 -130.6183
96.504456 86.642 -131.0217
97.203766 86.632 -131.4361
97.908142 86.651 -131.7117
98.617622 86.671 -131.7438
99.332245 86.663 -131.5310
100.052048 86.612 -131.1823
100.777069 86.523 -130.8622
101.507339 86.418 -130.7010
102.242905 86.329 -130.7164
102.983795 86.279 -130.7938
103.730057 86.278 -130.7398
104.481728 86.313 -130.3930
105.238846 86.353 -129.7298
106.001450 86.370 -128.9048
106.769577 86.347 -128.1999
107.543274 86.303 -127.8901
108.322578 86.275 -128.0700
109.107529 86.300 -128.5546
109.898170 86.373 -128.9816
110.694534 86.448 -129.0804
111.496674 86.469 -128.8363
112.304626 86.412 -128.3599
113.118431 86.306 -127.6490
113.938133 86.219 -126.5879
114.763779 86.206 -125.2253
115.595406 86.253 -123.9330
116.433060 86.289 -123.1287
117.276779 86.237 -122.8675
118.126617 86.067 -122.7903
118.982613 85.798 -122.4798
119.844810 85.485 -121.8538
120.713257 85.188 -121.1645
121.587997 84.963 -120.6643
122.469070 84.839 -120.4448
123.356529 84.799 -120.5667
124.250420 84.796 -121.1221
125.150787 84.791 -122.0742
126.057678 84.756 -123.1085
126.971146 84.676 -123.7701
127.891228 84.559 -123.7943
128.817978 84.431 -123.2538
129.751450 84.313 -122.3774
130.691681 84.214 -121.2932
131.638733 84.162 -119.9912
132.592636 84.208 -118.4607
133.553452 84.375 -116.7785
134.521240 84.622 -115.1139
135.496033 84.885 -113.6896
136.477890 85.118 -112.6860
137.466858 85.298 -112.1573
138.462997 85.404 -112.0507
139.466354 85.436 -112.2873
140.476990 85.415 -112.7724
141.494949 85.371 -113.3747
142.520279 85.328 -113.9700
143.553040 85.294 -114.4675
144.593277 85.270 -114.8019
145.641052 85.248 -114.9541
146.696426 85.225 -114.9660
147.759445 85.200 -114.9033
148.830170 85.178 -114.8196
149.908661 85.158 -114.7504
150.994965 85.136 -114.7039
152.089142 85.105 -114.6649
153.191238 85.063 -114.6158
154.301331 85.011 -114.5427
155.419464 84.953 -114.4303
156.545700 84.895 -114.2694
157.680099 84.840 -114.0663
158.822708 84.791 -113.8362
159.973602 84.749 -113.5893
161.132843 84.713 -113.3237
162.300476 84.681 -113.0353
163.476578 84.650 -112.7291
164.661194 84.618 -112.4127
165.854401 84.585 -112.0839
167.056244 84.552 -111.7344
168.266800 84.515 -111.3640
169.486130 84.476 -110.9870
170.714294 84.437 -110.6256
171.951355 84.402 -110.2963
173.197388 84.371 -110.0010
174.452454 84.346 -109.7247
175.716614 84.322 -109.4421
176.989929 84.299 -109.1325
178.272476 84.276 -108.7889
179.564316 84.253 -108.4187
180.865509 84.229 -108.0390
182.176132 84.204 -107.6682
183.496262 84.180 -107.3069
184.825958 84.158 -106.9442
186.165283 84.144 -106.5781
187.514313 84.140 -106.2110
188.873123 84.147 -105.8472
190.241776 84.162 -105.5011
191.620346 84.185 -105.1970
193.008911 84.209 -104.9565
194.407532 84.231 -104.7818
195.816284 84.241 -104.6446
197.235245 84.233 -104.4902
198.664490 84.202 -104.2568
200.104095 84.152 -103.9050
201.554138 84.087 -103.4415
203.014679 84.016 -102.9187
204.485809 83.944 -102.4043
205.967590 83.881 -101.9519
207.460114 83.831 -101.5846
208.963455 83.796 -101.2943
210.477692 83.776 -101.0503
212.002899 83.764 -100.8158
213.539154 83.754 -100.5674
215.086548 83.740 -100.3017
216.645157 83.723 -100.0233
218.215057 83.707 -99.7294
219.796341 83.694 -99.4029
221.389069 83.683 -99.0268
222.993347 83.671 -98.6101
224.609253 83.656 -98.1819
226.236862 83.640 -97.7605
227.876266 83.627 -97.3390
229.527557 83.618 -96.9015
231.190811 83.611 -96.4403
232.866119 83.605 -95.9474
234.553558 83.597 -95.4118
236.253235 83.589 -94.8428
237.965225 83.585 -94.2752
239.689621 83.590 -93.7479
241.426514 83.608 -93.2887
243.175995 83.641 -92.9162
244.938141 83.684 -92.6391
246.713058 83.734 -92.4526
248.500839 83.788 -92.3451
250.301575 83.845 -92.3012
252.115356 83.900 -92.2911
253.942291 83.947 -92.2723
255.782455 83.984 -92.2068
257.635956 84.009 -92.0826
259.502899 84.028 -91.9283
261.383362 84.041 -91.7841
263.277466 84.050 -91.6675
265.185272 84.053 -91.5744
267.106903 84.048 -91.5005
269.042480 84.037 -91.4456
270.992065 84.025 -91.4086
272.955780 84.020 -91.3884
274.933716 84.025 -91.3809
276.925995 84.037 -91.3778
278.932709 84.052 -91.3735
280.953979 84.067 -91.3637
282.989899 84.080 -91.3364
285.040558 84.095 -91.2675
287.106079 84.114 -91.1268
289.186554 84.137 -90.9053
291.282104 84.160 -90.6469
293.392853 84.182 -90.4126
295.518890 84.199 -90.2362
297.660339 84.212 -90.1240
299.817322 84.220 -90.0669
301.989929 84.225 -90.0487
304.178284 84.228 -90.0531
306.382477 84.230 -90.0682
308.602661 84.234 -90.0870
310.838928 84.238 -90.1047
313.091400 84.243 -90.1194
315.360199 84.248 -90.1328
317.645416 84.255 -90.1487
319.947205 84.264 -90.1683
322.265686 84.275 -90.1904
324.600952 84.287 -90.2144
326.953156 84.299 -90.2431
329.322388 84.311 -90.2809
331.708801 84.322 -90.3303
334.112488 84.333 -90.3925
336.533600 84.342 -90.4685
338.972260 84.350 -90.5604
341.428589 84.355 -90.6671
343.902710 84.359 -90.7829
346.394775 84.362 -90.8996
348.904907 84.366 -91.0131
351.433228 84.372 -91.1254
353.979858 84.380 -91.2423
356.544952 84.388 -91.3710
359.128632 84.396 -91.5158
361.731018 84.404 -91.6765
364.352264 84.411 -91.8493
366.992523 84.417 -92.0305
369.651917 84.422 -92.2142
372.330566 84.427 -92.3942
375.028625 84.432 -92.5706
377.746246 84.438 -92.7499
380.483551 84.443 -92.9441
383.240692 84.449 -93.1628
386.017822 84.454 -93.4063
388.815063 84.459 -93.6681
391.632568 84.464 -93.9410
394.470490 84.468 -94.2195
397.328979 84.472 -94.5006
400.208191 84.476 -94.7854
403.108276 84.479 -95.0787
406.029358 84.483 -95.3869
408.971619 84.486 -95.7144
411.935181 84.487 -96.0608
414.920227 84.486 -96.4198
417.926910 84.485 -96.7831
420.955383 84.483 -97.1434
424.005798 84.482 -97.4988
427.078308 84.482 -97.8540
430.173096 84.484 -98.2192
433.290314 84.489 -98.6062
436.430115 84.494 -99.0208
439.592682 84.499 -99.4553
442.778137 84.501 -99.8959
445.986694 84.501 -100.3340
449.218506 84.499 -100.7714
452.473724 84.497 -101.2149
455.752533 84.495 -101.6696
459.055115 84.493 -102.1373
462.381622 84.491 -102.6168
465.732239 84.489 -103.1062
469.107117 84.487 -103.6040
472.506470 84.483 -104.1084
475.930450 84.480 -104.6177
479.379242 84.477 -105.1298
482.853027 84.477 -105.6431
486.351990 84.478 -106.1661
489.876282 84.482 -106.7204
493.426117 84.485 -107.3213
497.001678 84.486 -107.9602
500.603149 84.483 -108.6129
504.230713 84.477 -109.2565
507.884583 84.466 -109.8793
511.564911 84.450 -110.4829
515.271912 84.432 -111.0809
519.005798 84.412 -111.6907
522.766724 84.393 -112.3225
526.554932 84.378 -112.9766
530.370544 84.367 -113.6492
534.213806 84.357 -114.3383
538.084961 84.349 -115.0428
541.984131 84.341 -115.7618
545.911560 84.333 -116.4944
549.867432 84.325 -117.2404
553.851990 84.317 -118.0006
557.865417 84.309 -118.7760
561.907959 84.300 -119.5679
565.979797 84.289 -120.3774
570.081116 84.277 -121.2025
574.212158 84.264 -122.0386
578.373108 84.252 -122.8816
582.564209 84.241 -123.7313
586.785706 84.230 -124.5896
591.037781 84.218 -125.4578
595.320679 84.206 -126.3369
599.634644 84.192 -127.2284
603.979858 84.178 -128.1345
608.356567 84.164 -129.0571
612.764954 84.150 -129.9964
617.205322 84.135 -130.9504
621.677856 84.121 -131.9163
626.182800 84.106 -132.8914
630.720398 84.091 -133.8734
635.290833 84.077 -134.8606
639.894409 84.063 -135.8541
644.531372 84.049 -136.8601
649.201904 84.035 -137.8862
653.906311 84.022 -138.9379
658.644775 84.010 -140.0175
663.417603 83.999 -141.1259
668.224976 83.990 -142.2621
673.067200 83.982 -143.4216
677.944519 83.972 -144.5947
682.857178 83.961 -145.7729
687.805420 83.947 -146.9537
692.789551 83.931 -148.1397
697.809814 83.915 -149.3353
702.866455 83.899 -150.5445
707.959717 83.883 -151.7705
713.089905 83.866 -153.0153
718.257263 83.849 -154.2802
723.462036 83.832 -155.5665
728.704529 83.814 -156.8756
733.985046 83.796 -158.2069
739.303833 83.778 -159.5575
744.661133 83.761 -160.9245
750.057251 83.746 -162.3071
755.492493 83.733 -163.7059
760.967102 83.719 -165.1199
766.481384 83.706 -166.5472
772.035645 83.692 -167.9877
777.630127 83.678 -169.4450
783.265137 83.665 -170.9236
788.940979 83.653 -172.4258
794.657959 83.642 -173.9539
800.416382 83.632 -175.5099
806.216553 83.622 -177.0956
812.058716 83.612 -178.7096
817.943237 83.602 179.6534
823.870361 83.591 178.0003
829.840454 83.579 176.3367
835.853821 83.566 174.6658
841.910767 83.552 172.9894
848.011597 83.536 171.3100
854.156616 83.521 169.6326
860.346191 83.507 167.9637
866.580627 83.495 166.3094
872.860229 83.487 164.6720
879.185364 83.484 163.0483
885.556274 83.488 161.4296
891.973389 83.500 159.8035
898.437012 83.521 158.1552
904.947449 83.552 156.4675
911.505066 83.591 154.7219
918.110229 83.639 152.8998
924.763245 83.693 150.9841
931.464478 83.752 148.9639
938.214233 83.811 146.8405
945.012939 83.868 144.6255
951.860901 83.922 142.3355
958.758484 83.972 139.9855
965.706055 84.018 137.5869
972.703979 84.059 135.1483
979.752563 84.098 132.6754
986.852234 84.134 130.1711
994.003357 84.169 127.6355
1001.206299 84.203 125.0656
1008.461426 84.237 122.4570
1015.769165 84.272 119.8084
1023.129822 84.306 117.1220
1030.543823 84.341 114.4000
1038.011597 84.377 111.6432
1045.533447 84.414 108.8503
1053.109863 84.451 106.0190
1060.741089 84.489 103.1479
1068.427612 84.527 100.2364
1076.169922 84.566 97.2839
1083.968262 84.604 94.2878
1091.823120 84.642 91.2428
1099.734863 84.680 88.1452
1107.703979 84.716 84.9940
1115.730835 84.754 81.7923
1123.815918 84.792 78.5447
1131.959595 84.832 75.2547
1140.162231 84.873 71.9218
1148.424316 84.915 68.5419
1156.746216 84.958 65.1112
1165.128418 85.000 61.6284
1173.571411 85.043 58.0933
1182.075562 85.085 54.5052
1190.641357 85.125 50.8627
1199.269287 85.166 47.1658
1207.959717 85.205 43.4162
1216.713135 85.243 39.6142
1225.529907 85.281 35.7592
1234.410645 85.317 31.8506
1243.355713 85.353 27.8882
1252.365601 85.389 23.8730
1261.440796 85.425 19.8054
1270.581665 85.461 15.6846
1279.788818 85.497 11.5098
1289.062744 85.533 7.2813
1298.403809 85.569 2.9999
1307.812622 85.604 -1.3347
1317.289551 85.639 -5.7242
1326.835205 85.673 -10.1705
1336.449951 85.706 -14.6740
1346.134399 85.738 -19.2342
1355.889038 85.769 -23.8499
1365.714355 85.800 -28.5213
1375.610840 85.829 -33.2517
1385.579102 85.859 -38.0450
1395.619629 85.887 -42.9026
1405.732910 85.915 -47.8221
1415.919434 85.942 -52.7982
1426.179810 85.968 -57.8260
1436.514526 85.995 -62.9045
1446.924072 86.022 -68.0372
1457.409058 86.050 -73.2297
1467.970093 86.079 -78.4879
1478.607666 86.108 -83.8159
1489.322266 86.137 -89.2143
1500.114502 86.164 -94.6811
1510.984985 86.191 -100.2133
1521.934204 86.216 -105.8090
1532.962769 86.240 -111.4692
1544.071289 86.263 -117.1946
1555.260254 86.285 -122.9849
1566.530273 86.307 -128.8402
1577.881958 86.328 -134.7620
1589.315918 86.347 -140.7499
1600.832764 86.366 -146.8025
1612.433105 86.383 -152.9183
1624.117432 86.401 -159.1003
1635.886475 86.419 -165.3534
1647.740723 86.437 -171.6819
1659.680908 86.456 -178.0861
1671.707642 86.474 175.4362
1683.821533 86.493 168.8867
1696.023193 86.511 162.2651
1708.313232 86.530 155.5718
1720.692383 86.548 148.8068
1733.161255 86.566 141.9677
1745.720459 86.585 135.0508
1758.370728 86.603 128.0531
1771.112549 86.621 120.9728
1783.946777 86.639 113.8098
1796.874023 86.656 106.5657
1809.894897 86.673 99.2429
1823.010132 86.689 91.8433
1836.220459 86.705 84.3688
1849.526489 86.720 76.8196
1862.928955 86.735 69.1934
1876.428467 86.750 61.4869
1890.025879 86.765 53.6956
1903.721802 86.780 45.8173
1917.516968 86.796 37.8516
1931.412109 86.811 29.7993
1945.407959 86.827 21.6603
1959.505127 86.844 13.4329
1973.704468 86.861 5.1139
1988.006714 86.880 -3.3003
2002.412598 86.898 -11.8106
2016.922852 86.917 -20.4150
2031.538330 86.936 -29.1113
2046.259644 86.954 -37.9006
2061.087646 86.973 -46.7867
2076.023193 86.991 -55.7727
2091.066895 87.010 -64.8588
2106.219727 87.029 -74.0414
2121.482178 87.049 -83.3204
2136.855225 87.069 -92.7000
2152.339844 87.091 -102.1863
2167.936523 87.113 -111.7845
2183.646240 87.135 -121.4968
2199.469727 87.156 -131.3218
2215.407959 87.177 -141.2565
2231.461670 87.198 -151.2993
2247.631836 87.219 -161.4519
2263.919189 87.239 -171.7178
2280.324463 87.258 177.9004
2296.848633 87.278 167.4011
2313.492432 87.299 156.7839
2330.256836 87.319 146.0474
2347.142822 87.340 135.1909
2364.151123 87.361 124.2156
2381.282715 87.383 113.1200
2398.538574 87.404 101.9026
2415.919434 87.426 90.5614
2433.426270 87.447 79.0956
2451.059814 87.467 67.5038
2468.821289 87.487 55.7844
2486.711426 87.507 43.9352
2504.731201 87.526 31.9551
2522.881592 87.546 19.8424
2541.163330 87.565 7.5953
2559.577637 87.585 -4.7889
2578.125488 87.604 -17.3132
2596.807617 87.623 -29.9796
2615.625244 87.641 -42.7902
2634.579102 87.659 -55.7468
2653.670410 87.676 -68.8511
2672.899902 87.691 -82.1034
2692.268799 87.705 -95.5034
2711.778076 87.717 -109.0514
2731.428711 87.726 -122.7476
2751.221680 87.732 -136.5929
2771.158203 87.736 -150.5890
2791.239258 87.738 -164.7378
2811.465820 87.737 -179.0408
2831.838867 87.733 166.5021
2852.359619 87.726 151.8921
2873.029053 87.716 137.1323
2893.848145 87.703 122.2250
2914.818115 87.688 107.1704
2935.940186 87.670 91.9657
2957.215332 87.650 76.6074
2978.644531 87.626 61.0956
3000.229004 87.598 45.4346
3021.969971 87.567 29.6309
3043.868408 87.531 13.6895
3065.925537 87.493 -2.3884
3088.142578 87.452 -18.6011
3110.520508 87.409 -34.9462
3133.060547 87.364 -51.4200
3155.763916 87.319 -68.0215
3178.631836 87.276 -84.7506
3201.665527 87.235 -101.6110
3224.866211 87.196 -118.6082
3248.234863 87.163 -135.7539
3271.772949 87.133 -153.0645
3295.481445 87.108 -170.5582
3319.361816 87.087 171.7463
3343.415283 87.069 153.8345
3367.643066 87.051 135.6962
3392.046387 87.032 117.3269
3416.626465 87.011 98.7294
3441.384766 86.986 79.9117
3466.322510 86.956 60.8849
3491.440918 86.921 41.6598
3516.741455 86.881 22.2457
3542.225098 86.837 2.6508
3567.893555 86.788 -17.1194
3593.748047 86.736 -37.0619
3619.789795 86.681 -57.1759
3646.020264 86.624 -77.4634
3672.440918 86.565 -97.9292
3699.052979 86.505 -118.5791
3725.857910 86.443 -139.4155
3752.856934 86.380 -160.4370
3780.051758 86.316 178.3562
3807.443604 86.253 156.9619
3835.033936 86.189 135.3735
3862.824219 86.126 113.5830
3890.815918 86.064 91.5857
3919.010254 86.001 69.3784
3947.408936 85.938 46.9607
3976.013428 85.875 24.3337
4004.825195 85.811 1.4978
4033.845703 85.747 -21.5481
4063.076660 85.684 -44.8042
4092.519287 85.621 -68.2703
4122.175293 85.558 -91.9458
4152.046387 85.496 -115.8296
4182.133789 85.434 -139.9219
4212.439453 85.374 -164.2244
4242.964355 85.315 171.2603
4273.710449 85.258 146.5269
4304.679688 85.203 121.5669
4335.873047 85.150 96.3723
4367.292480 85.100 70.9358
4398.939453 85.053 45.2534
4430.815918 85.007 19.3225
4462.923340 84.965 -6.8611
4495.263672 84.924 -33.3003
4527.838379 84.884 -59.9973
4560.648926 84.846 -86.9517
4593.697266 84.808 -114.1621
4626.984863 84.770 -141.6230
4660.513672 84.732 -169.3289
4694.285645 84.696 162.7271
4728.302246 84.662 134.5493
4762.565430 84.631 106.1382
4797.077148 84.606 77.4915
4831.838867 84.587 48.6030
4866.852539 84.576 19.4624
4902.119629 84.573 -9.9429
4937.642578 84.578 -39.6238
4973.422852 84.592 -69.5906
5009.462402 84.614 -99.8489
5045.763184 84.646 -130.4048
5082.326660 84.687 -161.2622
5119.155273 84.737 167.5737
5156.250977 84.796 136.0989
5193.615234 84.864 104.3069
5231.250488 84.942 72.1907
5269.158203 85.031 39.7441
5307.340820 85.130 6.9602
5345.799805 85.241 -26.1689
5384.537598 85.364 -59.6543
5423.556152 85.501 -93.5122
5462.857422 85.652 -127.7629
5502.443359 85.816 -162.4326
5542.316406 85.991 162.4543
5582.478516 86.177 126.8762
5622.931641 86.370 90.8154
5663.677734 86.568 54.2563
5704.719238 86.767 17.1848
5746.058105 86.965 -20.4080
5787.696289 87.158 -58.5266
5829.636230 87.342 -97.1677
5871.880371 87.515 -136.3201
5914.430664 87.674 -175.9663
5957.289062 87.815 143.9182
6000.458008 87.938 103.3606
6043.939941 88.041 62.3882
6087.736816 88.125 21.0308
6131.851074 88.191 -20.6860
6176.285156 88.241 -62.7407
6221.041016 88.276 -105.1152
6266.121094 88.300 -147.7964
6311.527832 88.316 169.2236
6357.263672 88.326 125.9497
6403.331055 88.333 82.3813
6449.732422 88.342 38.5156
6496.469727 88.354 -5.6543
6543.545898 88.373 -50.1357
6590.962891 88.401 -94.9399
6638.723633 88.441 -140.0830
6686.830566 88.497 174.4194
6735.286133 88.569 128.5498
6784.092773 88.662 82.2886
6833.252930 88.776 35.6143
6882.769531 88.915 -11.4990
6932.645020 89.081 -59.0825
6982.881836 89.276 -107.1753
7033.482910 89.499 -155.8232
7084.450195 89.752 154.9243
7135.787109 90.032 105.0146
7187.496094 90.337 54.3975
7239.579590 90.661 3.0254
7292.040527 90.998 -49.1392
7344.881836 91.343 -102.1274
7398.105957 91.688 -155.9614
7451.715820 92.025 149.3472
7505.713867 92.347 93.7979
7560.103516 92.646 37.3901
7614.887207 92.911 -19.8633
7670.067871 93.134 -77.9399
7725.648438 93.302 -136.7954
7781.631836 93.408 163.6382
7838.020508 93.444 103.4551
7894.817871 93.411 42.7583
7952.026855 93.311 -18.3535
8009.650391 93.154 -79.8008
8067.691406 92.952 -141.5381
8126.153320 92.716 156.4551
8185.038574 92.459 94.1724
8244.350586 92.189 31.5879
8304.092773 91.916 -31.3379
8364.267578 91.646 -94.6528
8424.878906 91.383 -158.4126
8485.928711 91.127 137.3267
8547.420898 90.881 72.5117
8609.359375 90.639 7.0933
8671.746094 90.398 -58.9658
8734.584961 90.152 -125.6909
8797.878906 89.891 166.9160
8861.631836 89.609 98.8647
8925.846680 89.299 30.1885
8990.527344 88.955 -39.0664
9055.676758 88.578 -108.8516
9121.297852 88.166 -179.1128
9187.394531 87.725 110.1904
9253.969727 87.259 39.0894
9321.027344 86.776 -32.4058
9388.571289 86.281 -104.2954
9456.604492 85.783 -176.5947
9525.130859 85.287 110.6689
9594.154297 84.798 37.4648
9663.677734 84.319 -36.2407
9733.705078 83.853 -110.4814
9804.239258 83.401 174.7114
9875.285156 82.962 99.3101
9946.845703 82.535 23.2915
10018.924805 82.119 -53.3589
10091.526367 81.713 -130.6562
10164.653320 81.313 151.3926
10238.310547 80.921 72.7822
10312.501953 80.533 -6.4883
10387.230469 80.151 -86.4180
10462.500977 79.773 -167.0049
10538.316406 79.401 111.7510
10614.681641 79.036 29.8467
10691.599609 78.680 -52.7236
10769.075195 78.335 -135.9727
10847.112305 78.002 140.0840
10925.714844 77.684 55.4326
11004.886719 77.381 -29.9482
11084.632812 77.094 -116.0732
11164.957031 76.824 157.0459
11245.863281 76.570 69.3994
11327.355469 76.332 -19.0273
11409.438477 76.110 -108.2402
11492.116211 75.906 161.7500
11575.392578 75.720 70.9316
11659.272461 75.554 -20.7119
11743.760742 75.410 -113.2021
11828.861328 75.288 153.4336
11914.578125 75.190 59.1787
12000.916016 75.118 -35.9893
12087.879883 75.070 -132.0938
12175.473633 75.045 130.8486
12263.702148 75.043 32.8125
12352.570312 75.062 -66.2305
12442.082031 75.097 -166.3037
12532.242188 75.145 92.5664
12623.055664 75.200 -9.6348
12714.527344 75.253 -112.9170
12806.662109 75.296 142.7207
12899.464844 75.318 37.3027
12992.939453 75.311 -69.1318
13087.091797 75.268 -176.5215
13181.925781 75.189 75.2070
13277.447266 75.084 -33.8721
13373.661133 74.974 -143.7041
13470.572266 74.890 105.7217
13568.185547 74.864 -5.6436
13666.505859 74.925 -117.8994
13765.539062 75.086 128.8203
13865.290039 75.348 14.3848
13965.763672 75.705 -101.3184
14066.965820 76.146 141.6221
14168.900391 76.661 23.1426
14271.574219 77.244 -96.8096
14374.992188 77.887 141.7158
14479.159180 78.580 18.6641
14584.081055 79.307 -106.0176
14689.763672 80.046 127.6143
14796.211914 80.770 -0.4893
14903.431641 81.444 -130.3623
15011.427734 82.032 97.9980
15120.207031 82.494 -35.3760
15229.774414 82.798 -170.3799
15340.135742 82.917 53.1367
15451.296875 82.836 -84.6182
15563.263672 82.556 136.5830
15676.041016 82.093 -3.0576
15789.635742 81.472 -143.3994
15904.053711 80.727 75.6240
16019.300781 79.895 -65.9697
16135.382812 79.012 151.7969
16252.306641 78.114 8.8887
16370.077148 77.228 -134.7471
16488.701172 76.380 80.8184
16608.185547 75.585 -64.5020
16728.535156 74.855 149.1982
16849.757812 74.195 1.8252
16971.857422 73.607 -146.6953
17094.841797 73.090 63.5869
17218.718750 72.642 -87.3613
17343.492188 72.257 120.4336
17469.169922 71.931 -33.0625
17595.757812 71.661 172.1016
17723.263672 71.443 15.8438
17851.693359 71.275 -141.8945
17981.054688 71.154 58.8535
18111.353516 71.076 -101.9219
18242.595703 71.037 95.7930
18374.789062 71.031 -68.0020
18507.939453 71.054 126.6953
18642.054688 71.098 -40.1406
18777.142578 71.157 151.4160
18913.208984 71.224 -18.8340
19050.261719 71.292 168.7070
19188.308594 71.359 -6.4746
19327.355469 71.419 175.5352
19467.410156 71.471 -3.6074
19608.478516 71.513 179.7070
19750.570312 71.546 8.4629
19893.691406 71.567 -156.3984
20037.849609 0.000 45.1641
