* Measurement data measured by REW V5.30.4
* Source: Headset (2- CX31993 HIFI AUDIO), MICROPHONE (Master Volume), L, volume: 0.500
* Format: 256k Log Swept Sine, 1 sweep at -12.0 dBFS with no timing reference
* Dated: 08 28, 24 5:30:45 PM
* REW Settings:
*  C-weighting compensation: Off
*  Target level: 75.0 dB
* Note: ; 
* Measurement: Heartfield Blanc L
* Smoothing: 1/12 octave
* Frequency Step: 96 ppo
* Start Frequency: 20.141602 Hz
*
* Freq(Hz) SPL(dB) Phase(degrees)
20.141602 96.320 6.8031
20.287556 96.316 6.7263
20.434568 96.312 6.6141
20.582645 96.308 6.4754
20.731796 96.305 6.3167
20.882027 96.303 6.1412
21.033346 96.304 5.9493
21.185762 96.308 5.7406
21.339283 96.313 5.5143
21.493916 96.319 5.2715
21.649670 96.325 5.0152
21.806553 96.329 4.7508
21.964573 96.330 4.4863
22.123737 96.327 4.2311
22.284056 96.319 3.9952
22.445536 96.307 3.7879
22.608185 96.292 3.6164
22.772013 96.274 3.4848
22.937029 96.254 3.3930
23.103241 96.234 3.3362
23.270657 96.216 3.3056
23.439285 96.201 3.2890
23.609137 96.188 3.2720
23.780218 96.178 3.2407
23.952539 96.170 3.1828
24.126110 96.163 3.0896
24.300938 96.157 2.9572
24.477032 96.150 2.7864
24.654402 96.141 2.5828
24.833057 96.130 2.3551
25.013008 96.118 2.1140
25.194263 96.104 1.8704
25.376831 96.091 1.6337
25.560722 96.078 1.4106
25.745945 96.068 1.2045
25.932510 96.062 1.0156
26.120428 96.058 0.8411
26.309708 96.058 0.6768
26.500359 96.060 0.5180
26.692390 96.063 0.3612
26.885815 96.066 0.2039
27.080641 96.067 0.0460
27.276878 96.066 -0.1114
27.474539 96.062 -0.2663
27.673630 96.055 -0.4168
27.874165 96.046 -0.5619
28.076153 96.036 -0.7019
28.279604 96.025 -0.8390
28.484529 96.015 -0.9764
28.690941 96.005 -1.1178
28.898848 95.997 -1.2666
29.108261 95.990 -1.4245
29.319191 95.985 -1.5918
29.531651 95.979 -1.7666
29.745649 95.974 -1.9454
29.961199 95.969 -2.1240
30.178310 95.963 -2.2985
30.396996 95.958 -2.4657
30.617264 95.952 -2.6241
30.839128 95.945 -2.7742
31.062601 95.939 -2.9175
31.287693 95.933 -3.0568
31.514416 95.927 -3.1948
31.742783 95.920 -3.3340
31.972803 95.914 -3.4756
32.204491 95.906 -3.6198
32.437859 95.899 -3.7662
32.672916 95.891 -3.9133
32.909679 95.883 -4.0599
33.148155 95.875 -4.2047
33.388359 95.868 -4.3472
33.630306 95.861 -4.4873
33.874004 95.855 -4.6251
34.119469 95.848 -4.7614
34.366711 95.842 -4.8966
34.615746 95.836 -5.0313
34.866585 95.829 -5.1661
35.119244 95.823 -5.3012
35.373734 95.815 -5.4370
35.630066 95.808 -5.5739
35.888256 95.800 -5.7122
36.148315 95.792 -5.8521
36.410259 95.784 -5.9939
36.674103 95.777 -6.1375
36.939857 95.769 -6.2823
37.207539 95.762 -6.4279
37.477161 95.754 -6.5732
37.748737 95.747 -6.7174
38.022282 95.740 -6.8596
38.297806 95.733 -6.9992
38.575329 95.726 -7.1357
38.854862 95.719 -7.2694
39.136421 95.713 -7.4005
39.420021 95.706 -7.5300
39.705673 95.700 -7.6587
39.993397 95.694 -7.7875
40.283207 95.688 -7.9173
40.575115 95.682 -8.0483
40.869141 95.676 -8.1807
41.165295 95.670 -8.3141
41.463596 95.664 -8.4482
41.764057 95.657 -8.5827
42.066696 95.651 -8.7173
42.371529 95.644 -8.8522
42.678570 95.637 -8.9876
42.987835 95.631 -9.1234
43.299343 95.624 -9.2595
43.613110 95.617 -9.3955
43.929150 95.610 -9.5309
44.247478 95.604 -9.6653
44.568115 95.597 -9.7990
44.891075 95.590 -9.9323
45.216373 95.584 -10.0655
45.544029 95.577 -10.1989
45.874062 95.571 -10.3321
46.206486 95.564 -10.4643
46.541317 95.557 -10.5947
46.878574 95.550 -10.7230
47.218277 95.543 -10.8497
47.560440 95.537 -10.9758
47.905083 95.530 -11.1028
48.252224 95.524 -11.2321
48.601879 95.518 -11.3641
48.954067 95.513 -11.4987
49.308807 95.507 -11.6350
49.666119 95.501 -11.7714
50.026020 95.495 -11.9065
50.388531 95.489 -12.0392
50.753666 95.483 -12.1693
51.121449 95.477 -12.2976
51.491894 95.471 -12.4261
51.865025 95.464 -12.5568
52.240860 95.458 -12.6911
52.619419 95.451 -12.8290
53.000721 95.445 -12.9694
53.384785 95.438 -13.1100
53.771633 95.432 -13.2491
54.161285 95.427 -13.3859
54.553761 95.421 -13.5207
54.949081 95.416 -13.6548
55.347263 95.411 -13.7892
55.748333 95.405 -13.9247
56.152309 95.398 -14.0615
56.559212 95.391 -14.1998
56.969063 95.383 -14.3397
57.381886 95.376 -14.4807
57.797699 95.368 -14.6222
58.216526 95.361 -14.7630
58.638386 95.355 -14.9021
59.063305 95.349 -15.0392
59.491302 95.343 -15.1750
59.922401 95.337 -15.3108
60.356625 95.331 -15.4479
60.793995 95.324 -15.5869
61.234531 95.318 -15.7281
61.678261 95.312 -15.8712
62.125206 95.305 -16.0159
62.575390 95.299 -16.1614
63.028835 95.292 -16.3074
63.485569 95.285 -16.4533
63.945610 95.279 -16.5993
64.408989 95.272 -16.7453
64.875725 95.265 -16.8913
65.345840 95.258 -17.0368
65.819366 95.251 -17.1813
66.296318 95.244 -17.3243
66.776726 95.237 -17.4661
67.260620 95.230 -17.6073
67.748016 95.223 -17.7481
68.238945 95.216 -17.8885
68.733429 95.209 -18.0278
69.231499 95.202 -18.1653
69.733177 95.194 -18.3003
70.238495 95.187 -18.4335
70.747475 95.180 -18.5669
71.260139 95.173 -18.7046
71.776520 95.167 -18.8506
72.296638 95.161 -19.0069
72.820526 95.154 -19.1719
73.348213 95.148 -19.3416
73.879723 95.141 -19.5112
74.415085 95.134 -19.6778
74.954330 95.127 -19.8407
75.497482 95.120 -20.0009
76.044571 95.112 -20.1598
76.595619 95.105 -20.3181
77.150665 95.096 -20.4765
77.709732 95.088 -20.6350
78.272850 95.080 -20.7942
78.840050 95.073 -20.9548
79.411354 95.065 -21.1172
79.986801 95.057 -21.2811
80.566422 95.050 -21.4458
81.150238 95.042 -21.6104
81.738289 95.034 -21.7746
82.330597 95.027 -21.9387
82.927200 95.019 -22.1031
83.528122 95.011 -22.2676
84.133400 95.003 -22.4321
84.743065 94.995 -22.5958
85.357147 94.987 -22.7581
85.975677 94.979 -22.9193
86.598694 94.970 -23.0805
87.226227 94.962 -23.2433
87.858307 94.954 -23.4089
88.494965 94.945 -23.5773
89.136238 94.937 -23.7483
89.782158 94.927 -23.9211
90.432755 94.917 -24.0945
91.088066 94.907 -24.2675
91.748131 94.896 -24.4390
92.412979 94.885 -24.6087
93.082642 94.874 -24.7779
93.757156 94.864 -24.9489
94.436562 94.854 -25.1235
95.120888 94.844 -25.3011
95.810173 94.835 -25.4802
96.504456 94.826 -25.6588
97.203766 94.817 -25.8359
97.908142 94.807 -26.0120
98.617622 94.797 -26.1883
99.332245 94.787 -26.3653
100.052048 94.776 -26.5432
100.777069 94.764 -26.7216
101.507339 94.750 -26.9001
102.242905 94.735 -27.0793
102.983795 94.720 -27.2614
103.730057 94.705 -27.4491
104.481728 94.692 -27.6423
105.238846 94.679 -27.8379
106.001450 94.667 -28.0319
106.769577 94.654 -28.2227
107.543274 94.641 -28.4107
108.322578 94.627 -28.5977
109.107529 94.612 -28.7853
109.898170 94.596 -28.9752
110.694534 94.579 -29.1684
111.496674 94.562 -29.3643
112.304626 94.545 -29.5603
113.118431 94.527 -29.7546
113.938133 94.510 -29.9471
114.763779 94.493 -30.1394
115.595406 94.476 -30.3355
116.433060 94.459 -30.5422
117.276779 94.440 -30.7645
118.126617 94.420 -30.9983
118.982613 94.399 -31.2254
119.844810 94.378 -31.4213
120.713257 94.359 -31.5743
121.587997 94.341 -31.6985
122.469070 94.324 -31.8220
123.356529 94.307 -31.9636
124.250420 94.290 -32.1216
125.150787 94.271 -32.2804
126.057678 94.251 -32.4262
126.971146 94.230 -32.5558
127.891228 94.207 -32.6706
128.817978 94.181 -32.7671
129.751450 94.152 -32.8390
130.691681 94.118 -32.8843
131.638733 94.081 -32.9040
132.592636 94.041 -32.8969
133.553452 94.001 -32.8563
134.521240 93.962 -32.7723
135.496033 93.927 -32.6331
136.477890 93.898 -32.4290
137.466858 93.879 -32.1546
138.462997 93.874 -31.8122
139.466354 93.887 -31.4167
140.476990 93.923 -31.0019
141.494949 93.985 -30.6192
142.520279 94.072 -30.3300
143.553040 94.179 -30.1925
144.593277 94.298 -30.2487
145.641052 94.418 -30.5151
146.696426 94.529 -30.9805
147.759445 94.623 -31.6096
148.830170 94.695 -32.3519
149.908661 94.743 -33.1535
150.994965 94.770 -33.9681
152.089142 94.779 -34.7633
153.191238 94.773 -35.5201
154.301331 94.758 -36.2296
155.419464 94.736 -36.8893
156.545700 94.711 -37.4993
157.680099 94.684 -38.0604
158.822708 94.656 -38.5724
159.973602 94.627 -39.0359
161.132843 94.598 -39.4532
162.300476 94.567 -39.8299
163.476578 94.536 -40.1742
164.661194 94.504 -40.4969
165.854401 94.471 -40.8087
167.056244 94.438 -41.1176
168.266800 94.406 -41.4270
169.486130 94.375 -41.7360
170.714294 94.346 -42.0416
171.951355 94.317 -42.3422
173.197388 94.290 -42.6388
174.452454 94.264 -42.9332
175.716614 94.238 -43.2263
176.989929 94.213 -43.5181
178.272476 94.189 -43.8095
179.564316 94.165 -44.1012
180.865509 94.141 -44.3924
182.176132 94.117 -44.6815
183.496262 94.093 -44.9674
184.825958 94.069 -45.2502
186.165283 94.046 -45.5303
187.514313 94.023 -45.8087
188.873123 93.999 -46.0872
190.241776 93.976 -46.3674
191.620346 93.954 -46.6497
193.008911 93.931 -46.9336
194.407532 93.908 -47.2182
195.816284 93.884 -47.5028
197.235245 93.861 -47.7869
198.664490 93.838 -48.0703
200.104095 93.814 -48.3530
201.554138 93.791 -48.6345
203.014679 93.767 -48.9141
204.485809 93.744 -49.1916
205.967590 93.720 -49.4674
207.460114 93.696 -49.7426
208.963455 93.673 -50.0182
210.477692 93.649 -50.2954
212.002899 93.626 -50.5746
213.539154 93.604 -50.8560
215.086548 93.581 -51.1392
216.645157 93.558 -51.4241
218.215057 93.536 -51.7105
219.796341 93.512 -51.9983
221.389069 93.489 -52.2870
222.993347 93.465 -52.5764
224.609253 93.440 -52.8664
226.236862 93.415 -53.1570
227.876266 93.390 -53.4482
229.527557 93.364 -53.7394
231.190811 93.339 -54.0305
232.866119 93.313 -54.3207
234.553558 93.286 -54.6097
236.253235 93.260 -54.8975
237.965225 93.233 -55.1844
239.689621 93.206 -55.4711
241.426514 93.179 -55.7581
243.175995 93.151 -56.0449
244.938141 93.123 -56.3303
246.713058 93.094 -56.6127
248.500839 93.064 -56.8907
250.301575 93.034 -57.1636
252.115356 93.003 -57.4312
253.942291 92.970 -57.6934
255.782455 92.938 -57.9497
257.635956 92.905 -58.1992
259.502899 92.872 -58.4402
261.383362 92.838 -58.6701
263.277466 92.805 -58.8861
265.185272 92.772 -59.0854
267.106903 92.739 -59.2649
269.042480 92.708 -59.4215
270.992065 92.681 -59.5538
272.955780 92.658 -59.6638
274.933716 92.641 -59.7583
276.925995 92.633 -59.8494
278.932709 92.632 -59.9556
280.953979 92.640 -60.0991
282.989899 92.654 -60.2994
285.040558 92.671 -60.5660
287.106079 92.691 -60.8949
289.186554 92.708 -61.2749
291.282104 92.719 -61.6962
293.392853 92.724 -62.1486
295.518890 92.720 -62.6192
297.660339 92.708 -63.0944
299.817322 92.690 -63.5632
301.989929 92.666 -64.0182
304.178284 92.638 -64.4560
306.382477 92.608 -64.8755
308.602661 92.577 -65.2776
310.838928 92.544 -65.6646
313.091400 92.512 -66.0391
315.360199 92.480 -66.4037
317.645416 92.448 -66.7607
319.947205 92.417 -67.1112
322.265686 92.386 -67.4564
324.600952 92.355 -67.7969
326.953156 92.325 -68.1329
329.322388 92.294 -68.4646
331.708801 92.263 -68.7925
334.112488 92.233 -69.1170
336.533600 92.203 -69.4391
338.972260 92.172 -69.7595
341.428589 92.142 -70.0787
343.902710 92.112 -70.3963
346.394775 92.083 -70.7122
348.904907 92.054 -71.0265
351.433228 92.026 -71.3397
353.979858 91.997 -71.6522
356.544952 91.969 -71.9645
359.128632 91.942 -72.2766
361.731018 91.914 -72.5884
364.352264 91.886 -72.8999
366.992523 91.859 -73.2108
369.651917 91.831 -73.5213
372.330566 91.804 -73.8316
375.028625 91.776 -74.1420
377.746246 91.749 -74.4521
380.483551 91.721 -74.7617
383.240692 91.694 -75.0703
386.017822 91.666 -75.3778
388.815063 91.639 -75.6847
391.632568 91.611 -75.9912
394.470490 91.584 -76.2979
397.328979 91.557 -76.6047
400.208191 91.530 -76.9115
403.108276 91.502 -77.2176
406.029358 91.476 -77.5228
408.971619 91.449 -77.8266
411.935181 91.422 -78.1293
414.920227 91.395 -78.4310
417.926910 91.368 -78.7312
420.955383 91.341 -79.0295
424.005798 91.315 -79.3262
427.078308 91.288 -79.6217
430.173096 91.262 -79.9162
433.290314 91.236 -80.2108
436.430115 91.210 -80.5062
439.592682 91.184 -80.8014
442.778137 91.159 -81.0955
445.986694 91.134 -81.3888
449.218506 91.109 -81.6828
452.473724 91.085 -81.9791
455.752533 91.060 -82.2773
459.055115 91.035 -82.5755
462.381622 91.010 -82.8720
465.732239 90.985 -83.1661
469.107117 90.961 -83.4584
472.506470 90.937 -83.7502
475.930450 90.914 -84.0425
479.379242 90.891 -84.3365
482.853027 90.869 -84.6321
486.351990 90.846 -84.9284
489.876282 90.823 -85.2228
493.426117 90.799 -85.5133
497.001678 90.775 -85.7995
500.603149 90.751 -86.0839
504.230713 90.727 -86.3697
507.884583 90.704 -86.6580
511.564911 90.681 -86.9485
515.271912 90.659 -87.2402
519.005798 90.638 -87.5318
522.766724 90.617 -87.8227
526.554932 90.596 -88.1122
530.370544 90.575 -88.3999
534.213806 90.555 -88.6858
538.084961 90.535 -88.9700
541.984131 90.514 -89.2529
545.911560 90.494 -89.5348
549.867432 90.475 -89.8159
553.851990 90.455 -90.0965
557.865417 90.436 -90.3769
561.907959 90.417 -90.6574
565.979797 90.398 -90.9387
570.081116 90.380 -91.2212
574.212158 90.363 -91.5049
578.373108 90.346 -91.7897
582.564209 90.329 -92.0757
586.785706 90.312 -92.3624
591.037781 90.296 -92.6498
595.320679 90.281 -92.9380
599.634644 90.265 -93.2274
603.979858 90.250 -93.5182
608.356567 90.234 -93.8109
612.764954 90.219 -94.1057
617.205322 90.204 -94.4029
621.677856 90.189 -94.7026
626.182800 90.175 -95.0048
630.720398 90.160 -95.3094
635.290833 90.146 -95.6167
639.894409 90.132 -95.9270
644.531372 90.118 -96.2402
649.201904 90.103 -96.5565
653.906311 90.089 -96.8759
658.644775 90.074 -97.1982
663.417603 90.059 -97.5235
668.224976 90.043 -97.8520
673.067200 90.026 -98.1837
677.944519 90.009 -98.5184
682.857178 89.991 -98.8559
687.805420 89.972 -99.1962
692.789551 89.952 -99.5391
697.809814 89.932 -99.8846
702.866455 89.910 -100.2324
707.959717 89.886 -100.5818
713.089905 89.861 -100.9321
718.257263 89.833 -101.2816
723.462036 89.803 -101.6283
728.704529 89.771 -101.9694
733.985046 89.735 -102.3016
739.303833 89.696 -102.6212
744.661133 89.654 -102.9241
750.057251 89.609 -103.2060
755.492493 89.562 -103.4629
760.967102 89.512 -103.6904
766.481384 89.461 -103.8842
772.035645 89.408 -104.0409
777.630127 89.356 -104.1585
783.265137 89.304 -104.2356
788.940979 89.253 -104.2706
794.657959 89.204 -104.2618
800.416382 89.158 -104.2084
806.216553 89.115 -104.1115
812.058716 89.076 -103.9739
817.943237 89.043 -103.7992
823.870361 89.015 -103.5920
829.840454 88.995 -103.3581
835.853821 88.981 -103.1037
841.910767 88.974 -102.8356
848.011597 88.976 -102.5608
854.156616 88.984 -102.2860
860.346191 89.000 -102.0172
866.580627 89.022 -101.7596
872.860229 89.051 -101.5175
879.185364 89.085 -101.2939
885.556274 89.125 -101.0911
891.973389 89.169 -100.9107
898.437012 89.217 -100.7535
904.947449 89.268 -100.6201
911.505066 89.323 -100.5106
918.110229 89.380 -100.4250
924.763245 89.440 -100.3629
931.464478 89.503 -100.3239
938.214233 89.567 -100.3076
945.012939 89.634 -100.3136
951.860901 89.702 -100.3417
958.758484 89.772 -100.3912
965.706055 89.843 -100.4620
972.703979 89.916 -100.5535
979.752563 89.990 -100.6658
986.852234 90.064 -100.7984
994.003357 90.139 -100.9511
1001.206299 90.215 -101.1231
1008.461426 90.291 -101.3133
1015.769165 90.367 -101.5208
1023.129822 90.443 -101.7445
1030.543823 90.520 -101.9840
1038.011597 90.597 -102.2395
1045.533447 90.675 -102.5113
1053.109863 90.753 -102.7998
1060.741089 90.831 -103.1053
1068.427612 90.910 -103.4279
1076.169922 90.988 -103.7673
1083.968262 91.066 -104.1234
1091.823120 91.144 -104.4958
1099.734863 91.221 -104.8839
1107.703979 91.298 -105.2869
1115.730835 91.374 -105.7046
1123.815918 91.449 -106.1365
1131.959595 91.523 -106.5825
1140.162231 91.597 -107.0423
1148.424316 91.670 -107.5155
1156.746216 91.741 -108.0020
1165.128418 91.812 -108.5011
1173.571411 91.882 -109.0123
1182.075562 91.951 -109.5349
1190.641357 92.019 -110.0680
1199.269287 92.085 -110.6107
1207.959717 92.151 -111.1623
1216.713135 92.215 -111.7223
1225.529907 92.277 -112.2904
1234.410645 92.338 -112.8662
1243.355713 92.398 -113.4498
1252.365601 92.456 -114.0409
1261.440796 92.514 -114.6393
1270.581665 92.570 -115.2449
1279.788818 92.624 -115.8572
1289.062744 92.678 -116.4759
1298.403809 92.730 -117.1006
1307.812622 92.780 -117.7307
1317.289551 92.829 -118.3658
1326.835205 92.877 -119.0051
1336.449951 92.923 -119.6481
1346.134399 92.968 -120.2940
1355.889038 93.012 -120.9423
1365.714355 93.054 -121.5926
1375.610840 93.094 -122.2452
1385.579102 93.133 -122.9006
1395.619629 93.171 -123.5592
1405.732910 93.207 -124.2213
1415.919434 93.241 -124.8868
1426.179810 93.273 -125.5555
1436.514526 93.304 -126.2269
1446.924072 93.333 -126.9002
1457.409058 93.359 -127.5741
1467.970093 93.383 -128.2465
1478.607666 93.403 -128.9147
1489.322266 93.421 -129.5749
1500.114502 93.436 -130.2228
1510.984985 93.448 -130.8530
1521.934204 93.457 -131.4606
1532.962769 93.465 -132.0412
1544.071289 93.473 -132.5928
1555.260254 93.482 -133.1165
1566.530273 93.493 -133.6168
1577.881958 93.507 -134.1011
1589.315918 93.525 -134.5783
1600.832764 93.546 -135.0571
1612.433105 93.569 -135.5440
1624.117432 93.595 -136.0430
1635.886475 93.621 -136.5555
1647.740723 93.648 -137.0806
1659.680908 93.673 -137.6163
1671.707642 93.698 -138.1597
1683.821533 93.722 -138.7076
1696.023193 93.743 -139.2572
1708.313232 93.764 -139.8058
1720.692383 93.783 -140.3511
1733.161255 93.801 -140.8911
1745.720459 93.817 -141.4246
1758.370728 93.833 -141.9504
1771.112549 93.849 -142.4676
1783.946777 93.864 -142.9757
1796.874023 93.878 -143.4740
1809.894897 93.893 -143.9623
1823.010132 93.907 -144.4402
1836.220459 93.922 -144.9075
1849.526489 93.937 -145.3645
1862.928955 93.953 -145.8111
1876.428467 93.969 -146.2473
1890.025879 93.986 -146.6735
1903.721802 94.005 -147.0898
1917.516968 94.024 -147.4964
1931.412109 94.044 -147.8938
1945.407959 94.066 -148.2825
1959.505127 94.090 -148.6631
1973.704468 94.116 -149.0362
1988.006714 94.144 -149.4028
2002.412598 94.174 -149.7642
2016.922852 94.207 -150.1219
2031.538330 94.242 -150.4773
2046.259644 94.280 -150.8324
2061.087646 94.321 -151.1889
2076.023193 94.364 -151.5485
2091.066895 94.409 -151.9127
2106.219727 94.457 -152.2828
2121.482178 94.508 -152.6602
2136.855225 94.560 -153.0462
2152.339844 94.615 -153.4419
2167.936523 94.672 -153.8485
2183.646240 94.732 -154.2672
2199.469727 94.793 -154.6994
2215.407959 94.856 -155.1463
2231.461670 94.921 -155.6095
2247.631836 94.987 -156.0903
2263.919189 95.054 -156.5897
2280.324463 95.123 -157.1085
2296.848633 95.192 -157.6470
2313.492432 95.261 -158.2050
2330.256836 95.331 -158.7821
2347.142822 95.400 -159.3775
2364.151123 95.469 -159.9905
2381.282715 95.538 -160.6204
2398.538574 95.606 -161.2670
2415.919434 95.674 -161.9301
2433.426270 95.740 -162.6096
2451.059814 95.806 -163.3051
2468.821289 95.871 -164.0151
2486.711426 95.934 -164.7373
2504.731201 95.996 -165.4688
2522.881592 96.056 -166.2062
2541.163330 96.116 -166.9467
2559.577637 96.176 -167.6888
2578.125488 96.237 -168.4333
2596.807617 96.300 -169.1846
2615.625244 96.366 -169.9509
2634.579102 96.435 -170.7437
2653.670410 96.508 -171.5764
2672.899902 96.581 -172.4613
2692.268799 96.655 -173.4070
2711.778076 96.725 -174.4171
2731.428711 96.790 -175.4901
2751.221680 96.848 -176.6205
2771.158203 96.896 -177.7999
2791.239258 96.933 -179.0177
2811.465820 96.959 179.7384
2831.838867 96.971 178.4815
2852.359619 96.971 177.2253
2873.029053 96.959 175.9826
2893.848145 96.934 174.7649
2914.818115 96.898 173.5817
2935.940186 96.852 172.4413
2957.215332 96.797 171.3505
2978.644531 96.734 170.3155
3000.229004 96.662 169.3423
3021.969971 96.585 168.4363
3043.868408 96.501 167.6033
3065.925537 96.413 166.8487
3088.142578 96.321 166.1779
3110.520508 96.226 165.5963
3133.060547 96.131 165.1084
3155.763916 96.037 164.7181
3178.631836 95.945 164.4282
3201.665527 95.859 164.2400
3224.866211 95.779 164.1530
3248.234863 95.708 164.1648
3271.772949 95.648 164.2712
3295.481445 95.603 164.4659
3319.361816 95.573 164.7402
3343.415283 95.562 165.0830
3367.643066 95.572 165.4806
3392.046387 95.603 165.9160
3416.626465 95.659 166.3689
3441.384766 95.740 166.8156
3466.322510 95.846 167.2295
3491.440918 95.978 167.5821
3516.741455 96.135 167.8440
3542.225098 96.314 167.9866
3567.893555 96.512 167.9836
3593.748047 96.727 167.8127
3619.789795 96.953 167.4563
3646.020264 97.185 166.9029
3672.440918 97.420 166.1476
3699.052979 97.651 165.1923
3725.857910 97.873 164.0451
3752.856934 98.083 162.7203
3780.051758 98.277 161.2361
3807.443604 98.451 159.6147
3835.033936 98.604 157.8798
3862.824219 98.734 156.0559
3890.815918 98.840 154.1676
3919.010254 98.921 152.2386
3947.408936 98.979 150.2914
3976.013428 99.012 148.3473
4004.825195 99.024 146.4264
4033.845703 99.013 144.5479
4063.076660 98.983 142.7306
4092.519287 98.934 140.9929
4122.175293 98.869 139.3522
4152.046387 98.791 137.8239
4182.133789 98.704 136.4196
4212.439453 98.610 135.1453
4242.964355 98.515 133.9998
4273.710449 98.422 132.9744
4304.679688 98.334 132.0541
4335.873047 98.254 131.2201
4367.292480 98.182 130.4528
4398.939453 98.118 129.7348
4430.815918 98.062 129.0530
4462.923340 98.013 128.3993
4495.263672 97.969 127.7709
4527.838379 97.930 127.1694
4560.648926 97.894 126.5999
4593.697266 97.863 126.0690
4626.984863 97.837 125.5833
4660.513672 97.818 125.1473
4694.285645 97.807 124.7614
4728.302246 97.807 124.4218
4762.565430 97.819 124.1194
4797.077148 97.846 123.8412
4831.838867 97.888 123.5718
4866.852539 97.946 123.2951
4902.119629 98.019 122.9956
4937.642578 98.108 122.6595
4973.422852 98.211 122.2748
5009.462402 98.326 121.8315
5045.763184 98.454 121.3212
5082.326660 98.594 120.7369
5119.155273 98.743 120.0723
5156.250977 98.901 119.3217
5193.615234 99.067 118.4799
5231.250488 99.241 117.5417
5269.158203 99.420 116.5023
5307.340820 99.604 115.3567
5345.799805 99.791 114.1002
5384.537598 99.981 112.7283
5423.556152 100.171 111.2373
5462.857422 100.360 109.6241
5502.443359 100.547 107.8870
5542.316406 100.729 106.0253
5582.478516 100.904 104.0402
5622.931641 101.071 101.9338
5663.677734 101.228 99.7097
5704.719238 101.373 97.3723
5746.058105 101.504 94.9272
5787.696289 101.620 92.3800
5829.636230 101.718 89.7374
5871.880371 101.799 87.0067
5914.430664 101.858 84.1963
5957.289062 101.896 81.3170
6000.458008 101.910 78.3814
6043.939941 101.898 75.4050
6087.736816 101.859 72.4057
6131.851074 101.792 69.4034
6176.285156 101.696 66.4196
6221.041016 101.572 63.4766
6266.121094 101.420 60.5976
6311.527832 101.241 57.8055
6357.263672 101.037 55.1224
6403.331055 100.809 52.5692
6449.732422 100.561 50.1649
6496.469727 100.296 47.9257
6543.545898 100.017 45.8643
6590.962891 99.729 43.9900
6638.723633 99.434 42.3079
6686.830566 99.136 40.8193
6735.286133 98.841 39.5215
6784.092773 98.550 38.4080
6833.252930 98.268 37.4692
6882.769531 97.997 36.6930
6932.645020 97.741 36.0653
6982.881836 97.499 35.5703
7033.482910 97.276 35.1917
7084.450195 97.071 34.9133
7135.787109 96.885 34.7200
7187.496094 96.719 34.5981
7239.579590 96.572 34.5351
7292.040527 96.445 34.5196
7344.881836 96.338 34.5432
7398.105957 96.251 34.6006
7451.715820 96.183 34.6900
7505.713867 96.136 34.8105
7560.103516 96.111 34.9589
7614.887207 96.112 35.1250
7670.067871 96.140 35.2882
7725.648438 96.198 35.4167
7781.631836 96.286 35.4709
7838.020508 96.402 35.4126
7894.817871 96.541 35.2142
7952.026855 96.699 34.8649
8009.650391 96.873 34.3672
8067.691406 97.060 33.7297
8126.153320 97.262 32.9582
8185.038574 97.477 32.0518
8244.350586 97.709 31.0008
8304.092773 97.956 29.7877
8364.267578 98.219 28.3887
8424.878906 98.497 26.7759
8485.928711 98.786 24.9198
8547.420898 99.083 22.7915
8609.359375 99.382 20.3663
8671.746094 99.675 17.6261
8734.584961 99.955 14.5621
8797.878906 100.212 11.1776
8861.631836 100.438 7.4896
8925.846680 100.623 3.5297
8990.527344 100.760 -0.6559
9055.676758 100.842 -5.0084
9121.297852 100.865 -9.4589
9187.394531 100.828 -13.9330
9253.969727 100.733 -18.3553
9321.027344 100.582 -22.6560
9388.571289 100.383 -26.7734
9456.604492 100.144 -30.6590
9525.130859 99.875 -34.2788
9594.154297 99.586 -37.6153
9663.677734 99.289 -40.6674
9733.705078 98.994 -43.4518
9804.239258 98.712 -46.0024
9875.285156 98.451 -48.3689
9946.845703 98.215 -50.6125
10018.924805 98.008 -52.8004
10091.526367 97.827 -54.9957
10164.653320 97.667 -57.2484
10238.310547 97.522 -59.5867
10312.501953 97.383 -62.0145
10387.230469 97.246 -64.5156
10462.500977 97.107 -67.0659
10538.316406 96.968 -69.6475
10614.681641 96.832 -72.2597
10691.599609 96.702 -74.9200
10769.075195 96.576 -77.6556
10847.112305 96.453 -80.4917
10925.714844 96.330 -83.4443
11004.886719 96.203 -86.5193
11084.632812 96.069 -89.7173
11164.957031 95.926 -93.0428
11245.863281 95.773 -96.5137
11327.355469 95.607 -100.1567
11409.438477 95.420 -103.9932
11492.116211 95.203 -108.0215
11575.392578 94.943 -112.2129
11659.272461 94.633 -116.5160
11743.760742 94.265 -120.8655
11828.861328 93.835 -125.1892
11914.578125 93.340 -129.4138
12000.916016 92.782 -133.4662
12087.879883 92.162 -137.2747
12175.473633 91.483 -140.7665
12263.702148 90.750 -143.8679
12352.570312 89.968 -146.5024
12442.082031 89.146 -148.5938
12532.242188 88.295 -150.0705
12623.055664 87.431 -150.8754
12714.527344 86.571 -150.9786
12806.662109 85.737 -150.3906
12899.464844 84.951 -149.1721
12992.939453 84.233 -147.4333
13087.091797 83.601 -145.3212
13181.925781 83.064 -142.9976
13277.447266 82.626 -140.6151
13373.661133 82.284 -138.3013
13470.572266 82.032 -136.1531
13568.185547 81.862 -134.2416
13666.505859 81.766 -132.6191
13765.539062 81.736 -131.3264
13865.290039 81.765 -130.3967
13965.763672 81.846 -129.8619
14066.965820 81.974 -129.7585
14168.900391 82.142 -130.1316
14271.574219 82.340 -131.0328
14374.992188 82.558 -132.5140
14479.159180 82.777 -134.6147
14584.081055 82.979 -137.3488
14689.763672 83.139 -140.6893
14796.211914 83.232 -144.5560
14903.431641 83.234 -148.8026
15011.427734 83.127 -153.2087
15120.207031 82.902 -157.4789
15229.774414 82.568 -161.2589
15340.135742 82.161 -164.1946
15451.296875 81.748 -166.0687
15563.263672 81.415 -167.0077
15676.041016 81.228 -167.6020
15789.635742 81.184 -168.6700
15904.053711 81.210 -170.7472
16019.300781 81.210 -173.8168
16135.382812 81.116 -177.4821
16252.306641 80.907 178.7334
16370.077148 80.592 175.2172
16488.701172 80.197 172.2310
16608.185547 79.757 169.9253
16728.535156 79.307 168.3527
16849.757812 78.886 167.4745
16971.857422 78.526 167.1699
17094.841797 78.253 167.2595
17218.718750 78.084 167.5352
17343.492188 78.027 167.7859
17469.169922 78.084 167.8085
17595.757812 78.252 167.4113
17723.263672 78.519 166.4118
17851.693359 78.871 164.6411
17981.054688 79.282 161.9531
18111.353516 79.724 158.2379
18242.595703 80.161 153.4377
18374.789062 80.556 147.5577
18507.939453 80.872 140.6708
18642.054688 81.078 132.9119
18777.142578 81.150 124.4643
18913.208984 81.073 115.5389
19050.261719 80.844 106.3503
19188.308594 80.467 97.0991
19327.355469 79.957 87.9648
19467.410156 79.342 79.1141
19608.478516 78.666 70.7327
19750.570312 78.000 63.0766
19893.691406 77.449 56.5202
20037.849609 0.000 51.5234
