* Measurement data measured by REW V5.30.9
* Source: Microphone (Qudelix-5K USB DAC/MIC 44.1KHz), MICROPHONE (Master Volume), R, volume: 0.250
* Format: 256k Log Swept Sine, 1 sweep at -12.0 dBFS with no timing reference
* Dated: Jun 20, 2024 2:18:54 AM
* REW Settings:
*  C-weighting compensation: Off
*  Target level: 75.0 dB
* Note: 
* Measurement: L Jun 20
* Smoothing: None
* Frequency Step: 1/48 octave
* Start Frequency: 20.300 Hz
*
* Freq(Hz)	SPL(dB)	Phase(degrees)
20.299999	67.555	-146.5707
20.600000	67.571	-147.1589
20.900000	67.592	-147.7978
21.200001	67.629	-148.6026
21.400000	67.658	-149.2562
21.799999	67.714	-150.7918
22.000000	67.733	-151.6129
22.400000	67.741	-153.1713
22.700001	67.719	-154.0904
23.000000	67.688	-154.7216
23.299999	67.665	-155.1015
23.600000	67.663	-155.3610
24.000000	67.692	-155.8273
24.299999	67.722	-156.4248
24.700001	67.743	-157.5755
25.000000	67.734	-158.5733
25.400000	67.696	-159.8376
25.799999	67.662	-160.8281
26.200001	67.662	-161.5555
26.500000	67.690	-162.0384
26.900000	67.745	-162.7486
27.200001	67.780	-163.3671
27.600000	67.797	-164.2370
28.000000	67.777	-165.0305
28.500000	67.729	-165.7856
29.000000	67.702	-166.3817
29.500000	67.707	-167.0584
30.000000	67.712	-167.9249
30.400000	67.701	-168.6864
30.700001	67.685	-169.2437
31.100000	67.663	-169.9440
31.500000	67.655	-170.6355
32.000000	67.669	-171.5963
32.500000	67.692	-172.6988
33.000000	67.692	-173.7801
33.500000	67.653	-174.5889
34.000000	67.587	-174.9858
34.500000	67.526	-175.0829
35.000000	67.494	-175.2063
35.500000	67.493	-175.6649
36.000000	67.509	-176.5474
36.500000	67.527	-177.6975
37.000000	67.537	-178.8392
37.500000	67.536	-179.7515
38.200001	67.505	179.4474
38.700001	67.460	179.0974
39.500000	67.364	178.5545
40.000000	67.315	178.0627
40.599998	67.283	177.2572
41.200001	67.264	176.3469
41.799999	67.235	175.6016
42.500000	67.198	175.1465
43.099998	67.197	174.8446
43.700001	67.212	174.1825
44.400002	67.175	173.0442
45.000000	67.091	172.4434
45.500000	67.044	172.4239
46.200001	67.063	172.3876
46.799999	67.054	171.6694
47.500000	66.897	170.7381
48.200001	66.771	170.8073
48.700001	66.837	170.9030
49.400002	66.993	169.8180
50.000000	66.956	168.5038
50.799999	66.767	168.3489
51.500000	66.776	168.6277
52.200001	66.794	167.4279
53.000000	66.590	166.1028
53.799999	66.502	166.3220
54.500000	66.607	165.7150
55.200001	66.560	164.1967
56.000000	66.325	163.8447
57.000000	66.367	164.8393
58.000000	66.513	163.3855
59.000000	66.284	162.2332
60.000000	66.199	162.9261
60.799999	66.291	162.3089
61.500000	66.270	161.1129
62.200001	66.171	160.3390
63.000000	66.061	160.0721
64.000000	65.985	160.3371
65.000000	66.050	160.0483
66.000000	66.001	158.7124
67.000000	65.852	158.4213
68.000000	65.787	158.3562
69.000000	65.700	158.1078
70.000000	65.709	157.8228
71.000000	65.713	156.7312
72.000000	65.591	156.1137
73.000000	65.554	155.9166
74.000000	65.488	155.0826
75.000000	65.348	155.1010
76.199997	65.373	155.4300
77.500000	65.359	154.4095
78.800003	65.202	153.7720
80.000000	65.223	153.4831
81.199997	65.145	152.1182
82.500000	64.950	152.5609
83.800003	64.979	152.3754
85.000000	64.890	151.4466
86.199997	64.744	151.2474
87.500000	64.746	151.4286
88.500000	64.733	150.6443
90.000000	64.576	150.2365
91.199997	64.481	150.2821
92.500000	64.501	150.5169
93.800003	64.467	149.4786
95.000000	64.344	148.9342
96.199997	64.219	148.8399
97.500000	64.177	149.3783
98.800003	64.213	148.6718
100.000000	64.139	147.7454
101.500000	63.984	146.8695
103.000000	63.834	147.0948
104.400002	63.885	147.3121
106.000000	63.937	146.8900
107.500000	63.887	146.3741
109.000000	63.801	146.0658
110.599998	63.594	146.3532
112.000000	63.474	146.2574
113.800003	63.414	145.4577
115.000000	63.383	144.8360
117.199997	63.406	145.4059
118.000000	63.344	145.9608
120.599998	63.012	145.4052
122.000000	62.995	144.6912
124.099998	63.154	145.0106
125.000000	63.061	145.4942
126.500000	62.943	145.3686
128.000000	62.892	144.2332
131.500000	62.794	144.1439
132.000000	62.742	143.9129
134.000000	62.750	143.2837
136.000000	62.565	143.7387
138.000000	62.545	142.9559
140.000000	62.408	143.5620
143.000000	62.377	143.2434
145.000000	62.151	143.0609
147.500000	62.155	143.3194
150.000000	61.942	142.2588
152.500000	61.975	142.8401
155.000000	61.904	142.9810
157.500000	61.892	143.2692
160.000000	61.828	143.9498
162.500000	61.622	144.2231
165.000000	61.515	144.5340
167.500000	61.422	145.8124
170.000000	61.392	147.0499
172.500000	61.625	147.9549
175.000000	61.774	148.2597
177.500000	61.969	146.7545
180.000000	62.009	146.0257
182.500000	61.974	144.4312
185.000000	61.945	144.1807
187.500000	61.904	143.5378
190.000000	61.785	143.4900
192.500000	61.857	143.2554
195.000000	61.775	143.0615
197.500000	61.791	142.7120
200.000000	61.681	142.0193
203.000000	61.623	141.7915
206.000000	61.532	141.9159
209.000000	61.473	141.9091
212.000000	61.476	142.1348
214.000000	61.486	141.7873
218.000000	61.469	141.7892
220.000000	61.454	141.3975
224.000000	61.407	140.8796
227.000000	61.346	140.5491
230.000000	61.291	140.2537
233.000000	61.249	140.0546
236.000000	61.179	139.7691
240.000000	61.106	139.6395
243.000000	61.040	139.5066
247.000000	60.992	139.2736
250.000000	60.962	138.4402
254.000000	60.880	139.1281
258.000000	60.808	138.8587
262.000000	60.738	138.8312
265.000000	60.711	138.9609
269.000000	60.650	138.6962
272.000000	60.615	138.6461
276.000000	60.571	138.5638
280.000000	60.502	138.3392
285.000000	60.449	138.4504
290.000000	60.393	138.5287
295.000000	60.351	138.6266
300.000000	60.290	138.4141
304.000000	60.247	138.4002
307.000000	60.212	138.4701
311.000000	60.192	138.3574
315.000000	60.129	138.2687
320.000000	60.107	138.3080
325.000000	60.064	138.2654
330.000000	60.031	138.2759
335.000000	59.987	138.2738
340.000000	59.964	138.1761
345.000000	59.969	138.2234
350.000000	59.929	138.0249
355.000000	59.831	137.9901
360.000000	59.782	138.1068
365.000000	59.762	138.0605
370.000000	59.711	138.0482
375.000000	59.684	138.1304
382.000000	59.581	138.1791
387.000000	59.551	138.1966
395.000000	59.462	138.1180
400.000000	59.468	138.6744
406.000000	59.401	139.2723
412.000000	59.429	139.8939
418.000000	59.483	140.3669
425.000000	59.588	140.5901
431.000000	59.725	140.7576
437.000000	59.706	139.7896
444.000000	59.726	139.3815
450.000000	59.751	139.6033
455.000000	59.720	138.8769
462.000000	59.692	138.4619
468.000000	59.662	138.1454
475.000000	59.663	137.9823
482.000000	59.613	137.9308
487.000000	59.625	137.8433
494.000000	59.582	137.6390
500.000000	59.577	137.7114
508.000000	59.559	137.5599
515.000000	59.566	137.3901
522.000000	59.530	137.3705
530.000000	59.523	137.3315
538.000000	59.516	137.5441
545.000000	59.498	137.4418
552.000000	59.458	137.3822
560.000000	59.490	137.2332
570.000000	59.488	137.0554
580.000000	59.474	137.0927
590.000000	59.447	136.9719
600.000000	59.464	137.1183
608.000000	59.483	137.1340
615.000000	59.480	137.1164
622.000000	59.479	136.9565
630.000000	59.482	137.2274
640.000000	59.534	136.8403
650.000000	59.520	137.4554
660.000000	59.508	137.0378
670.000000	59.564	137.2558
680.000000	59.542	137.2053
690.000000	59.726	137.2043
700.000000	59.515	137.4920
710.000000	59.632	137.4362
720.000000	59.634	137.4420
730.000000	59.683	137.5422
740.000000	59.728	137.7666
750.000000	59.824	137.7228
762.000000	59.820	137.7802
775.000000	59.839	137.8075
788.000000	59.923	137.8059
800.000000	59.977	138.1118
812.000000	60.030	137.9867
825.000000	60.117	138.2299
838.000000	60.195	138.3317
850.000000	60.287	138.5480
862.000000	60.339	138.0491
875.000000	60.429	138.2334
885.000000	60.508	138.0865
900.000000	60.618	138.1367
912.000000	60.685	138.0807
925.000000	60.771	137.9208
938.000000	60.877	137.6455
950.000000	60.972	137.6122
962.000000	61.069	136.9962
975.000000	61.112	136.5512
988.000000	61.146	135.8919
1000.000000	61.179	135.5638
1015.000000	61.184	135.3491
1030.000000	61.209	135.3349
1044.000000	61.266	135.3339
1060.000000	61.364	135.4345
1075.000000	61.478	135.3929
1090.000000	61.575	135.4105
1106.000000	61.706	135.4175
1120.000000	61.762	135.0797
1138.000000	61.969	134.4737
1150.000000	62.104	133.8948
1172.000000	62.258	133.4285
1180.000000	62.305	133.2499
1206.000000	62.493	132.3912
1220.000000	62.601	131.7497
1241.000000	62.726	130.8837
1250.000000	62.812	130.6594
1265.000000	62.855	130.0947
1280.000000	62.997	129.0732
1315.000000	63.184	127.1894
1320.000000	63.239	127.2682
1340.000000	63.353	126.3188
1360.000000	63.457	125.3424
1380.000000	63.634	124.7325
1400.000000	63.670	123.4158
1430.000000	63.852	122.3180
1450.000000	63.880	121.2275
1475.000000	64.030	119.9383
1500.000000	64.141	118.8483
1525.000000	64.265	117.6321
1550.000000	64.366	116.3623
1575.000000	64.441	115.3229
1600.000000	64.571	113.9594
1625.000000	64.661	112.7790
1650.000000	64.782	111.5544
1675.000000	64.836	110.5389
1700.000000	64.971	109.3071
1725.000000	65.069	107.7137
1750.000000	65.157	107.0310
1775.000000	65.235	105.6552
1800.000000	65.326	104.7592
1825.000000	65.408	103.7098
1850.000000	65.506	102.4745
1875.000000	65.566	101.3681
1900.000000	65.684	100.0225
1925.000000	65.745	98.7025
1950.000000	65.851	97.8317
1975.000000	65.920	96.5581
2000.000000	66.009	95.3925
2030.000000	66.092	93.8073
2060.000000	66.188	92.5396
2090.000000	66.233	90.9285
2120.000000	66.329	89.4729
2140.000000	66.398	88.5173
2180.000000	66.493	86.4761
2200.000000	66.546	85.4636
2240.000000	66.613	83.4256
2270.000000	66.650	81.5696
2300.000000	66.706	80.2525
2330.000000	66.741	78.7488
2360.000000	66.774	76.9906
2400.000000	66.817	74.9625
2430.000000	66.815	73.2306
2470.000000	66.847	71.1217
2500.000000	66.812	69.7588
2540.000000	66.841	67.6775
2580.000000	66.766	65.8423
2620.000000	66.785	63.7897
2650.000000	66.765	62.3645
2690.000000	66.730	60.4353
2720.000000	66.700	59.0268
2760.000000	66.592	57.3571
2800.000000	66.544	55.4716
2850.000000	66.429	53.6008
2900.000000	66.316	51.6785
2950.000000	66.184	49.5282
3000.000000	66.044	48.0844
3040.000000	65.977	46.6465
3070.000000	65.861	45.6805
3110.000000	65.717	44.3992
3150.000000	65.611	43.4894
3200.000000	65.458	42.2172
3250.000000	65.320	40.8920
3300.000000	65.135	39.8383
3350.000000	65.022	38.7994
3400.000000	64.841	37.6740
3450.000000	64.639	36.9227
3500.000000	64.522	35.6730
3550.000000	64.483	34.5982
3600.000000	64.200	34.7098
3650.000000	64.066	33.7164
3700.000000	64.055	33.2128
3750.000000	63.997	32.6639
3820.000000	63.898	31.4405
3870.000000	63.830	30.9636
3950.000000	63.723	29.8529
4000.000000	63.614	29.4642
4060.000000	63.571	27.9785
4120.000000	63.328	27.5436
4180.000000	63.192	27.0684
4250.000000	63.045	26.5139
4310.000000	62.944	25.9158
4370.000000	62.830	25.5911
4440.000000	62.532	24.5996
4500.000000	62.499	24.5314
4550.000000	62.422	24.6011
4620.000000	62.296	24.7228
4680.000000	62.209	24.4487
4750.000000	62.074	24.9488
4820.000000	62.030	24.3314
4870.000000	61.956	24.0460
4940.000000	61.916	24.1876
5000.000000	61.846	24.2874
5080.000000	61.741	24.8372
5150.000000	61.652	24.6337
5220.000000	61.625	24.7476
5300.000000	61.547	25.2759
5380.000000	61.526	25.2592
5450.000000	61.484	25.9078
5520.000000	61.514	26.1708
5600.000000	61.469	26.6335
5700.000000	61.529	26.9589
5800.000000	61.506	28.0638
5900.000000	61.411	28.3529
6000.000000	61.723	29.3035
6080.000000	61.622	29.0900
6150.000000	61.823	29.4821
6220.000000	61.810	29.8909
6300.000000	61.894	30.3997
6400.000000	61.965	30.5073
6500.000000	62.168	31.3257
6600.000000	62.215	31.6895
6700.000000	62.385	32.2551
6800.000000	62.582	32.8794
6900.000000	62.737	32.3906
7000.000000	62.927	33.0077
7100.000000	63.101	32.8690
7200.000000	63.289	34.2282
7300.000000	63.549	32.9627
7400.000000	63.753	32.6024
7500.000000	63.988	32.1938
7620.000000	64.313	31.2818
7750.000000	64.667	30.0451
7880.000000	65.078	28.3536
8000.000000	65.463	26.3448
8120.000000	65.561	25.0706
8250.000000	65.919	22.1855
8380.000000	65.964	19.3763
8500.000000	66.170	17.4995
8620.000000	66.127	15.4856
8750.000000	66.142	12.8730
8850.000000	66.183	11.1832
9000.000000	66.201	8.1606
9120.000000	66.091	6.0069
9250.000000	65.998	3.8162
9380.000000	65.875	1.4492
9500.000000	65.701	-0.0165
9620.000000	65.583	-2.0719
9750.000000	65.401	-4.1064
9880.000000	65.114	-5.7099
10000.000000	64.927	-7.6169
10150.000000	64.626	-8.8669
10300.000000	64.249	-10.4617
10440.000000	63.998	-11.4457
10600.000000	63.474	-12.0031
10750.000000	63.031	-12.9796
10900.000000	62.829	-13.9279
11060.000000	62.388	-14.2239
11200.000000	62.119	-13.8799
11380.000000	61.644	-12.5361
11500.000000	61.418	-12.2758
11720.000000	60.765	-10.6856
11800.000000	60.800	-10.2331
12060.000000	60.293	-8.3811
12200.000000	60.161	-7.4161
12410.000000	59.769	-7.5822
12500.000000	59.834	-4.3506
12650.000000	59.709	-2.7610
12800.000000	59.596	-0.7153
13150.000000	59.763	1.6697
13200.000000	59.709	4.4973
13400.000000	59.971	5.2787
13600.000000	60.089	6.4818
13800.000000	60.514	8.6978
14000.000000	60.971	8.1093
14300.000000	61.890	5.3858
14500.000000	62.646	0.3185
14750.000000	63.328	-8.7515
15000.000000	63.373	-20.9202
15250.000000	62.497	-34.2632
15500.000000	60.846	-42.4426
15750.000000	58.344	-49.6964
16000.000000	55.958	-52.0037
16250.000000	54.275	-51.6010
16500.000000	52.428	-50.3902
16750.000000	50.796	-44.7205
17000.000000	50.150	-46.2679
17250.000000	48.913	-44.4174
17500.000000	47.759	-42.9210
17750.000000	46.619	-35.5890
18000.000000	46.262	-40.5525
18250.000000	44.629	-34.8048
18500.000000	43.667	-35.1856
18750.000000	43.324	-35.7201
19000.000000	40.330	-35.0087
19250.000000	41.542	-36.5715
19500.000000	36.814	-42.2161
19750.000000	36.281	-42.7662
