* Measurement data measured by REW V5.31.3
* Source: Headset (2- CX31993 HIFI AUDIO), no input selected, R, volume: no control
* Format: 256k Log Swept Sine, 1 sweep at -12.0 dBFS with no timing reference
* Dated: 10 9, 24 12:30:27 PM
* REW Settings:
*  C-weighting compensation: Off
*  Target level: 75.0 dB
* Note: ; 
* Measurement: Kadenz ECHO B Normal L
* Smoothing: 1/12 octave
* Frequency Step: 96 ppo
* Start Frequency: 0.36621094 Hz
*
* Freq(Hz) SPL(dB) Phase(degrees)
0.366211 62.357 -48.9198
0.368865 62.353 -48.9735
0.371538 62.349 -49.0541
0.374230 62.343 -49.1557
0.376942 62.336 -49.2729
0.379673 62.329 -49.4022
0.382424 62.322 -49.5410
0.385196 62.314 -49.6877
0.387987 62.307 -49.8417
0.390798 62.299 -50.0023
0.393630 62.291 -50.1693
0.396483 62.283 -50.3428
0.399356 62.275 -50.5226
0.402250 62.267 -50.7088
0.405165 62.259 -50.9014
0.408101 62.251 -51.1005
0.411058 62.243 -51.3061
0.414037 62.234 -51.5183
0.417037 62.226 -51.7371
0.420059 62.218 -51.9626
0.423103 62.209 -52.1948
0.426169 62.201 -52.4338
0.429257 62.192 -52.6796
0.432368 62.184 -52.9323
0.435501 62.175 -53.1919
0.438656 62.166 -53.4584
0.441835 62.157 -53.7320
0.445037 62.148 -54.0125
0.448262 62.139 -54.3001
0.451510 62.130 -54.5948
0.454782 62.121 -54.8966
0.458077 62.112 -55.2055
0.461397 62.103 -55.5216
0.464740 62.094 -55.8449
0.468108 62.084 -56.1753
0.471500 62.075 -56.5129
0.474917 62.065 -56.8577
0.478358 62.056 -57.2098
0.481825 62.046 -57.5690
0.485316 62.037 -57.9354
0.488833 62.027 -58.3089
0.492375 62.017 -58.6896
0.495943 62.007 -59.0775
0.499537 61.997 -59.4724
0.503157 61.987 -59.8744
0.506803 61.977 -60.2835
0.510475 61.967 -60.6995
0.514175 61.956 -61.1225
0.517900 61.946 -61.5524
0.521653 61.936 -61.9891
0.525434 61.925 -62.4325
0.529241 61.915 -62.8827
0.533076 61.904 -63.3394
0.536939 61.893 -63.8027
0.540830 61.882 -64.2724
0.544749 61.872 -64.7485
0.548696 61.861 -65.2308
0.552673 61.850 -65.7192
0.556677 61.838 -66.2137
0.560711 61.827 -66.7141
0.564774 61.816 -67.2202
0.568867 61.805 -67.7321
0.572989 61.793 -68.2494
0.577141 61.782 -68.7721
0.581324 61.770 -69.3001
0.585536 61.758 -69.8332
0.589779 61.747 -70.3712
0.594053 61.735 -70.9140
0.598358 61.723 -71.4615
0.602694 61.711 -72.0134
0.607061 61.699 -72.5697
0.611460 61.686 -73.1300
0.615891 61.674 -73.6944
0.620354 61.662 -74.2626
0.624849 61.649 -74.8344
0.629377 61.637 -75.4096
0.633938 61.624 -75.9882
0.638532 61.611 -76.5699
0.643159 61.598 -77.1546
0.647819 61.585 -77.7421
0.652514 61.572 -78.3322
0.657242 61.559 -78.9248
0.662005 61.546 -79.5197
0.666802 61.533 -80.1168
0.671634 61.519 -80.7160
0.676501 61.506 -81.3171
0.681403 61.492 -81.9200
0.686341 61.478 -82.5245
0.691314 61.465 -83.1307
0.696324 61.450 -83.7386
0.701370 61.436 -84.3480
0.706452 61.422 -84.9594
0.711571 61.407 -85.5729
0.716728 61.391 -86.1894
0.721921 61.374 -86.8101
0.727153 61.356 -87.4366
0.732422 61.335 -88.0715
0.737729 61.312 -88.7177
0.743075 61.286 -89.3781
0.748460 61.257 -90.0554
0.753883 61.225 -90.7514
0.759346 61.192 -91.4676
0.764849 61.156 -92.2048
0.770391 61.117 -92.9638
0.775974 61.077 -93.7449
0.781597 61.035 -94.5485
0.787261 60.990 -95.3748
0.792966 60.944 -96.2241
0.798712 60.896 -97.0965
0.804500 60.847 -97.9920
0.810329 60.795 -98.9109
0.816201 60.743 -99.8532
0.822116 60.688 -100.8189
0.828073 60.633 -101.8081
0.834074 60.576 -102.8207
0.840118 60.518 -103.8568
0.846206 60.459 -104.9162
0.852338 60.399 -105.9989
0.858514 60.338 -107.1048
0.864735 60.276 -108.2337
0.871001 60.214 -109.3855
0.877313 60.151 -110.5599
0.883670 60.088 -111.7567
0.890074 60.025 -112.9757
0.896524 59.961 -114.2166
0.903020 59.898 -115.4791
0.909564 59.835 -116.7630
0.916155 59.772 -118.0679
0.922794 59.710 -119.3937
0.929481 59.649 -120.7398
0.936216 59.589 -122.1062
0.943000 59.530 -123.4926
0.949834 59.473 -124.8986
0.956717 59.417 -126.3242
0.963649 59.363 -127.7691
0.970632 59.311 -129.2334
0.977666 59.261 -130.7168
0.984750 59.214 -132.2196
0.991886 59.170 -133.7418
0.999074 59.129 -135.2837
1.006314 59.092 -136.8457
1.013606 59.058 -138.4281
1.020951 59.028 -140.0318
1.028349 59.002 -141.6573
1.035801 58.982 -143.3058
1.043307 58.966 -144.9785
1.050867 58.955 -146.6768
1.058482 58.951 -148.4027
1.066152 58.952 -150.1585
1.073878 58.960 -151.9474
1.081660 58.974 -153.7731
1.089498 58.995 -155.6403
1.097393 59.023 -157.5547
1.105345 59.058 -159.5220
1.113355 59.100 -161.5476
1.121423 59.149 -163.6349
1.129549 59.204 -165.7856
1.137734 59.267 -167.9996
1.145979 59.335 -170.2747
1.154283 59.410 -172.6079
1.162647 59.492 -174.9946
1.171072 59.579 -177.4293
1.179558 59.673 -179.9059
1.188106 59.773 177.5828
1.196715 59.878 175.0442
1.205387 59.990 172.4862
1.214122 60.107 169.9171
1.222920 60.229 167.3450
1.231782 60.357 164.7780
1.240708 60.490 162.2240
1.249699 60.628 159.6904
1.258754 60.770 157.1838
1.267876 60.918 154.7106
1.277063 61.069 152.2759
1.286318 61.225 149.8844
1.295639 61.385 147.5397
1.305027 61.549 145.2448
1.314484 61.716 143.0017
1.324009 61.886 140.8118
1.333604 62.059 138.6757
1.343268 62.235 136.5935
1.353002 62.413 134.5648
1.362806 62.593 132.5884
1.372681 62.775 130.6631
1.382628 62.958 128.7872
1.392647 63.143 126.9586
1.402739 63.328 125.1752
1.412904 63.513 123.4346
1.423142 63.699 121.7344
1.433455 63.885 120.0721
1.443843 64.072 118.4455
1.454305 64.260 116.8525
1.464844 64.449 115.2915
1.475459 64.641 113.7616
1.486150 64.836 112.2622
1.496920 65.035 110.7931
1.507767 65.238 109.3542
1.518693 65.446 107.9452
1.529698 65.659 106.5659
1.540783 65.876 105.2155
1.551948 66.097 103.8935
1.563194 66.323 102.5988
1.574521 66.552 101.3304
1.585931 66.785 100.0872
1.597423 67.021 98.8680
1.608999 67.260 97.6715
1.620658 67.502 96.4963
1.632402 67.745 95.3410
1.644232 67.991 94.2043
1.656146 68.238 93.0847
1.668147 68.486 91.9808
1.680235 68.735 90.8912
1.692411 68.984 89.8146
1.704675 69.233 88.7495
1.717028 69.482 87.6945
1.729470 69.729 86.6484
1.742003 69.974 85.6097
1.754626 70.218 84.5773
1.767341 70.459 83.5500
1.780147 70.697 82.5267
1.793047 70.932 81.5065
1.806040 71.164 80.4888
1.819128 71.392 79.4734
1.832310 71.616 78.4607
1.845587 71.838 77.4512
1.858961 72.057 76.4460
1.872432 72.273 75.4463
1.886001 72.488 74.4529
1.899667 72.700 73.4667
1.913433 72.911 72.4883
1.927299 73.120 71.5181
1.941265 73.327 70.5564
1.955332 73.533 69.6033
1.969501 73.737 68.6587
1.983773 73.940 67.7225
1.998148 74.141 66.7946
2.012627 74.341 65.8744
2.027212 74.541 64.9617
2.041902 74.739 64.0559
2.056698 74.936 63.1565
2.071602 75.132 62.2629
2.086614 75.327 61.3744
2.101734 75.522 60.4903
2.116964 75.716 59.6099
2.132304 75.910 58.7325
2.147756 76.103 57.8571
2.163320 76.296 56.9833
2.178996 76.488 56.1103
2.194786 76.680 55.2379
2.210690 76.870 54.3659
2.226710 77.059 53.4944
2.242845 77.247 52.6239
2.259098 77.434 51.7548
2.275468 77.619 50.8876
2.291957 77.802 50.0229
2.308566 77.984 49.1609
2.325295 78.165 48.3020
2.342145 78.344 47.4465
2.359117 78.522 46.5944
2.376212 78.699 45.7458
2.393431 78.874 44.9006
2.410775 79.049 44.0588
2.428244 79.223 43.2201
2.445840 79.396 42.3842
2.463564 79.568 41.5508
2.481416 79.740 40.7195
2.499397 79.911 39.8897
2.517509 80.082 39.0609
2.535752 80.252 38.2325
2.554127 80.421 37.4038
2.572635 80.589 36.5743
2.591277 80.757 35.7437
2.610055 80.923 34.9118
2.628968 81.089 34.0790
2.648019 81.253 33.2454
2.667208 81.415 32.4117
2.686535 81.577 31.5783
2.706003 81.737 30.7456
2.725612 81.896 29.9142
2.745363 82.054 29.0842
2.765257 82.212 28.2561
2.785295 82.368 27.4301
2.805478 82.523 26.6061
2.825808 82.678 25.7842
2.846285 82.832 24.9644
2.866910 82.985 24.1461
2.887685 83.137 23.3292
2.908611 83.289 22.5128
2.929688 83.440 21.6965
2.950917 83.590 20.8794
2.972301 83.739 20.0610
2.993839 83.887 19.2412
3.015534 84.034 18.4202
3.037386 84.180 17.5981
3.059396 84.324 16.7756
3.081565 84.468 15.9532
3.103896 84.610 15.1315
3.126388 84.752 14.3109
3.149043 84.892 13.4918
3.171862 85.032 12.6744
3.194847 85.171 11.8591
3.217998 85.309 11.0459
3.241317 85.446 10.2344
3.264805 85.583 9.4242
3.288463 85.718 8.6147
3.312293 85.853 7.8052
3.336295 85.987 6.9948
3.360471 86.120 6.1830
3.384822 86.252 5.3699
3.409350 86.383 4.5558
3.434056 86.512 3.7411
3.458940 86.641 2.9265
3.484005 86.768 2.1124
3.509252 86.895 1.2997
3.534681 87.021 0.4886
3.560295 87.146 -0.3203
3.586094 87.270 -1.1270
3.612081 87.393 -1.9313
3.638255 87.516 -2.7338
3.664620 87.638 -3.5349
3.691175 87.759 -4.3357
3.717923 87.879 -5.1366
3.744864 87.998 -5.9380
3.772001 88.115 -6.7399
3.799335 88.232 -7.5420
3.826866 88.348 -8.3438
3.854597 88.463 -9.1448
3.882529 88.577 -9.9443
3.910664 88.691 -10.7419
3.939002 88.803 -11.5372
3.967546 88.915 -12.3302
3.996296 89.026 -13.1209
4.025255 89.136 -13.9099
4.054423 89.245 -14.6976
4.083804 89.354 -15.4850
4.113396 89.461 -16.2721
4.143204 89.568 -17.0592
4.173227 89.673 -17.8460
4.203468 89.778 -18.6320
4.233928 89.882 -19.4168
4.264609 89.985 -20.1998
4.295512 90.087 -20.9807
4.326639 90.189 -21.7591
4.357992 90.290 -22.5352
4.389572 90.390 -23.3091
4.421380 90.489 -24.0814
4.453419 90.588 -24.8527
4.485691 90.685 -25.6232
4.518196 90.782 -26.3930
4.550936 90.878 -27.1620
4.583914 90.974 -27.9297
4.617131 91.068 -28.6959
4.650589 91.162 -29.4602
4.684289 91.255 -30.2223
4.718233 91.347 -30.9821
4.752424 91.439 -31.7397
4.786862 91.530 -32.4957
4.821549 91.620 -33.2504
4.856488 91.710 -34.0041
4.891680 91.799 -34.7568
4.927127 91.887 -35.5084
4.962831 91.974 -36.2587
4.998794 92.061 -37.0072
5.035017 92.146 -37.7539
5.071503 92.232 -38.4985
5.108253 92.316 -39.2411
5.145270 92.401 -39.9819
5.182555 92.484 -40.7214
5.220110 92.567 -41.4597
5.257937 92.649 -42.1970
5.296038 92.730 -42.9330
5.334415 92.810 -43.6676
5.373071 92.890 -44.4006
5.412006 92.970 -45.1318
5.451224 93.048 -45.8611
5.490725 93.126 -46.5886
5.530514 93.204 -47.3146
5.570590 93.281 -48.0392
5.610957 93.357 -48.7627
5.651616 93.432 -49.4850
5.692570 93.507 -50.2059
5.733821 93.581 -50.9252
5.775370 93.655 -51.6428
5.817221 93.728 -52.3586
5.859375 93.800 -53.0728
5.901834 93.872 -53.7853
5.944602 93.943 -54.4965
5.987679 94.014 -55.2063
6.031068 94.084 -55.9149
6.074771 94.153 -56.6219
6.118792 94.222 -57.3273
6.163131 94.290 -58.0308
6.207792 94.357 -58.7325
6.252776 94.424 -59.4325
6.298086 94.490 -60.1309
6.343725 94.556 -60.8278
6.389694 94.621 -61.5232
6.435996 94.685 -62.2170
6.482634 94.749 -62.9091
6.529610 94.812 -63.5994
6.576926 94.875 -64.2877
6.624585 94.937 -64.9742
6.672590 94.999 -65.6591
6.720942 95.060 -66.3423
6.769645 95.120 -67.0239
6.818700 95.180 -67.7037
6.868111 95.239 -68.3817
6.917881 95.298 -69.0577
6.968010 95.356 -69.7319
7.018504 95.414 -70.4042
7.069362 95.471 -71.0748
7.120590 95.527 -71.7437
7.172189 95.583 -72.4108
7.224161 95.639 -73.0760
7.276511 95.694 -73.7394
7.329239 95.748 -74.4008
7.382350 95.802 -75.0603
7.435845 95.856 -75.7180
7.489729 95.908 -76.3740
7.544002 95.961 -77.0281
7.598669 96.013 -77.6802
7.653732 96.064 -78.3304
7.709194 96.115 -78.9787
7.765058 96.165 -79.6250
7.821327 96.214 -80.2694
7.878004 96.264 -80.9119
7.935091 96.312 -81.5524
7.992592 96.360 -82.1907
8.050510 96.408 -82.8270
8.108847 96.455 -83.4611
8.167607 96.501 -84.0930
8.226793 96.547 -84.7228
8.286408 96.593 -85.3503
8.346454 96.637 -85.9756
8.406936 96.682 -86.5983
8.467856 96.726 -87.2186
8.529218 96.769 -87.8364
8.591024 96.812 -88.4518
8.653278 96.854 -89.0645
8.715983 96.896 -89.6744
8.779143 96.937 -90.2816
8.842760 96.978 -90.8860
8.906839 97.018 -91.4874
8.971381 97.058 -92.0859
9.036392 97.097 -92.6815
9.101873 97.136 -93.2740
9.167829 97.174 -93.8633
9.234263 97.212 -94.4495
9.301178 97.249 -95.0325
9.368578 97.286 -95.6123
9.436467 97.323 -96.1888
9.504847 97.359 -96.7622
9.573723 97.395 -97.3323
9.643099 97.431 -97.8990
9.712976 97.466 -98.4626
9.783361 97.501 -99.0231
9.854255 97.536 -99.5804
9.925663 97.570 -100.1346
9.997588 97.604 -100.6858
10.070035 97.638 -101.2341
10.143007 97.671 -101.7795
10.216507 97.704 -102.3221
10.290540 97.737 -102.8621
10.365109 97.770 -103.3995
10.440219 97.802 -103.9345
10.515873 97.835 -104.4672
10.592076 97.867 -104.9976
10.668830 97.898 -105.5259
10.746141 97.930 -106.0521
10.824012 97.961 -106.5765
10.902447 97.992 -107.0991
10.981451 98.022 -107.6198
11.061027 98.052 -108.1388
11.141180 98.082 -108.6561
11.221913 98.112 -109.1718
11.303232 98.141 -109.6857
11.385140 98.170 -110.1980
11.467641 98.198 -110.7084
11.550741 98.226 -111.2170
11.634442 98.253 -111.7238
11.718750 98.280 -112.2285
11.803669 98.307 -112.7310
11.889203 98.333 -113.2313
11.975357 98.358 -113.7293
12.062136 98.383 -114.2249
12.149543 98.408 -114.7178
12.237583 98.432 -115.2081
12.326262 98.456 -115.6957
12.415583 98.480 -116.1805
12.505552 98.503 -116.6627
12.596172 98.525 -117.1421
12.687449 98.548 -117.6188
12.779387 98.570 -118.0929
12.871992 98.592 -118.5645
12.965268 98.613 -119.0338
13.059220 98.634 -119.5009
13.153852 98.655 -119.9658
13.249170 98.676 -120.4290
13.345179 98.697 -120.8902
13.441884 98.717 -121.3499
13.539289 98.737 -121.8079
13.637401 98.756 -122.2644
13.736223 98.775 -122.7194
13.835761 98.794 -123.1727
13.936021 98.813 -123.6245
14.037007 98.830 -124.0745
14.138725 98.848 -124.5225
14.241180 98.865 -124.9684
14.344377 98.882 -125.4120
14.448323 98.898 -125.8530
14.553021 98.914 -126.2915
14.658478 98.930 -126.7271
14.764700 98.945 -127.1599
14.871691 98.960 -127.5897
14.979457 98.975 -128.0167
15.088005 98.990 -128.4409
15.197339 99.005 -128.8625
15.307465 99.020 -129.2818
15.418389 99.034 -129.6990
15.530117 99.049 -130.1143
15.642655 99.064 -130.5281
15.756008 99.078 -130.9407
15.870182 99.093 -131.3522
15.985184 99.107 -131.7629
16.101019 99.121 -132.1730
16.217694 99.136 -132.5823
16.335214 99.150 -132.9910
16.453586 99.164 -133.3989
16.572815 99.177 -133.8060
16.692909 99.191 -134.2121
16.813872 99.204 -134.6171
16.935713 99.217 -135.0210
17.058436 99.229 -135.4236
17.182048 99.242 -135.8250
17.306556 99.254 -136.2252
17.431967 99.267 -136.6244
17.558286 99.279 -137.0226
17.685521 99.290 -137.4198
17.813677 99.302 -137.8161
17.942762 99.313 -138.2114
18.072783 99.324 -138.6055
18.203746 99.334 -138.9980
18.335658 99.344 -139.3883
18.468526 99.353 -139.7759
18.602356 99.362 -140.1600
18.737156 99.370 -140.5401
18.872934 99.378 -140.9153
19.009695 99.386 -141.2855
19.147447 99.394 -141.6504
19.286197 99.402 -142.0101
19.425953 99.410 -142.3655
19.566721 99.419 -142.7173
19.708510 99.428 -143.0669
19.851326 99.438 -143.4157
19.995177 99.448 -143.7653
20.140070 99.459 -144.1171
20.286013 99.470 -144.4720
20.433014 99.480 -144.8306
20.581080 99.490 -145.1928
20.730219 99.499 -145.5578
20.880439 99.507 -145.9240
21.031747 99.513 -146.2894
21.184152 99.518 -146.6516
21.337661 99.522 -147.0080
21.492282 99.525 -147.3564
21.648024 99.527 -147.6951
21.804895 99.529 -148.0233
21.962902 99.531 -148.3409
22.122054 99.533 -148.6495
22.282360 99.537 -148.9512
22.443827 99.542 -149.2490
22.606464 99.549 -149.5463
22.770280 99.557 -149.8466
22.935283 99.566 -150.1529
23.101481 99.575 -150.4674
23.268884 99.585 -150.7911
23.437500 99.594 -151.1237
23.607338 99.601 -151.4640
23.778406 99.607 -151.8095
23.950714 99.612 -152.1573
24.124271 99.615 -152.5043
24.299086 99.616 -152.8476
24.475167 99.617 -153.1850
24.652524 99.616 -153.5151
24.831166 99.615 -153.8378
25.011103 99.614 -154.1534
25.192344 99.613 -154.4636
25.374898 99.613 -154.7698
25.558775 99.614 -155.0739
25.743984 99.614 -155.3774
25.930536 99.615 -155.6813
26.118439 99.616 -155.9860
26.307704 99.617 -156.2915
26.498341 99.617 -156.5972
26.690359 99.617 -156.9027
26.883768 99.617 -157.2075
27.078579 99.617 -157.5110
27.274801 99.617 -157.8135
27.472446 99.617 -158.1151
27.671522 99.616 -158.4160
27.872042 99.615 -158.7166
28.074014 99.615 -159.0168
28.277450 99.613 -159.3165
28.482360 99.611 -159.6150
28.688755 99.609 -159.9115
28.896645 99.606 -160.2051
29.106042 99.602 -160.4949
29.316957 99.598 -160.7803
29.529400 99.594 -161.0609
29.743382 99.590 -161.3367
29.958915 99.585 -161.6078
30.176009 99.580 -161.8741
30.394677 99.576 -162.1357
30.614929 99.571 -162.3925
30.836778 99.566 -162.6442
31.060234 99.561 -162.8904
31.285309 99.557 -163.1310
31.512015 99.553 -163.3664
31.740364 99.549 -163.5974
31.970368 99.547 -163.8253
32.202039 99.545 -164.0521
32.435388 99.544 -164.2799
32.670428 99.544 -164.5107
32.907171 99.545 -164.7461
33.145630 99.546 -164.9872
33.385817 99.547 -165.2342
33.627745 99.548 -165.4868
33.871425 99.548 -165.7439
34.116871 99.547 -166.0045
34.364096 99.546 -166.2670
34.613113 99.544 -166.5303
34.863934 99.542 -166.7931
35.116572 99.539 -167.0547
35.371041 99.536 -167.3145
35.627354 99.533 -167.5723
35.885525 99.529 -167.8286
36.145566 99.526 -168.0844
36.407492 99.523 -168.3407
36.671316 99.520 -168.5992
36.937051 99.518 -168.8611
37.204712 99.514 -169.1270
37.474313 99.510 -169.3959
37.745867 99.505 -169.6663
38.019389 99.498 -169.9351
38.294893 99.490 -170.1989
38.572394 99.481 -170.4549
38.851905 99.472 -170.7013
39.133442 99.462 -170.9379
39.417019 99.453 -171.1663
39.702651 99.445 -171.3891
39.990353 99.437 -171.6095
40.280140 99.430 -171.8301
40.572026 99.423 -172.0528
40.866028 99.417 -172.2781
41.162160 99.410 -172.5057
41.460438 99.402 -172.7348
41.760877 99.394 -172.9645
42.063494 99.386 -173.1940
42.368303 99.376 -173.4226
42.675322 99.367 -173.6498
42.984565 99.357 -173.8749
43.296048 99.347 -174.0973
43.609789 99.336 -174.3166
43.925804 99.326 -174.5327
44.244108 99.315 -174.7461
44.564719 99.305 -174.9574
44.887654 99.296 -175.1674
45.212928 99.287 -175.3770
45.540560 99.278 -175.5864
45.870565 99.269 -175.7960
46.202962 99.261 -176.0059
46.537768 99.253 -176.2166
46.875000 99.245 -176.4283
47.214676 99.237 -176.6412
47.556813 99.229 -176.8549
47.901429 99.220 -177.0687
48.248542 99.211 -177.2817
48.598171 99.201 -177.4928
48.950334 99.191 -177.7020
49.305048 99.181 -177.9094
49.662333 99.170 -178.1157
50.022206 99.159 -178.3216
50.384688 99.147 -178.5271
50.749796 99.134 -178.7320
51.117550 99.121 -178.9362
51.487969 99.108 -179.1399
51.861072 99.093 -179.3434
52.236879 99.079 -179.5472
52.615409 99.064 -179.7517
52.996681 99.048 -179.9569
53.380717 99.033 179.8367
53.767536 99.017 179.6288
54.157158 99.002 179.4189
54.549603 98.986 179.2068
54.944892 98.970 178.9930
55.343045 98.954 178.7782
55.744084 98.939 178.5631
56.148028 98.923 178.3485
56.554900 98.907 178.1356
56.964720 98.890 177.9267
57.377510 98.874 177.7249
57.793291 98.858 177.5323
58.212085 98.842 177.3492
58.633914 98.829 177.1726
59.058799 98.816 176.9988
59.486764 98.804 176.8248
59.917829 98.792 176.6497
60.352019 98.781 176.4748
60.789354 98.768 176.3018
61.229859 98.756 176.1313
61.673556 98.742 175.9639
62.120468 98.729 175.7991
62.570618 98.714 175.6373
63.024031 98.699 175.4786
63.480729 98.684 175.3222
63.940736 98.668 175.1671
64.404077 98.651 175.0122
64.870776 98.634 174.8580
65.340856 98.616 174.7059
65.814343 98.597 174.5574
66.291261 98.577 174.4128
66.771635 98.557 174.2711
67.255489 98.537 174.1307
67.742850 98.517 173.9905
68.233743 98.497 173.8499
68.728193 98.477 173.7078
69.226226 98.457 173.5629
69.727867 98.437 173.4150
70.233144 98.417 173.2657
70.742083 98.397 173.1168
71.254709 98.377 172.9677
71.771050 98.359 172.8140
72.291132 98.341 172.6511
72.814984 98.324 172.4786
73.342631 98.305 172.3012
73.874102 98.286 172.1255
74.409424 98.266 171.9553
74.948626 98.246 171.7904
75.491734 98.228 171.6288
76.038779 98.209 171.4700
76.589787 98.190 171.3146
77.144788 98.171 171.1638
77.703811 98.151 171.0182
78.266885 98.131 170.8782
78.834039 98.111 170.7438
79.405303 98.090 170.6155
79.980706 98.069 170.4922
80.560280 98.048 170.3721
81.144053 98.027 170.2526
81.732056 98.006 170.1321
82.324320 97.984 170.0107
82.920876 97.961 169.8896
83.521755 97.937 169.7705
84.126988 97.913 169.6544
84.736607 97.889 169.5411
85.350643 97.866 169.4293
85.969129 97.842 169.3173
86.592097 97.819 169.2041
87.219579 97.797 169.0896
87.851608 97.774 168.9740
88.488217 97.751 168.8575
89.129439 97.729 168.7402
89.775308 97.706 168.6227
90.425856 97.683 168.5068
91.081119 97.659 168.3947
91.741131 97.635 168.2883
92.405925 97.611 168.1878
93.075536 97.587 168.0919
93.750000 97.563 167.9985
94.429351 97.539 167.9066
95.113625 97.516 167.8153
95.802858 97.492 167.7241
96.497085 97.467 167.6326
97.196342 97.443 167.5400
97.900667 97.419 167.4462
98.610096 97.395 167.3507
99.324665 97.370 167.2543
100.044413 97.345 167.1586
100.769376 97.320 167.0650
101.499592 97.295 166.9747
102.235100 97.269 166.8877
102.975938 97.243 166.8035
103.722144 97.217 166.7212
104.473757 97.191 166.6402
105.230817 97.164 166.5605
105.993363 97.137 166.4822
106.761435 97.109 166.4055
107.535072 97.082 166.3305
108.314315 97.054 166.2573
109.099206 97.028 166.1855
109.889783 97.001 166.1147
110.686090 96.974 166.0447
111.488167 96.948 165.9750
112.296056 96.921 165.9051
113.109800 96.893 165.8344
113.929440 96.865 165.7617
114.755020 96.835 165.6863
115.586582 96.805 165.6086
116.424170 96.773 165.5308
117.267827 96.740 165.4563
118.117598 96.707 165.3901
118.973527 96.674 165.3384
119.835658 96.642 165.3052
120.704037 96.613 165.2875
121.578708 96.586 165.2772
122.459718 96.560 165.2677
123.347111 96.534 165.2562
124.240935 96.508 165.2427
125.141236 96.481 165.2281
126.048061 96.452 165.2134
126.961458 96.422 165.1987
127.881473 96.391 165.1837
128.808154 96.359 165.1679
129.741551 96.327 165.1513
130.681712 96.294 165.1343
131.628686 96.262 165.1167
132.582521 96.229 165.0982
133.543269 96.196 165.0795
134.510979 96.161 165.0637
135.485701 96.124 165.0563
136.467486 96.086 165.0653
137.456386 96.046 165.1010
138.452451 96.005 165.1723
139.455735 95.966 165.2808
140.466288 95.929 165.4194
141.484165 95.894 165.5808
142.509418 95.862 165.7610
143.542100 95.833 165.9581
144.582265 95.809 166.1689
145.629968 95.789 166.3878
146.685262 95.776 166.6066
147.748204 95.769 166.8149
148.818849 95.769 167.0015
149.897251 95.775 167.1550
150.983469 95.785 167.2666
152.077557 95.797 167.3311
153.179574 95.809 167.3470
154.289576 95.819 167.3162
155.407622 95.826 167.2446
156.533770 95.830 167.1425
157.668078 95.829 167.0224
158.810606 95.824 166.8958
159.961413 95.814 166.7712
161.120559 95.800 166.6553
162.288105 95.782 166.5523
163.464112 95.761 166.4634
164.648640 95.738 166.3867
165.841752 95.712 166.3195
167.043510 95.686 166.2605
168.253976 95.658 166.2103
169.473213 95.631 166.1700
170.701286 95.603 166.1401
171.938258 95.576 166.1204
173.184194 95.549 166.1100
174.439158 95.521 166.1077
175.703216 95.494 166.1118
176.976434 95.467 166.1202
178.258878 95.441 166.1313
179.550615 95.414 166.1446
180.851713 95.388 166.1602
182.162239 95.362 166.1783
183.482262 95.336 166.1992
184.811850 95.310 166.2226
186.151073 95.285 166.2479
187.500000 95.259 166.2747
188.858702 95.233 166.3030
190.227250 95.207 166.3333
191.605715 95.182 166.3661
192.994169 95.157 166.4022
194.392685 95.132 166.4409
195.801334 95.107 166.4819
197.220191 95.082 166.5242
198.649330 95.056 166.5671
200.088825 95.031 166.6108
201.538751 95.006 166.6566
202.999184 94.981 166.7057
204.470200 94.956 166.7585
205.951875 94.931 166.8147
207.444287 94.906 166.8737
208.947514 94.880 166.9352
210.461634 94.855 166.9998
211.986726 94.829 167.0680
213.522869 94.803 167.1397
215.070144 94.777 167.2139
216.628631 94.751 167.2886
218.198411 94.725 167.3621
219.779567 94.698 167.4336
221.372180 94.672 167.5038
222.976334 94.646 167.5759
224.592112 94.620 167.6543
226.219600 94.596 167.7437
227.858880 94.572 167.8455
229.510039 94.549 167.9575
231.173164 94.527 168.0756
232.848340 94.505 168.1950
234.535655 94.483 168.3113
236.235197 94.462 168.4209
237.947054 94.442 168.5232
239.671317 94.421 168.6212
241.408074 94.401 168.7189
243.157416 94.381 168.8190
244.919435 94.361 168.9225
246.694223 94.342 169.0296
248.481871 94.322 169.1396
250.282473 94.303 169.2513
252.096123 94.285 169.3638
253.922915 94.267 169.4756
255.762945 94.250 169.5840
257.616309 94.232 169.6883
259.483103 94.215 169.7896
261.363424 94.197 169.8903
263.257372 94.180 169.9928
265.165043 94.163 170.0987
267.086538 94.145 170.2084
269.021957 94.128 170.3216
270.971401 94.110 170.4366
272.934972 94.092 170.5510
274.912771 94.074 170.6632
276.904902 94.055 170.7738
278.911469 94.035 170.8848
280.932577 94.015 170.9980
282.968330 93.994 171.1138
285.018835 93.974 171.2304
287.084199 93.955 171.3453
289.164530 93.938 171.4565
291.259935 93.922 171.5637
293.370525 93.907 171.6688
295.496408 93.892 171.7746
297.637697 93.877 171.8828
299.794503 93.861 171.9943
301.966937 93.845 172.1093
304.155114 93.828 172.2273
306.359147 93.811 172.3473
308.579152 93.794 172.4689
310.815244 93.777 172.5925
313.067539 93.760 172.7188
315.336156 93.743 172.8473
317.621211 93.726 172.9774
319.922826 93.708 173.1089
322.241118 93.691 173.2418
324.576210 93.675 173.3761
326.928223 93.658 173.5116
329.297280 93.641 173.6481
331.683504 93.625 173.7858
334.087019 93.609 173.9249
336.507952 93.592 174.0662
338.946427 93.576 174.2095
341.402572 93.561 174.3547
343.876516 93.545 174.5016
346.368387 93.530 174.6501
348.878315 93.514 174.8000
351.406431 93.499 174.9508
353.952867 93.485 175.1023
356.517756 93.470 175.2545
359.101230 93.455 175.4076
361.703426 93.441 175.5619
364.324478 93.427 175.7176
366.964523 93.412 175.8748
369.623699 93.398 176.0335
372.302145 93.384 176.1936
375.000000 93.370 176.3549
377.717405 93.356 176.5168
380.454501 93.343 176.6796
383.211431 93.330 176.8436
385.988339 93.317 177.0089
388.785369 93.304 177.1758
391.602668 93.292 177.3445
394.440383 93.279 177.5148
397.298660 93.266 177.6862
400.177650 93.254 177.8583
403.077502 93.242 178.0308
405.998368 93.230 178.2035
408.940400 93.218 178.3764
411.903750 93.207 178.5497
414.888575 93.196 178.7237
417.895028 93.185 178.8984
420.923268 93.174 179.0741
423.973452 93.163 179.2511
427.045738 93.153 179.4297
430.140287 93.142 179.6099
433.257261 93.131 179.7919
436.396822 93.121 179.9755
439.559133 93.111 -179.8395
442.744360 93.101 -179.6534
445.952668 93.090 -179.4668
449.184225 93.081 -179.2797
452.439199 93.071 -179.0921
455.717760 93.061 -178.9038
459.020079 93.052 -178.7145
462.346327 93.043 -178.5239
465.696680 93.034 -178.3319
469.071310 93.024 -178.1382
472.470394 93.015 -177.9429
475.894109 93.006 -177.7462
479.342634 92.998 -177.5485
482.816148 92.989 -177.3500
486.314833 92.980 -177.1505
489.838871 92.972 -176.9500
493.388445 92.964 -176.7480
496.963741 92.956 -176.5446
500.564945 92.948 -176.3397
504.192245 92.941 -176.1334
507.845830 92.933 -175.9260
511.525890 92.925 -175.7175
515.232618 92.918 -175.5083
518.966206 92.911 -175.2984
522.726849 92.904 -175.0877
526.514743 92.897 -174.8761
530.330086 92.890 -174.6633
534.173076 92.883 -174.4491
538.043915 92.876 -174.2335
541.942803 92.869 -174.0162
545.869944 92.863 -173.7971
549.825542 92.856 -173.5761
553.809805 92.849 -173.3535
557.822939 92.843 -173.1293
561.865154 92.836 -172.9033
565.936660 92.830 -172.6757
570.037671 92.823 -172.4463
574.168399 92.816 -172.2150
578.329060 92.810 -171.9817
582.519870 92.803 -171.7463
586.741049 92.796 -171.5085
590.992817 92.789 -171.2680
595.275394 92.782 -171.0245
599.589005 92.775 -170.7783
603.933874 92.768 -170.5293
608.310228 92.761 -170.2775
612.718295 92.754 -170.0223
617.158304 92.747 -169.7623
621.630488 92.740 -169.4962
626.135079 92.732 -169.2223
630.672311 92.725 -168.9400
635.242423 92.717 -168.6495
639.845651 92.709 -168.3513
644.482237 92.701 -168.0455
649.152421 92.694 -167.7315
653.856447 92.687 -167.4086
658.594560 92.680 -167.0759
663.367008 92.675 -166.7332
668.174039 92.670 -166.3802
673.015903 92.666 -166.0171
677.892854 92.664 -165.6438
682.805145 92.663 -165.2614
687.753032 92.664 -164.8708
692.736774 92.666 -164.4740
697.756631 92.671 -164.0722
702.812863 92.678 -163.6669
707.905735 92.686 -163.2594
713.035511 92.697 -162.8507
718.202461 92.710 -162.4419
723.406852 92.725 -162.0342
728.648956 92.741 -161.6287
733.929047 92.759 -161.2264
739.247399 92.779 -160.8284
744.604290 92.800 -160.4355
750.000000 92.823 -160.0488
755.434809 92.846 -159.6680
760.909001 92.871 -159.2928
766.422861 92.896 -158.9222
771.976677 92.922 -158.5557
777.570739 92.948 -158.1924
783.205337 92.975 -157.8320
788.880766 93.003 -157.4741
794.597321 93.031 -157.1187
800.355301 93.059 -156.7650
806.155005 93.089 -156.4126
811.996736 93.118 -156.0609
817.880799 93.149 -155.7096
823.807501 93.180 -155.3585
829.777150 93.212 -155.0074
835.790057 93.245 -154.6567
841.846536 93.278 -154.3062
847.946903 93.312 -153.9561
854.091476 93.347 -153.6063
860.280575 93.383 -153.2570
866.514523 93.420 -152.9080
872.793644 93.457 -152.5597
879.118267 93.496 -152.2122
885.488720 93.536 -151.8658
891.905336 93.577 -151.5211
898.368450 93.619 -151.1780
904.878398 93.662 -150.8366
911.435520 93.707 -150.4969
918.040157 93.752 -150.1594
924.692655 93.799 -149.8243
931.393359 93.846 -149.4924
938.142619 93.895 -149.1639
944.940787 93.945 -148.8394
951.788218 93.997 -148.5193
958.685268 94.049 -148.2040
965.632296 94.103 -147.8942
972.629666 94.158 -147.5898
979.677741 94.214 -147.2915
986.776890 94.270 -146.9993
993.927482 94.328 -146.7134
1001.129891 94.387 -146.4342
1008.384491 94.447 -146.1620
1015.691660 94.509 -145.8972
1023.051781 94.570 -145.6401
1030.465236 94.633 -145.3908
1037.932411 94.697 -145.1494
1045.453698 94.761 -144.9160
1053.029486 94.826 -144.6907
1060.660172 94.892 -144.4739
1068.346153 94.958 -144.2657
1076.087829 95.025 -144.0661
1083.885605 95.092 -143.8752
1091.739887 95.159 -143.6932
1099.651084 95.227 -143.5202
1107.619609 95.295 -143.3563
1115.645878 95.364 -143.2015
1123.730308 95.432 -143.0559
1131.873321 95.501 -142.9192
1140.075341 95.569 -142.7911
1148.336797 95.638 -142.6714
1156.658119 95.706 -142.5599
1165.039741 95.774 -142.4562
1173.482099 95.842 -142.3605
1181.985634 95.910 -142.2723
1190.550789 95.978 -142.1917
1199.178011 96.045 -142.1179
1207.867749 96.113 -142.0507
1216.620457 96.179 -141.9897
1225.436590 96.246 -141.9346
1234.316609 96.312 -141.8851
1243.260976 96.378 -141.8408
1252.270157 96.443 -141.8014
1261.344623 96.508 -141.7667
1270.484846 96.572 -141.7365
1279.691303 96.637 -141.7106
1288.964474 96.700 -141.6888
1298.304842 96.764 -141.6711
1307.712894 96.827 -141.6571
1317.189120 96.889 -141.6465
1326.734016 96.952 -141.6389
1336.348077 97.014 -141.6340
1346.031806 97.076 -141.6313
1355.785708 97.137 -141.6309
1365.610290 97.198 -141.6324
1375.506065 97.259 -141.6359
1385.473549 97.320 -141.6412
1395.513261 97.381 -141.6484
1405.625726 97.441 -141.6573
1415.811469 97.501 -141.6679
1426.071023 97.562 -141.6800
1436.404921 97.622 -141.6936
1446.813703 97.682 -141.7087
1457.297912 97.742 -141.7251
1467.858093 97.803 -141.7427
1478.494798 97.863 -141.7615
1489.208581 97.924 -141.7816
1500.000000 97.984 -141.8032
1510.869618 98.045 -141.8262
1521.818002 98.106 -141.8508
1532.845723 98.167 -141.8770
1543.953355 98.229 -141.9048
1555.141477 98.291 -141.9343
1566.410674 98.354 -141.9655
1577.761531 98.416 -141.9988
1589.194642 98.480 -142.0342
1600.710601 98.543 -142.0721
1612.310010 98.607 -142.1126
1623.993473 98.672 -142.1559
1635.761599 98.737 -142.2023
1647.615002 98.803 -142.2516
1659.554299 98.869 -142.3044
1671.580114 98.936 -142.3610
1683.693072 99.003 -142.4214
1695.893807 99.071 -142.4860
1708.182952 99.140 -142.5549
1720.561150 99.209 -142.6285
1733.029045 99.279 -142.7072
1745.587288 99.349 -142.7911
1758.236533 99.421 -142.8807
1770.977440 99.493 -142.9763
1783.810673 99.565 -143.0781
1796.736900 99.638 -143.1865
1809.756796 99.712 -143.3018
1822.871040 99.787 -143.4243
1836.080315 99.862 -143.5546
1849.385310 99.938 -143.6930
1862.786718 100.014 -143.8400
1876.285239 100.091 -143.9959
1889.881575 100.169 -144.1611
1903.576436 100.247 -144.3361
1917.370535 100.326 -144.5211
1931.264593 100.406 -144.7165
1945.259332 100.485 -144.9227
1959.355483 100.566 -145.1400
1973.553781 100.646 -145.3689
1987.854965 100.727 -145.6097
2002.259781 100.809 -145.8630
2016.768981 100.890 -146.1293
2031.383320 100.972 -146.4090
2046.103561 101.054 -146.7025
2060.930471 101.136 -147.0102
2075.864823 101.219 -147.3323
2090.907395 101.301 -147.6691
2106.058972 101.383 -148.0211
2121.320344 101.465 -148.3884
2136.692305 101.546 -148.7717
2152.175658 101.627 -149.1712
2167.771210 101.708 -149.5875
2183.479774 101.788 -150.0210
2199.302169 101.868 -150.4722
2215.239219 101.946 -150.9414
2231.291755 102.024 -151.4288
2247.460615 102.100 -151.9344
2263.746641 102.175 -152.4582
2280.150683 102.249 -153.0001
2296.673595 102.321 -153.5601
2313.316238 102.391 -154.1378
2330.079481 102.460 -154.7330
2346.964198 102.526 -155.3456
2363.971268 102.590 -155.9751
2381.101578 102.652 -156.6213
2398.356022 102.712 -157.2838
2415.735498 102.769 -157.9623
2433.240913 102.823 -158.6560
2450.873180 102.874 -159.3644
2468.633217 102.922 -160.0866
2486.521951 102.967 -160.8218
2504.540314 103.009 -161.5693
2522.689246 103.047 -162.3281
2540.969692 103.082 -163.0974
2559.382606 103.113 -163.8763
2577.928947 103.140 -164.6635
2596.609683 103.163 -165.4574
2615.425787 103.182 -166.2564
2634.378241 103.196 -167.0594
2653.468031 103.207 -167.8655
2672.696154 103.213 -168.6738
2692.063613 103.215 -169.4830
2711.571415 103.214 -170.2920
2731.220579 103.208 -171.0990
2751.012130 103.198 -171.9025
2770.947098 103.184 -172.7008
2791.026522 103.166 -173.4923
2811.251451 103.144 -174.2755
2831.622938 103.118 -175.0490
2852.142045 103.087 -175.8113
2872.809842 103.053 -176.5610
2893.627406 103.014 -177.2964
2914.595823 102.971 -178.0158
2935.716186 102.925 -178.7177
2956.989596 102.875 -179.4005
2978.417161 102.821 179.9373
3000.000000 102.764 179.2974
3021.739237 102.704 178.6816
3043.636005 102.641 178.0922
3065.691446 102.576 177.5312
3087.906710 102.509 177.0004
3110.282955 102.441 176.5015
3132.821347 102.372 176.0350
3155.523062 102.303 175.6010
3178.389283 102.235 175.1977
3201.421202 102.169 174.8220
3224.620020 102.105 174.4688
3247.986946 102.044 174.1316
3271.523198 101.986 173.8032
3295.230004 101.931 173.4768
3319.108599 101.878 173.1470
3343.160228 101.825 172.8110
3367.386145 101.773 172.4686
3391.787613 101.719 172.1219
3416.365904 101.665 171.7751
3441.122300 101.609 171.4324
3466.058091 101.551 171.0978
3491.174576 101.493 170.7742
3516.473066 101.434 170.4628
3541.954880 101.374 170.1632
3567.621345 101.315 169.8738
3593.473800 101.257 169.5917
3619.513592 101.199 169.3141
3645.742080 101.141 169.0380
3672.160630 101.083 168.7609
3698.770620 101.025 168.4819
3725.573436 100.966 168.2012
3752.570477 100.905 167.9203
3779.763150 100.842 167.6424
3807.152872 100.776 167.3718
3834.741071 100.708 167.1136
3862.529185 100.638 166.8734
3890.518664 100.566 166.6561
3918.710966 100.493 166.4655
3947.107561 100.419 166.3036
3975.709929 100.347 166.1697
4004.519563 100.276 166.0604
4033.537962 100.208 165.9706
4062.766641 100.144 165.8937
4092.207123 100.082 165.8231
4121.860942 100.024 165.7530
4151.729646 99.969 165.6786
4181.814790 99.915 165.5968
4212.117944 99.863 165.5057
4242.640687 99.811 165.4047
4273.384610 99.760 165.2937
4304.351317 99.709 165.1733
4335.542421 99.657 165.0446
4366.959549 99.605 164.9090
4398.604338 99.551 164.7680
4430.478438 99.496 164.6232
4462.583511 99.440 164.4760
4494.921231 99.383 164.3276
4527.493283 99.324 164.1792
4560.301365 99.264 164.0315
4593.347189 99.203 163.8853
4626.632476 99.140 163.7411
4660.158962 99.076 163.5999
4693.928395 99.010 163.4626
4727.942535 98.943 163.3303
4762.203156 98.875 163.2037
4796.712043 98.805 163.0837
4831.470996 98.734 162.9706
4866.481826 98.662 162.8648
4901.746360 98.589 162.7664
4937.266434 98.515 162.6753
4973.043902 98.439 162.5916
5009.080628 98.363 162.5154
5045.378492 98.286 162.4471
5081.939384 98.207 162.3871
5118.765212 98.127 162.3364
5155.857894 98.045 162.2959
5193.219366 97.962 162.2667
5230.851574 97.878 162.2502
5268.756481 97.793 162.2479
5306.936062 97.706 162.2615
5345.392309 97.618 162.2928
5384.127225 97.528 162.3438
5423.142830 97.438 162.4160
5462.441159 97.347 162.5110
5502.024259 97.255 162.6304
5541.894195 97.163 162.7751
5582.053045 97.072 162.9456
5622.502902 96.980 163.1418
5663.245876 96.890 163.3633
5704.284090 96.801 163.6095
5745.619684 96.713 163.8798
5787.254813 96.626 164.1736
5829.191647 96.541 164.4906
5871.432373 96.458 164.8304
5913.979192 96.377 165.1926
5956.834323 96.299 165.5767
6000.000000 96.222 165.9817
6043.478473 96.149 166.4067
6087.272010 96.078 166.8505
6131.382892 96.010 167.3120
6175.813420 95.945 167.7899
6220.565910 95.884 168.2832
6265.642695 95.826 168.7909
6311.046124 95.771 169.3123
6356.778566 95.720 169.8466
6402.842404 95.673 170.3933
6449.240040 95.629 170.9520
6495.973891 95.590 171.5220
6543.046396 95.554 172.1033
6590.460007 95.522 172.6957
6638.217197 95.495 173.2997
6686.320456 95.473 173.9155
6734.772290 95.456 174.5434
6783.575226 95.445 175.1835
6832.731809 95.441 175.8353
6882.244600 95.444 176.4977
6932.116181 95.454 177.1687
6982.349153 95.474 177.8451
7032.946133 95.504 178.5225
7083.909760 95.544 179.1948
7135.242690 95.596 179.8542
7186.947600 95.660 -179.5087
7239.027185 95.736 -178.9045
7291.484160 95.826 -178.3449
7344.321260 95.929 -177.8422
7397.541239 96.045 -177.4089
7451.146872 96.174 -177.0582
7505.140954 96.314 -176.8032
7559.526299 96.465 -176.6572
7614.305743 96.625 -176.6334
7669.482141 96.794 -176.7457
7725.058371 96.969 -177.0081
7781.037328 97.149 -177.4344
7837.421932 97.331 -178.0382
7894.215122 97.511 -178.8314
7951.419859 97.686 -179.8234
8009.039125 97.852 178.9802
8067.075924 98.003 177.5782
8125.533282 98.136 175.9750
8184.414245 98.245 174.1808
8243.721885 98.325 172.2122
8303.459292 98.372 170.0927
8363.629581 98.382 167.8516
8424.235888 98.351 165.5239
8485.281374 98.277 163.1481
8546.769221 98.159 160.7651
8608.702634 97.998 158.4156
8671.084842 97.794 156.1384
8733.919097 97.549 153.9686
8797.208675 97.268 151.9371
8860.956876 96.952 150.0693
8925.167022 96.607 148.3857
8989.842461 96.235 146.9020
9054.986566 95.841 145.6302
9120.602731 95.428 144.5787
9186.694378 95.000 143.7539
9253.264952 94.561 143.1604
9320.317925 94.112 142.8013
9387.856790 93.659 142.6777
9455.885071 93.204 142.7889
9524.406312 92.750 143.1312
9593.424086 92.302 143.6974
9662.941992 91.862 144.4776
9732.963653 91.433 145.4586
9803.492719 91.018 146.6251
9874.532869 90.619 147.9604
9946.087805 90.237 149.4475
10018.161257 89.874 151.0694
10090.756983 89.530 152.8103
10163.878768 89.206 154.6556
10237.530423 88.902 156.5923
10311.715789 88.618 158.6093
10386.438732 88.354 160.6968
10461.703149 88.109 162.8470
10537.512962 87.884 165.0530
10613.872125 87.678 167.3091
10690.784618 87.491 169.6102
10768.254450 87.323 171.9521
10846.285661 87.175 174.3303
10924.882318 87.045 176.7405
11004.048518 86.935 179.1782
11083.788390 86.844 -178.3604
11164.106090 86.772 -175.8793
11245.005805 86.721 -173.3820
11326.491752 86.689 -170.8723
11408.568180 86.679 -168.3542
11491.239368 86.690 -165.8323
11574.509626 86.724 -163.3109
11658.383294 86.781 -160.7954
11742.864745 86.863 -158.2917
11827.958384 86.972 -155.8068
11913.668646 87.108 -153.3488
12000.000000 87.273 -150.9279
12086.956947 87.470 -148.5563
12174.544019 87.700 -146.2485
12262.765784 87.965 -144.0220
12351.626840 88.268 -141.8981
12441.131819 88.611 -139.9030
12531.285389 88.996 -138.0691
12622.092249 89.425 -136.4369
12713.557132 89.901 -135.0559
12805.684808 90.424 -133.9865
12898.480079 90.993 -133.3000
12991.947783 91.604 -133.0783
13086.092792 92.249 -133.4100
13180.920015 92.916 -134.3846
13276.434395 93.588 -136.0845
13372.640911 94.243 -138.5732
13469.544580 94.852 -141.8842
13567.150452 95.385 -146.0057
13665.463617 95.810 -150.8705
13764.489200 96.098 -156.3464
13864.232362 96.224 -162.2372
13964.698305 96.171 -168.2938
14065.892266 95.936 -174.2404
14167.819519 95.528 -179.8079
14270.485380 94.967 175.2343
14373.895200 94.281 171.0573
14478.054370 93.502 167.7659
14582.968320 92.665 165.3996
14688.642520 91.803 163.9410
14795.082478 90.945 163.3268
14902.293745 90.117 163.4603
15010.281908 89.336 164.2260
15119.052599 88.617 165.5027
15228.611486 87.965 167.1748
15338.964283 87.384 169.1397
15450.116741 86.873 171.3109
15562.074656 86.428 173.6177
15674.843864 86.045 176.0039
15788.430244 85.720 178.4250
15902.839718 85.447 -179.1545
16018.078250 85.224 -176.7633
16134.151848 85.045 -174.4259
16251.066563 84.908 -172.1637
16368.828491 84.811 -169.9978
16487.443769 84.751 -167.9505
16606.918584 84.727 -166.0475
16727.259161 84.739 -164.3190
16848.471777 84.785 -162.7990
16970.562748 84.863 -161.5255
17093.538442 84.968 -160.5380
17217.405268 85.096 -159.8751
17342.169684 85.239 -159.5708
17467.838194 85.389 -159.6510
17594.417350 85.533 -160.1295
17721.913751 85.662 -161.0055
17850.334044 85.763 -162.2607
17979.684923 85.825 -163.8593
18109.973131 85.838 -165.7488
18241.205462 85.795 -167.8634
18373.388756 85.690 -170.1279
18506.529905 85.520 -172.4639
18640.635849 85.286 -174.7958
18775.713581 84.991 -177.0573
18911.770141 84.640 -179.1963
19048.812624 84.239 178.8223
19186.848172 83.796 177.0162
19325.883983 83.320 175.3889
19465.927305 82.829 173.9366
19606.985439 82.346 172.6628
19749.065738 81.909 171.5942
19892.175609 81.569 170.7947
20036.322514 81.382 170.3569
