* Measurement data measured by REW V5.31.3
* Source: Headset (2- CX31993 HIFI AUDIO), MICROPHONE (Master Volume), R, volume: 0.400
* Format: 256k Log Swept Sine, 1 sweep at -12.0 dBFS with no timing reference
* Dated: 10 9, 24 12:27:49 PM
* REW Settings:
*  C-weighting compensation: Off
*  Target level: 75.0 dB
* Note: ; 
* Measurement: Kadenz ECHO B SS+ L
* Smoothing: 1/12 octave
* Frequency Step: 96 ppo
* Start Frequency: 0.36621094 Hz
*
* Freq(Hz) SPL(dB) Phase(degrees)
0.366211 62.037 -43.2372
0.368865 62.030 -43.2790
0.371538 62.018 -43.3418
0.374230 62.005 -43.4207
0.376942 61.989 -43.5117
0.379673 61.972 -43.6118
0.382424 61.954 -43.7190
0.385196 61.936 -43.8322
0.387987 61.918 -43.9507
0.390798 61.899 -44.0742
0.393630 61.880 -44.2025
0.396483 61.861 -44.3356
0.399356 61.842 -44.4736
0.402250 61.823 -44.6163
0.405165 61.803 -44.7641
0.408101 61.784 -44.9168
0.411058 61.764 -45.0746
0.414037 61.744 -45.2377
0.417037 61.724 -45.4060
0.420059 61.704 -45.5797
0.423103 61.684 -45.7589
0.426169 61.663 -45.9436
0.429257 61.643 -46.1341
0.432368 61.622 -46.3303
0.435501 61.601 -46.5324
0.438656 61.580 -46.7405
0.441835 61.559 -46.9546
0.445037 61.537 -47.1750
0.448262 61.516 -47.4017
0.451510 61.494 -47.6348
0.454782 61.472 -47.8744
0.458077 61.450 -48.1206
0.461397 61.428 -48.3737
0.464740 61.406 -48.6335
0.468108 61.384 -48.9004
0.471500 61.361 -49.1744
0.474917 61.338 -49.4556
0.478358 61.315 -49.7441
0.481825 61.292 -50.0401
0.485316 61.269 -50.3436
0.488833 61.245 -50.6549
0.492375 61.222 -50.9739
0.495943 61.198 -51.3008
0.499537 61.174 -51.6358
0.503157 61.150 -51.9790
0.506803 61.125 -52.3304
0.510475 61.101 -52.6901
0.514175 61.076 -53.0584
0.517900 61.051 -53.4352
0.521653 61.026 -53.8207
0.525434 61.001 -54.2150
0.529241 60.976 -54.6182
0.533076 60.950 -55.0304
0.536939 60.924 -55.4516
0.540830 60.898 -55.8819
0.544749 60.872 -56.3215
0.548696 60.846 -56.7703
0.552673 60.819 -57.2285
0.556677 60.793 -57.6960
0.560711 60.766 -58.1730
0.564774 60.739 -58.6595
0.568867 60.711 -59.1554
0.572989 60.684 -59.6608
0.577141 60.656 -60.1757
0.581324 60.628 -60.7001
0.585536 60.600 -61.2340
0.589779 60.572 -61.7772
0.594053 60.543 -62.3298
0.598358 60.515 -62.8916
0.602694 60.486 -63.4627
0.607061 60.457 -64.0427
0.611460 60.427 -64.6318
0.615891 60.398 -65.2296
0.620354 60.368 -65.8360
0.624849 60.338 -66.4508
0.629377 60.308 -67.0738
0.633938 60.277 -67.7047
0.638532 60.247 -68.3434
0.643159 60.216 -68.9894
0.647819 60.185 -69.6426
0.652514 60.154 -70.3025
0.657242 60.122 -70.9687
0.662005 60.090 -71.6409
0.666802 60.058 -72.3187
0.671634 60.026 -73.0016
0.676501 59.994 -73.6890
0.681403 59.961 -74.3806
0.686341 59.928 -75.0757
0.691314 59.895 -75.7737
0.696324 59.861 -76.4740
0.701370 59.827 -77.1758
0.706452 59.793 -77.8784
0.711571 59.758 -78.5808
0.716728 59.723 -79.2824
0.721921 59.686 -79.9827
0.727153 59.648 -80.6821
0.732422 59.607 -81.3822
0.737729 59.564 -82.0869
0.743075 59.519 -82.8017
0.748460 59.470 -83.5325
0.753883 59.418 -84.2843
0.759346 59.363 -85.0606
0.764849 59.305 -85.8643
0.770391 59.244 -86.6972
0.775974 59.181 -87.5608
0.781597 59.115 -88.4562
0.787261 59.047 -89.3845
0.792966 58.976 -90.3466
0.798712 58.902 -91.3434
0.804500 58.827 -92.3757
0.810329 58.749 -93.4444
0.816201 58.670 -94.5505
0.822116 58.588 -95.6946
0.828073 58.505 -96.8777
0.834074 58.420 -98.1005
0.840118 58.334 -99.3638
0.846206 58.246 -100.6683
0.852338 58.157 -102.0146
0.858514 58.068 -103.4035
0.864735 57.977 -104.8353
0.871001 57.886 -106.3107
0.877313 57.795 -107.8300
0.883670 57.703 -109.3934
0.890074 57.611 -111.0013
0.896524 57.520 -112.6537
0.903020 57.429 -114.3506
0.909564 57.339 -116.0919
0.916155 57.249 -117.8772
0.922794 57.161 -119.7063
0.929481 57.075 -121.5786
0.936216 56.990 -123.4934
0.943000 56.907 -125.4501
0.949834 56.827 -127.4478
0.956717 56.749 -129.4855
0.963649 56.675 -131.5621
0.970632 56.603 -133.6766
0.977666 56.536 -135.8278
0.984750 56.473 -138.0144
0.991886 56.414 -140.2352
0.999074 56.360 -142.4891
1.006314 56.312 -144.7748
1.013606 56.270 -147.0913
1.020951 56.233 -149.4376
1.028349 56.204 -151.8127
1.035801 56.182 -154.2160
1.043307 56.167 -156.6469
1.050867 56.161 -159.1052
1.058482 56.164 -161.5910
1.066152 56.176 -164.1047
1.073878 56.198 -166.6472
1.081660 56.231 -169.2200
1.089498 56.274 -171.8246
1.097393 56.330 -174.4628
1.105345 56.397 -177.1352
1.113355 56.476 -179.8405
1.121423 56.567 177.4252
1.129549 56.671 174.6685
1.137734 56.786 171.8981
1.145979 56.914 169.1239
1.154283 57.053 166.3565
1.162647 57.203 163.6065
1.171072 57.365 160.8842
1.179558 57.537 158.1989
1.188106 57.720 155.5590
1.196715 57.913 152.9720
1.205387 58.116 150.4440
1.214122 58.327 147.9798
1.222920 58.548 145.5832
1.231782 58.777 143.2566
1.240708 59.014 141.0015
1.249699 59.259 138.8185
1.258754 59.510 136.7072
1.267876 59.768 134.6667
1.277063 60.031 132.6952
1.286318 60.299 130.7909
1.295639 60.572 128.9511
1.305027 60.849 127.1733
1.314484 61.129 125.4546
1.324009 61.411 123.7917
1.333604 61.695 122.1819
1.343268 61.980 120.6217
1.353002 62.265 119.1081
1.362806 62.549 117.6380
1.372681 62.832 116.2083
1.382628 63.112 114.8161
1.392647 63.389 113.4584
1.402739 63.662 112.1326
1.412904 63.930 110.8358
1.423142 64.193 109.5658
1.433455 64.449 108.3203
1.443843 64.700 107.0975
1.454305 64.945 105.8959
1.464844 65.185 104.7148
1.475459 65.421 103.5538
1.486150 65.654 102.4130
1.496920 65.886 101.2923
1.507767 66.117 100.1919
1.518693 66.347 99.1113
1.529698 66.577 98.0501
1.540783 66.807 97.0077
1.551948 67.036 95.9833
1.563194 67.266 94.9760
1.574521 67.495 93.9847
1.585931 67.725 93.0087
1.597423 67.954 92.0468
1.608999 68.182 91.0980
1.620658 68.411 90.1612
1.632402 68.639 89.2354
1.644232 68.867 88.3195
1.656146 69.094 87.4124
1.668147 69.320 86.5131
1.680235 69.546 85.6206
1.692411 69.771 84.7338
1.704675 69.996 83.8517
1.717028 70.220 82.9733
1.729470 70.442 82.0975
1.742003 70.664 81.2235
1.754626 70.885 80.3503
1.767341 71.104 79.4771
1.780147 71.323 78.6030
1.793047 71.540 77.7277
1.806040 71.755 76.8506
1.819128 71.969 75.9719
1.832310 72.181 75.0920
1.845587 72.392 74.2117
1.858961 72.600 73.3322
1.872432 72.806 72.4544
1.886001 73.010 71.5794
1.899667 73.212 70.7078
1.913433 73.413 69.8403
1.927299 73.611 68.9773
1.941265 73.807 68.1190
1.955332 74.001 67.2655
1.969501 74.194 66.4168
1.983773 74.385 65.5730
1.998148 74.575 64.7338
2.012627 74.764 63.8990
2.027212 74.951 63.0684
2.041902 75.137 62.2415
2.056698 75.322 61.4180
2.071602 75.507 60.5974
2.086614 75.690 59.7791
2.101734 75.874 58.9627
2.116964 76.056 58.1475
2.132304 76.239 57.3330
2.147756 76.421 56.5186
2.163320 76.604 55.7036
2.178996 76.785 54.8878
2.194786 76.967 54.0708
2.210690 77.148 53.2528
2.226710 77.327 52.4338
2.242845 77.506 51.6143
2.259098 77.684 50.7948
2.275468 77.860 49.9757
2.291957 78.035 49.1576
2.308566 78.208 48.3406
2.325295 78.381 47.5253
2.342145 78.552 46.7116
2.359117 78.722 45.8999
2.376212 78.891 45.0901
2.393431 79.059 44.2822
2.410775 79.226 43.4761
2.428244 79.392 42.6717
2.445840 79.558 41.8687
2.463564 79.723 41.0668
2.481416 79.888 40.2657
2.499397 80.052 39.4649
2.517509 80.216 38.6640
2.535752 80.380 37.8625
2.554127 80.542 37.0598
2.572635 80.705 36.2555
2.591277 80.866 35.4495
2.610055 81.026 34.6416
2.628968 81.186 33.8321
2.648019 81.344 33.0213
2.667208 81.502 32.2097
2.686535 81.658 31.3977
2.706003 81.813 30.5858
2.725612 81.967 29.7741
2.745363 82.121 28.9632
2.765257 82.273 28.1532
2.785295 82.425 27.3442
2.805478 82.576 26.5364
2.825808 82.726 25.7297
2.846285 82.876 24.9240
2.866910 83.025 24.1189
2.887685 83.174 23.3142
2.908611 83.322 22.5094
2.929688 83.469 21.7038
2.950917 83.616 20.8969
2.972301 83.762 20.0882
2.993839 83.907 19.2777
3.015534 84.051 18.4656
3.037386 84.194 17.6520
3.059396 84.336 16.8376
3.081565 84.477 16.0228
3.103896 84.617 15.2080
3.126388 84.756 14.3936
3.149043 84.895 13.5800
3.171862 85.032 12.7675
3.194847 85.169 11.9561
3.217998 85.306 11.1458
3.241317 85.442 10.3364
3.264805 85.577 9.5275
3.288463 85.711 8.7185
3.312293 85.845 7.9087
3.336295 85.978 7.0974
3.360471 86.110 6.2844
3.384822 86.241 5.4697
3.409350 86.371 4.6534
3.434056 86.500 3.8362
3.458940 86.628 3.0184
3.484005 86.755 2.2007
3.509252 86.882 1.3835
3.534681 87.007 0.5675
3.560295 87.132 -0.2473
3.586094 87.257 -1.0605
3.612081 87.380 -1.8726
3.638255 87.503 -2.6835
3.664620 87.625 -3.4941
3.691175 87.747 -4.3051
3.717923 87.867 -5.1169
3.744864 87.986 -5.9299
3.772001 88.105 -6.7440
3.799335 88.223 -7.5590
3.826866 88.339 -8.3741
3.854597 88.455 -9.1891
3.882529 88.570 -10.0032
3.910664 88.684 -10.8160
3.939002 88.798 -11.6272
3.967546 88.911 -12.4368
3.996296 89.023 -13.2449
4.025255 89.134 -14.0521
4.054423 89.244 -14.8589
4.083804 89.354 -15.6660
4.113396 89.463 -16.4738
4.143204 89.570 -17.2820
4.173227 89.677 -18.0906
4.203468 89.783 -18.8990
4.233928 89.888 -19.7067
4.264609 89.992 -20.5129
4.295512 90.096 -21.3176
4.326639 90.199 -22.1202
4.357992 90.301 -22.9209
4.389572 90.402 -23.7200
4.421380 90.502 -24.5180
4.453419 90.602 -25.3156
4.485691 90.700 -26.1129
4.518196 90.798 -26.9102
4.550936 90.895 -27.7069
4.583914 90.991 -28.5028
4.617131 91.086 -29.2973
4.650589 91.181 -30.0900
4.684289 91.275 -30.8804
4.718233 91.368 -31.6687
4.752424 91.460 -32.4549
4.786862 91.551 -33.2395
4.821549 91.642 -34.0229
4.856488 91.732 -34.8055
4.891680 91.820 -35.5872
4.927127 91.909 -36.3679
4.962831 91.996 -37.1470
4.998794 92.082 -37.9243
5.035017 92.168 -38.6994
5.071503 92.253 -39.4720
5.108253 92.338 -40.2422
5.145270 92.421 -41.0103
5.182555 92.504 -41.7765
5.220110 92.586 -42.5413
5.257937 92.668 -43.3047
5.296038 92.748 -44.0665
5.334415 92.828 -44.8265
5.373071 92.907 -45.5844
5.412006 92.986 -46.3397
5.451224 93.064 -47.0925
5.490725 93.141 -47.8428
5.530514 93.217 -48.5908
5.570590 93.293 -49.3369
5.610957 93.368 -50.0811
5.651616 93.442 -50.8235
5.692570 93.516 -51.5639
5.733821 93.589 -52.3021
5.775370 93.662 -53.0378
5.817221 93.733 -53.7710
5.859375 93.804 -54.5017
5.901834 93.875 -55.2301
5.944602 93.945 -55.9564
5.987679 94.014 -56.6807
6.031068 94.083 -57.4030
6.074771 94.151 -58.1232
6.118792 94.218 -58.8409
6.163131 94.285 -59.5563
6.207792 94.351 -60.2692
6.252776 94.417 -60.9797
6.298086 94.482 -61.6880
6.343725 94.547 -62.3942
6.389694 94.610 -63.0983
6.435996 94.674 -63.8002
6.482634 94.736 -64.4998
6.529610 94.799 -65.1970
6.576926 94.860 -65.8917
6.624585 94.921 -66.5841
6.672590 94.982 -67.2743
6.720942 95.041 -67.9623
6.769645 95.101 -68.6481
6.818700 95.159 -69.3315
6.868111 95.218 -70.0126
6.917881 95.275 -70.6911
6.968010 95.332 -71.3672
7.018504 95.389 -72.0408
7.069362 95.445 -72.7122
7.120590 95.500 -73.3812
7.172189 95.555 -74.0477
7.224161 95.610 -74.7119
7.276511 95.664 -75.3735
7.329239 95.717 -76.0325
7.382350 95.770 -76.6890
7.435845 95.823 -77.3431
7.489729 95.875 -77.9948
7.544002 95.926 -78.6440
7.598669 95.977 -79.2908
7.653732 96.028 -79.9351
7.709194 96.078 -80.5769
7.765058 96.127 -81.2163
7.821327 96.177 -81.8534
7.878004 96.225 -82.4882
7.935091 96.274 -83.1207
7.992592 96.322 -83.7510
8.050510 96.369 -84.3790
8.108847 96.416 -85.0050
8.167607 96.463 -85.6289
8.226793 96.509 -86.2508
8.286408 96.555 -86.8707
8.346454 96.601 -87.4888
8.406936 96.646 -88.1050
8.467856 96.691 -88.7194
8.529218 96.735 -89.3320
8.591024 96.779 -89.9430
8.653278 96.822 -90.5522
8.715983 96.865 -91.1598
8.779143 96.907 -91.7656
8.842760 96.949 -92.3698
8.906839 96.990 -92.9722
8.971381 97.031 -93.5730
9.036392 97.072 -94.1719
9.101873 97.112 -94.7689
9.167829 97.151 -95.3639
9.234263 97.190 -95.9569
9.301178 97.228 -96.5477
9.368578 97.266 -97.1364
9.436467 97.303 -97.7227
9.504847 97.340 -98.3065
9.573723 97.376 -98.8876
9.643099 97.412 -99.4661
9.712976 97.447 -100.0419
9.783361 97.482 -100.6149
9.854255 97.516 -101.1848
9.925663 97.550 -101.7520
9.997588 97.583 -102.3160
10.070035 97.616 -102.8772
10.143007 97.649 -103.4355
10.216507 97.681 -103.9911
10.290540 97.714 -104.5439
10.365109 97.745 -105.0941
10.440219 97.777 -105.6420
10.515873 97.808 -106.1876
10.592076 97.840 -106.7311
10.668830 97.870 -107.2729
10.746141 97.901 -107.8130
10.824012 97.932 -108.3516
10.902447 97.962 -108.8889
10.981451 97.992 -109.4252
11.061027 98.021 -109.9604
11.141180 98.050 -110.4947
11.221913 98.079 -111.0281
11.303232 98.107 -111.5605
11.385140 98.135 -112.0919
11.467641 98.162 -112.6222
11.550741 98.189 -113.1511
11.634442 98.215 -113.6785
11.718750 98.241 -114.2039
11.803669 98.266 -114.7271
11.889203 98.290 -115.2477
11.975357 98.314 -115.7655
12.062136 98.337 -116.2799
12.149543 98.360 -116.7907
12.237583 98.382 -117.2976
12.326262 98.403 -117.8005
12.415583 98.425 -118.2991
12.505552 98.446 -118.7934
12.596172 98.467 -119.2834
12.687449 98.488 -119.7694
12.779387 98.509 -120.2515
12.871992 98.529 -120.7300
12.965268 98.550 -121.2056
13.059220 98.572 -121.6785
13.153852 98.593 -122.1494
13.249170 98.614 -122.6189
13.345179 98.636 -123.0875
13.441884 98.657 -123.5558
13.539289 98.679 -124.0243
13.637401 98.701 -124.4933
13.736223 98.722 -124.9631
13.835761 98.743 -125.4337
13.936021 98.764 -125.9053
14.037007 98.785 -126.3776
14.138725 98.805 -126.8504
14.241180 98.824 -127.3231
14.344377 98.843 -127.7953
14.448323 98.861 -128.2664
14.553021 98.878 -128.7357
14.658478 98.895 -129.2027
14.764700 98.911 -129.6667
14.871691 98.927 -130.1273
14.979457 98.942 -130.5841
15.088005 98.957 -131.0369
15.197339 98.971 -131.4857
15.307465 98.986 -131.9306
15.418389 99.000 -132.3719
15.530117 99.015 -132.8099
15.642655 99.029 -133.2453
15.756008 99.044 -133.6786
15.870182 99.058 -134.1104
15.985184 99.073 -134.5413
16.101019 99.088 -134.9718
16.217694 99.103 -135.4022
16.335214 99.117 -135.8328
16.453586 99.131 -136.2635
16.572815 99.145 -136.6944
16.692909 99.159 -137.1250
16.813872 99.171 -137.5549
16.935713 99.184 -137.9836
17.058436 99.196 -138.4106
17.182048 99.207 -138.8354
17.306556 99.218 -139.2574
17.431967 99.228 -139.6763
17.558286 99.239 -140.0920
17.685521 99.249 -140.5044
17.813677 99.258 -140.9137
17.942762 99.268 -141.3201
18.072783 99.278 -141.7240
18.203746 99.288 -142.1260
18.335658 99.297 -142.5266
18.468526 99.307 -142.9261
18.602356 99.317 -143.3249
18.737156 99.326 -143.7233
18.872934 99.336 -144.1212
19.009695 99.344 -144.5186
19.147447 99.353 -144.9152
19.286197 99.361 -145.3107
19.425953 99.369 -145.7047
19.566721 99.377 -146.0968
19.708510 99.384 -146.4868
19.851326 99.391 -146.8743
19.995177 99.397 -147.2594
20.140070 99.404 -147.6422
20.286013 99.410 -148.0228
20.433014 99.417 -148.4018
20.581080 99.423 -148.7794
20.730219 99.429 -149.1561
20.880439 99.436 -149.5322
21.031747 99.442 -149.9079
21.184152 99.447 -150.2833
21.337661 99.453 -150.6581
21.492282 99.458 -151.0323
21.648024 99.463 -151.4051
21.804895 99.467 -151.7761
21.962902 99.471 -152.1448
22.122054 99.474 -152.5106
22.282360 99.477 -152.8730
22.443827 99.480 -153.2320
22.606464 99.483 -153.5873
22.770280 99.485 -153.9392
22.935283 99.488 -154.2878
23.101481 99.491 -154.6335
23.268884 99.494 -154.9768
23.437500 99.497 -155.3181
23.607338 99.500 -155.6577
23.778406 99.503 -155.9960
23.950714 99.506 -156.3333
24.124271 99.510 -156.6697
24.299086 99.513 -157.0056
24.475167 99.517 -157.3411
24.652524 99.520 -157.6765
24.831166 99.524 -158.0122
25.011103 99.528 -158.3487
25.192344 99.531 -158.6863
25.374898 99.534 -159.0254
25.558775 99.538 -159.3661
25.743984 99.540 -159.7086
25.930536 99.542 -160.0524
26.118439 99.544 -160.3970
26.307704 99.544 -160.7417
26.498341 99.544 -161.0856
26.690359 99.544 -161.4278
26.883768 99.542 -161.7675
27.078579 99.540 -162.1040
27.274801 99.537 -162.4371
27.472446 99.534 -162.7667
27.671522 99.531 -163.0932
27.872042 99.527 -163.4168
28.074014 99.524 -163.7382
28.277450 99.520 -164.0576
28.482360 99.516 -164.3755
28.688755 99.512 -164.6918
28.896645 99.507 -165.0063
29.106042 99.502 -165.3190
29.316957 99.496 -165.6293
29.529400 99.491 -165.9368
29.743382 99.485 -166.2412
29.958915 99.479 -166.5422
30.176009 99.472 -166.8394
30.394677 99.466 -167.1326
30.614929 99.459 -167.4212
30.836778 99.453 -167.7051
31.060234 99.447 -167.9840
31.285309 99.441 -168.2583
31.512015 99.437 -168.5287
31.740364 99.433 -168.7966
31.970368 99.430 -169.0640
32.202039 99.429 -169.3333
32.435388 99.428 -169.6071
32.670428 99.429 -169.8875
32.907171 99.429 -170.1758
33.145630 99.430 -170.4725
33.385817 99.430 -170.7769
33.627745 99.429 -171.0872
33.871425 99.427 -171.4010
34.116871 99.424 -171.7159
34.364096 99.420 -172.0294
34.613113 99.415 -172.3397
34.863934 99.409 -172.6456
35.116572 99.403 -172.9469
35.371041 99.397 -173.2438
35.627354 99.391 -173.5369
35.885525 99.385 -173.8277
36.145566 99.380 -174.1177
36.407492 99.376 -174.4084
36.671316 99.371 -174.7017
36.937051 99.367 -174.9986
37.204712 99.362 -175.2997
37.474313 99.357 -175.6045
37.745867 99.350 -175.9120
38.019389 99.343 -176.2201
38.294893 99.335 -176.5266
38.572394 99.326 -176.8294
38.851905 99.316 -177.1273
39.133442 99.305 -177.4199
39.417019 99.295 -177.7075
39.702651 99.285 -177.9915
39.990353 99.274 -178.2731
40.280140 99.264 -178.5535
40.572026 99.254 -178.8336
40.866028 99.244 -179.1135
41.162160 99.233 -179.3931
41.460438 99.222 -179.6718
41.760877 99.211 -179.9493
42.063494 99.199 179.7748
42.368303 99.187 179.5002
42.675322 99.176 179.2268
42.984565 99.164 178.9537
43.296048 99.152 178.6801
43.609789 99.140 178.4055
43.925804 99.128 178.1301
44.244108 99.115 177.8546
44.564719 99.102 177.5804
44.887654 99.088 177.3090
45.212928 99.074 177.0413
45.540560 99.061 176.7773
45.870565 99.047 176.5161
46.202962 99.035 176.2557
46.537768 99.022 175.9943
46.875000 99.010 175.7305
47.214676 98.997 175.4644
47.556813 98.984 175.1973
47.901429 98.971 174.9309
48.248542 98.957 174.6672
48.598171 98.942 174.4069
48.950334 98.928 174.1495
49.305048 98.914 173.8938
49.662333 98.900 173.6381
50.022206 98.886 173.3810
50.384688 98.872 173.1217
50.749796 98.858 172.8601
51.117550 98.843 172.5961
51.487969 98.828 172.3297
51.861072 98.812 172.0613
52.236879 98.796 171.7921
52.615409 98.779 171.5231
52.996681 98.761 171.2554
53.380717 98.744 170.9888
53.767536 98.726 170.7227
54.157158 98.708 170.4561
54.549603 98.690 170.1884
54.944892 98.671 169.9204
55.343045 98.653 169.6534
55.744084 98.634 169.3877
56.148028 98.615 169.1228
56.554900 98.595 168.8579
56.964720 98.575 168.5936
57.377510 98.554 168.3326
57.793291 98.533 168.0789
58.212085 98.510 167.8351
58.633914 98.488 167.6006
59.058799 98.467 167.3713
59.486764 98.447 167.1422
59.917829 98.428 166.9092
60.352019 98.408 166.6715
60.789354 98.387 166.4305
61.229859 98.366 166.1882
61.673556 98.344 165.9463
62.120468 98.322 165.7057
62.570618 98.300 165.4665
63.024031 98.277 165.2277
63.480729 98.255 164.9883
63.940736 98.233 164.7477
64.404077 98.210 164.5067
64.870776 98.188 164.2670
65.340856 98.165 164.0303
65.814343 98.142 163.7974
66.291261 98.119 163.5676
66.771635 98.096 163.3394
67.255489 98.074 163.1108
67.742850 98.051 162.8790
68.233743 98.028 162.6413
68.728193 98.004 162.3967
69.226226 97.977 162.1484
69.727867 97.948 161.9033
70.233144 97.916 161.6693
70.742083 97.884 161.4500
71.254709 97.853 161.2422
71.771050 97.823 161.0375
72.291132 97.795 160.8271
72.814984 97.767 160.6074
73.342631 97.739 160.3802
73.874102 97.711 160.1503
74.409424 97.683 159.9215
74.948626 97.654 159.6948
75.491734 97.626 159.4702
76.038779 97.598 159.2474
76.589787 97.570 159.0267
77.144788 97.542 158.8071
77.703811 97.514 158.5874
78.266885 97.485 158.3670
78.834039 97.455 158.1464
79.405303 97.424 157.9269
79.980706 97.392 157.7096
80.560280 97.360 157.4955
81.144053 97.327 157.2844
81.732056 97.294 157.0745
82.324320 97.261 156.8629
82.920876 97.228 156.6479
83.521755 97.195 156.4303
84.126988 97.162 156.2115
84.736607 97.128 155.9933
85.350643 97.094 155.7769
85.969129 97.060 155.5634
86.592097 97.025 155.3537
87.219579 96.990 155.1476
87.851608 96.955 154.9440
88.488217 96.919 154.7416
89.129439 96.884 154.5392
89.775308 96.848 154.3362
90.425856 96.811 154.1323
91.081119 96.773 153.9286
91.741131 96.735 153.7269
92.405925 96.696 153.5294
93.075536 96.656 153.3378
93.750000 96.617 153.1520
94.429351 96.577 152.9713
95.113625 96.537 152.7938
95.802858 96.497 152.6181
96.497085 96.457 152.4427
97.196342 96.417 152.2666
97.900667 96.376 152.0896
98.610096 96.334 151.9121
99.324665 96.292 151.7344
100.044413 96.249 151.5566
100.769376 96.205 151.3789
101.499592 96.162 151.2018
102.235100 96.117 151.0263
102.975938 96.073 150.8533
103.722144 96.028 150.6837
104.473757 95.982 150.5176
105.230817 95.937 150.3547
105.993363 95.891 150.1941
106.761435 95.845 150.0348
107.535072 95.798 149.8759
108.314315 95.752 149.7166
109.099206 95.704 149.5568
109.889783 95.657 149.3972
110.686090 95.608 149.2390
111.488167 95.560 149.0837
112.296056 95.510 148.9329
113.109800 95.460 148.7875
113.929440 95.409 148.6490
114.755020 95.356 148.5184
115.586582 95.303 148.3964
116.424170 95.249 148.2825
117.267827 95.193 148.1761
118.117598 95.137 148.0762
118.973527 95.082 147.9789
119.835658 95.026 147.8766
120.704037 94.971 147.7625
121.578708 94.915 147.6374
122.459718 94.857 147.5098
123.347111 94.799 147.3881
124.240935 94.741 147.2764
125.141236 94.683 147.1740
126.048061 94.625 147.0793
126.961458 94.567 146.9928
127.881473 94.508 146.9165
128.808154 94.448 146.8518
129.741551 94.386 146.7982
130.681712 94.323 146.7524
131.628686 94.259 146.7095
132.582521 94.194 146.6650
133.543269 94.127 146.6172
134.510979 94.058 146.5687
135.485701 93.988 146.5260
136.467486 93.917 146.4993
137.456386 93.843 146.5033
138.452451 93.770 146.5543
139.455735 93.697 146.6604
140.466288 93.628 146.8165
141.484165 93.563 147.0123
142.509418 93.502 147.2378
143.542100 93.447 147.4828
144.582265 93.397 147.7358
145.629968 93.353 147.9841
146.685262 93.317 148.2151
147.748204 93.287 148.4172
148.818849 93.263 148.5803
149.897251 93.243 148.6967
150.983469 93.225 148.7638
152.077557 93.206 148.7857
153.179574 93.183 148.7722
154.289576 93.157 148.7347
155.407622 93.126 148.6821
156.533770 93.089 148.6205
157.668078 93.048 148.5569
158.810606 93.002 148.4991
159.961413 92.953 148.4541
161.120559 92.900 148.4268
162.288105 92.845 148.4178
163.464112 92.789 148.4246
164.648640 92.732 148.4440
165.841752 92.674 148.4756
167.043510 92.615 148.5205
168.253976 92.555 148.5801
169.473213 92.495 148.6543
170.701286 92.434 148.7419
171.938258 92.374 148.8417
173.184194 92.315 148.9528
174.439158 92.257 149.0743
175.703216 92.199 149.2058
176.976434 92.143 149.3469
178.258878 92.088 149.4966
179.550615 92.034 149.6536
180.851713 91.980 149.8168
182.162239 91.928 149.9855
183.482262 91.877 150.1591
184.811850 91.826 150.3375
186.151073 91.777 150.5209
187.500000 91.728 150.7095
188.858702 91.680 150.9043
190.227250 91.633 151.1053
191.605715 91.587 151.3123
192.994169 91.541 151.5235
194.392685 91.496 151.7375
195.801334 91.452 151.9530
197.220191 91.409 152.1693
198.649330 91.367 152.3860
200.088825 91.325 152.6029
201.538751 91.285 152.8209
202.999184 91.246 153.0413
204.470200 91.207 153.2657
205.951875 91.169 153.4955
207.444287 91.133 153.7315
208.947514 91.097 153.9731
210.461634 91.062 154.2185
211.986726 91.028 154.4643
213.522869 90.995 154.7070
215.070144 90.963 154.9452
216.628631 90.931 155.1781
218.198411 90.900 155.4055
219.779567 90.870 155.6297
221.372180 90.839 155.8517
222.976334 90.809 156.0745
224.592112 90.778 156.3044
226.219600 90.749 156.5450
227.858880 90.721 156.7996
229.510039 90.696 157.0676
231.173164 90.674 157.3413
232.848340 90.654 157.6162
234.535655 90.637 157.8906
236.235197 90.622 158.1597
237.947054 90.610 158.4238
239.671317 90.601 158.6777
241.408074 90.594 158.9109
243.157416 90.585 159.1293
244.919435 90.572 159.3315
246.694223 90.555 159.5092
248.481871 90.532 159.6766
250.282473 90.506 159.8292
252.096123 90.480 159.9626
253.922915 90.453 160.0968
255.762945 90.428 160.2407
257.616309 90.404 160.3900
259.483103 90.381 160.5457
261.363424 90.358 160.7114
263.257372 90.337 160.8834
265.165043 90.318 161.0544
267.086538 90.300 161.2241
269.021957 90.282 161.3952
270.971401 90.264 161.5676
272.934972 90.245 161.7353
274.912771 90.227 161.8931
276.904902 90.206 162.0449
278.911469 90.185 162.1995
280.932577 90.164 162.3586
282.968330 90.143 162.5164
285.018835 90.124 162.6675
287.084199 90.103 162.8140
289.164530 90.081 162.9628
291.259935 90.058 163.1167
293.370525 90.033 163.2748
295.496408 90.008 163.4365
297.637697 89.983 163.6010
299.794503 89.959 163.7645
301.966937 89.935 163.9212
304.155114 89.910 164.0698
306.359147 89.885 164.2161
308.579152 89.858 164.3683
310.815244 89.831 164.5303
313.067539 89.804 164.6998
315.336156 89.777 164.8730
317.621211 89.750 165.0488
319.922826 89.722 165.2280
322.241118 89.693 165.4123
324.576210 89.664 165.6031
326.928223 89.634 165.8030
329.297280 89.605 166.0130
331.683504 89.577 166.2314
334.087019 89.550 166.4540
336.507952 89.525 166.6755
338.946427 89.501 166.8916
341.402572 89.478 167.1000
343.876516 89.455 167.3011
346.368387 89.431 167.4976
348.878315 89.406 167.6934
351.406431 89.381 167.8932
353.952867 89.356 168.1006
356.517756 89.331 168.3169
359.101230 89.306 168.5414
361.703426 89.283 168.7722
364.324478 89.260 169.0074
366.964523 89.237 169.2462
369.623699 89.215 169.4896
372.302145 89.192 169.7391
375.000000 89.169 169.9951
377.717405 89.145 170.2543
380.454501 89.121 170.5131
383.211431 89.097 170.7693
385.988339 89.074 171.0233
388.785369 89.052 171.2770
391.602668 89.032 171.5330
394.440383 89.013 171.7942
397.298660 88.995 172.0630
400.177650 88.977 172.3417
403.077502 88.958 172.6298
405.998368 88.938 172.9224
408.940400 88.916 173.2126
411.903750 88.896 173.4969
414.888575 88.876 173.7772
417.895028 88.858 174.0580
420.923268 88.841 174.3420
423.973452 88.824 174.6279
427.045738 88.808 174.9130
430.140287 88.792 175.1955
433.257261 88.777 175.4758
436.396822 88.763 175.7576
439.559133 88.751 176.0447
442.744360 88.740 176.3386
445.952668 88.729 176.6363
449.184225 88.718 176.9332
452.439199 88.707 177.2265
455.717760 88.696 177.5159
459.020079 88.684 177.8027
462.346327 88.672 178.0878
465.696680 88.660 178.3717
469.071310 88.648 178.6552
472.470394 88.637 178.9391
475.894109 88.626 179.2242
479.342634 88.615 179.5115
482.816148 88.605 179.8008
486.314833 88.594 -179.9084
489.838871 88.584 -179.6175
493.388445 88.573 -179.3269
496.963741 88.563 -179.0364
500.564945 88.552 -178.7452
504.192245 88.542 -178.4532
507.845830 88.531 -178.1608
511.525890 88.521 -177.8683
515.232618 88.511 -177.5758
518.966206 88.501 -177.2828
522.726849 88.491 -176.9890
526.514743 88.482 -176.6938
530.330086 88.473 -176.3981
534.173076 88.464 -176.1014
538.043915 88.455 -175.8029
541.942803 88.446 -175.5012
545.869944 88.436 -175.1959
549.825542 88.426 -174.8873
553.809805 88.415 -174.5766
557.822939 88.404 -174.2648
561.865154 88.393 -173.9517
565.936660 88.382 -173.6362
570.037671 88.371 -173.3167
574.168399 88.360 -172.9926
578.329060 88.349 -172.6636
582.519870 88.338 -172.3303
586.741049 88.327 -171.9929
590.992817 88.316 -171.6511
595.275394 88.306 -171.3046
599.589005 88.295 -170.9535
603.933874 88.284 -170.5979
608.310228 88.273 -170.2379
612.718295 88.262 -169.8727
617.158304 88.251 -169.5016
621.630488 88.240 -169.1233
626.135079 88.228 -168.7367
630.672311 88.217 -168.3406
635.242423 88.206 -167.9346
639.845651 88.195 -167.5181
644.482237 88.184 -167.0906
649.152421 88.174 -166.6519
653.856447 88.165 -166.2017
658.594560 88.156 -165.7397
663.367008 88.149 -165.2663
668.174039 88.144 -164.7815
673.015903 88.139 -164.2859
677.892854 88.137 -163.7798
682.805145 88.136 -163.2634
687.753032 88.138 -162.7377
692.736774 88.142 -162.2039
697.756631 88.149 -161.6641
702.812863 88.158 -161.1209
707.905735 88.170 -160.5764
713.035511 88.184 -160.0322
718.202461 88.200 -159.4894
723.406852 88.219 -158.9492
728.648956 88.240 -158.4123
733.929047 88.262 -157.8799
739.247399 88.287 -157.3527
744.604290 88.313 -156.8314
750.000000 88.341 -156.3161
755.434809 88.370 -155.8065
760.909001 88.401 -155.3022
766.422861 88.433 -154.8033
771.976677 88.465 -154.3094
777.570739 88.499 -153.8200
783.205337 88.533 -153.3343
788.880766 88.568 -152.8515
794.597321 88.604 -152.3710
800.355301 88.641 -151.8925
806.155005 88.678 -151.4160
811.996736 88.717 -150.9420
817.880799 88.756 -150.4704
823.807501 88.797 -150.0010
829.777150 88.838 -149.5335
835.790057 88.880 -149.0674
841.846536 88.923 -148.6024
847.946903 88.966 -148.1384
854.091476 89.011 -147.6757
860.280575 89.057 -147.2148
866.514523 89.104 -146.7564
872.793644 89.153 -146.3008
879.118267 89.202 -145.8478
885.488720 89.253 -145.3973
891.905336 89.305 -144.9492
898.368450 89.358 -144.5034
904.878398 89.412 -144.0604
911.435520 89.467 -143.6206
918.040157 89.524 -143.1844
924.692655 89.582 -142.7521
931.393359 89.642 -142.3245
938.142619 89.703 -141.9023
944.940787 89.765 -141.4863
951.788218 89.829 -141.0767
958.685268 89.893 -140.6735
965.632296 89.959 -140.2770
972.629666 90.026 -139.8872
979.677741 90.093 -139.5039
986.776890 90.162 -139.1272
993.927482 90.232 -138.7573
1001.129891 90.303 -138.3947
1008.384491 90.375 -138.0400
1015.691660 90.448 -137.6937
1023.051781 90.522 -137.3558
1030.465236 90.597 -137.0267
1037.932411 90.673 -136.7067
1045.453698 90.749 -136.3960
1053.029486 90.826 -136.0946
1060.660172 90.904 -135.8024
1068.346153 90.982 -135.5195
1076.087829 91.061 -135.2459
1083.885605 91.140 -134.9819
1091.739887 91.220 -134.7277
1099.651084 91.300 -134.4829
1107.619609 91.380 -134.2477
1115.645878 91.461 -134.0220
1123.730308 91.542 -133.8055
1131.873321 91.623 -133.5984
1140.075341 91.704 -133.4003
1148.336797 91.785 -133.2110
1156.658119 91.865 -133.0303
1165.039741 91.946 -132.8579
1173.482099 92.026 -132.6935
1181.985634 92.106 -132.5366
1190.550789 92.186 -132.3868
1199.178011 92.266 -132.2440
1207.867749 92.346 -132.1078
1216.620457 92.425 -131.9784
1225.436590 92.504 -131.8555
1234.316609 92.583 -131.7389
1243.260976 92.661 -131.6279
1252.270157 92.740 -131.5220
1261.344623 92.817 -131.4211
1270.484846 92.895 -131.3248
1279.691303 92.972 -131.2328
1288.964474 93.048 -131.1451
1298.304842 93.125 -131.0616
1307.712894 93.201 -130.9820
1317.189120 93.277 -130.9062
1326.734016 93.353 -130.8337
1336.348077 93.428 -130.7642
1346.031806 93.504 -130.6973
1355.785708 93.579 -130.6330
1365.610290 93.654 -130.5714
1375.506065 93.729 -130.5125
1385.473549 93.803 -130.4563
1395.513261 93.878 -130.4025
1405.625726 93.953 -130.3506
1415.811469 94.027 -130.3006
1426.071023 94.102 -130.2521
1436.404921 94.177 -130.2054
1446.813703 94.252 -130.1603
1457.297912 94.327 -130.1171
1467.858093 94.402 -130.0757
1478.494798 94.477 -130.0363
1489.208581 94.553 -129.9987
1500.000000 94.629 -129.9631
1510.869618 94.705 -129.9297
1521.818002 94.781 -129.8984
1532.845723 94.858 -129.8696
1543.953355 94.935 -129.8431
1555.141477 95.013 -129.8192
1566.410674 95.091 -129.7977
1577.761531 95.170 -129.7788
1589.194642 95.249 -129.7626
1600.710601 95.329 -129.7492
1612.310010 95.409 -129.7390
1623.993473 95.490 -129.7322
1635.761599 95.572 -129.7291
1647.615002 95.654 -129.7301
1659.554299 95.737 -129.7356
1671.580114 95.820 -129.7457
1683.693072 95.905 -129.7610
1695.893807 95.990 -129.7816
1708.182952 96.076 -129.8078
1720.561150 96.162 -129.8397
1733.029045 96.250 -129.8776
1745.587288 96.337 -129.9218
1758.236533 96.426 -129.9724
1770.977440 96.516 -130.0298
1783.810673 96.606 -130.0944
1796.736900 96.697 -130.1666
1809.756796 96.788 -130.2469
1822.871040 96.881 -130.3355
1836.080315 96.974 -130.4329
1849.385310 97.068 -130.5394
1862.786718 97.163 -130.6556
1876.285239 97.258 -130.7819
1889.881575 97.354 -130.9188
1903.576436 97.451 -131.0665
1917.370535 97.548 -131.2256
1931.264593 97.646 -131.3962
1945.259332 97.744 -131.5789
1959.355483 97.843 -131.7740
1973.553781 97.942 -131.9818
1987.854965 98.042 -132.2030
2002.259781 98.142 -132.4379
2016.768981 98.243 -132.6870
2031.383320 98.343 -132.9507
2046.103561 98.444 -133.2292
2060.930471 98.545 -133.5229
2075.864823 98.646 -133.8323
2090.907395 98.747 -134.1577
2106.058972 98.848 -134.4996
2121.320344 98.949 -134.8585
2136.692305 99.050 -135.2347
2152.175658 99.150 -135.6287
2167.771210 99.249 -136.0408
2183.479774 99.348 -136.4713
2199.302169 99.447 -136.9208
2215.239219 99.544 -137.3892
2231.291755 99.641 -137.8769
2247.460615 99.736 -138.3839
2263.746641 99.831 -138.9101
2280.150683 99.923 -139.4556
2296.673595 100.015 -140.0202
2313.316238 100.104 -140.6038
2330.079481 100.191 -141.2064
2346.964198 100.277 -141.8277
2363.971268 100.360 -142.4674
2381.101578 100.441 -143.1252
2398.356022 100.519 -143.8006
2415.735498 100.595 -144.4929
2433.240913 100.667 -145.2017
2450.873180 100.737 -145.9260
2468.633217 100.804 -146.6654
2486.521951 100.867 -147.4191
2504.540314 100.927 -148.1862
2522.689246 100.983 -148.9658
2540.969692 101.036 -149.7568
2559.382606 101.085 -150.5582
2577.928947 101.130 -151.3689
2596.609683 101.171 -152.1877
2615.425787 101.208 -153.0135
2634.378241 101.240 -153.8452
2653.468031 101.269 -154.6812
2672.696154 101.293 -155.5202
2692.063613 101.313 -156.3607
2711.571415 101.329 -157.2012
2731.220579 101.340 -158.0402
2751.012130 101.347 -158.8761
2770.947098 101.349 -159.7076
2791.026522 101.347 -160.5332
2811.251451 101.341 -161.3513
2831.622938 101.331 -162.1605
2852.142045 101.316 -162.9592
2872.809842 101.298 -163.7458
2893.627406 101.275 -164.5189
2914.595823 101.249 -165.2770
2935.716186 101.219 -166.0186
2956.989596 101.185 -166.7418
2978.417161 101.148 -167.4449
3000.000000 101.107 -168.1260
3021.739237 101.063 -168.7831
3043.636005 101.017 -169.4141
3065.691446 100.968 -170.0172
3087.906710 100.918 -170.5904
3110.282955 100.867 -171.1326
3132.821347 100.815 -171.6434
3155.523062 100.763 -172.1233
3178.389283 100.712 -172.5745
3201.421202 100.663 -173.0008
3224.620020 100.617 -173.4077
3247.986946 100.573 -173.8019
3271.523198 100.532 -174.1907
3295.230004 100.493 -174.5802
3319.108599 100.456 -174.9750
3343.160228 100.419 -175.3770
3367.386145 100.381 -175.7852
3391.787613 100.342 -176.1968
3416.365904 100.302 -176.6074
3441.122300 100.260 -177.0126
3466.058091 100.216 -177.4088
3491.174576 100.171 -177.7935
3516.473066 100.126 -178.1658
3541.954880 100.081 -178.5267
3567.621345 100.035 -178.8782
3593.473800 99.991 -179.2234
3619.513592 99.946 -179.5654
3645.742080 99.902 -179.9069
3672.160630 99.857 179.7502
3698.770620 99.812 179.4052
3725.573436 99.765 179.0586
3752.570477 99.716 178.7128
3779.763150 99.665 178.3713
3807.152872 99.612 178.0389
3834.741071 99.555 177.7211
3862.529185 99.497 177.4234
3890.518664 99.437 177.1503
3918.710966 99.376 176.9048
3947.107561 99.316 176.6874
3975.709929 99.257 176.4963
4004.519563 99.201 176.3271
4033.537962 99.147 176.1739
4062.766641 99.097 176.0300
4092.207123 99.050 175.8890
4121.860942 99.005 175.7458
4151.729646 98.963 175.5966
4181.814790 98.922 175.4385
4212.117944 98.882 175.2705
4242.640687 98.843 175.0923
4273.384610 98.803 174.9043
4304.351317 98.763 174.7073
4335.542421 98.722 174.5028
4366.959549 98.680 174.2922
4398.604338 98.638 174.0772
4430.478438 98.593 173.8592
4462.583511 98.548 173.6392
4494.921231 98.501 173.4183
4527.493283 98.453 173.1971
4560.301365 98.403 172.9763
4593.347189 98.352 172.7562
4626.632476 98.300 172.5375
4660.158962 98.246 172.3213
4693.928395 98.190 172.1085
4727.942535 98.133 171.9001
4762.203156 98.075 171.6973
4796.712043 98.015 171.5004
4831.470996 97.953 171.3101
4866.481826 97.891 171.1266
4901.746360 97.827 170.9497
4937.266434 97.762 170.7797
4973.043902 97.696 170.6166
5009.080628 97.629 170.4610
5045.378492 97.560 170.3134
5081.939384 97.490 170.1744
5118.765212 97.419 170.0450
5155.857894 97.346 169.9262
5193.219366 97.271 169.8190
5230.851574 97.196 169.7245
5268.756481 97.119 169.6443
5306.936062 97.040 169.5798
5345.392309 96.960 169.5328
5384.127225 96.879 169.5052
5423.142830 96.796 169.4988
5462.441159 96.713 169.5151
5502.024259 96.629 169.5554
5541.894195 96.545 169.6205
5582.053045 96.461 169.7108
5622.502902 96.378 169.8262
5663.245876 96.295 169.9667
5704.284090 96.213 170.1316
5745.619684 96.132 170.3207
5787.254813 96.053 170.5338
5829.191647 95.975 170.7701
5871.432373 95.899 171.0296
5913.979192 95.825 171.3116
5956.834323 95.754 171.6155
6000.000000 95.684 171.9404
6043.478473 95.617 172.2852
6087.272010 95.553 172.6484
6131.382892 95.492 173.0289
6175.813420 95.434 173.4257
6220.565910 95.379 173.8374
6265.642695 95.327 174.2633
6311.046124 95.279 174.7023
6356.778566 95.234 175.1536
6402.842404 95.192 175.6165
6449.240040 95.154 176.0906
6495.973891 95.120 176.5759
6543.046396 95.090 177.0724
6590.460007 95.064 177.5804
6638.217197 95.042 178.1006
6686.320456 95.024 178.6336
6734.772290 95.012 179.1798
6783.575226 95.006 179.7395
6832.731809 95.006 -179.6879
6882.244600 95.012 -179.1035
6932.116181 95.027 -178.5095
6982.349153 95.051 -177.9089
7032.946133 95.084 -177.3065
7083.909760 95.128 -176.7083
7135.242690 95.184 -176.1218
7186.947600 95.252 -175.5566
7239.027185 95.333 -175.0234
7291.484160 95.426 -174.5338
7344.321260 95.533 -174.0999
7397.541239 95.653 -173.7340
7451.146872 95.785 -173.4484
7505.140954 95.928 -173.2557
7559.526299 96.083 -173.1691
7614.305743 96.248 -173.2019
7669.482141 96.421 -173.3683
7725.058371 96.601 -173.6823
7781.037328 96.785 -174.1581
7837.421932 96.973 -174.8091
7894.215122 97.159 -175.6476
7951.419859 97.341 -176.6833
8009.039125 97.515 -177.9231
8067.075924 97.676 -179.3691
8125.533282 97.819 178.9814
8184.414245 97.939 177.1376
8243.721885 98.031 175.1146
8303.459292 98.090 172.9346
8363.629581 98.112 170.6258
8424.235888 98.095 168.2219
8485.281374 98.034 165.7606
8546.769221 97.930 163.2820
8608.702634 97.782 160.8268
8671.084842 97.590 158.4346
8733.919097 97.357 156.1417
8797.208675 97.086 153.9807
8860.956876 96.780 151.9791
8925.167022 96.442 150.1595
8989.842461 96.077 148.5394
9054.986566 95.689 147.1321
9120.602731 95.280 145.9473
9186.694378 94.855 144.9920
9253.264952 94.418 144.2714
9320.317925 93.972 143.7886
9387.856790 93.520 143.5452
9455.885071 93.066 143.5400
9524.406312 92.613 143.7689
9593.424086 92.165 144.2244
9662.941992 91.726 144.8954
9732.963653 91.298 145.7683
9803.492719 90.884 146.8272
9874.532869 90.486 148.0555
9946.087805 90.105 149.4359
10018.161257 89.743 150.9520
10090.756983 89.400 152.5880
10163.878768 89.077 154.3293
10237.530423 88.773 156.1632
10311.715789 88.490 158.0781
10386.438732 88.226 160.0646
10461.703149 87.982 162.1146
10537.512962 87.758 164.2213
10613.872125 87.552 166.3788
10690.784618 87.366 168.5819
10768.254450 87.198 170.8259
10846.285661 87.050 173.1062
10924.882318 86.920 175.4184
11004.048518 86.810 177.7581
11083.788390 86.718 -179.8790
11164.106090 86.647 -177.4966
11245.005805 86.595 -175.0981
11326.491752 86.563 -172.6870
11408.568180 86.552 -170.2668
11491.239368 86.563 -167.8422
11574.509626 86.596 -165.4177
11658.383294 86.653 -162.9988
11742.864745 86.734 -160.5913
11827.958384 86.841 -158.2022
11913.668646 86.975 -155.8398
12000.000000 87.139 -153.5143
12086.956947 87.333 -151.2379
12174.544019 87.560 -149.0248
12262.765784 87.822 -146.8923
12351.626840 88.121 -144.8607
12441.131819 88.460 -142.9552
12531.285389 88.840 -141.2070
12622.092249 89.265 -139.6549
12713.557132 89.735 -138.3469
12805.684808 90.252 -137.3413
12898.480079 90.814 -136.7070
12991.947783 91.419 -136.5234
13086.092792 92.059 -136.8778
13180.920015 92.723 -137.8597
13276.434395 93.394 -139.5528
13372.640911 94.050 -142.0238
13469.544580 94.665 -145.3099
13567.150452 95.209 -149.4058
13665.463617 95.649 -154.2518
13764.489200 95.955 -159.7253
13864.232362 96.103 -165.6397
13964.698305 96.074 -171.7537
14065.892266 95.863 -177.7952
14167.819519 95.478 176.5060
14270.485380 94.937 171.3859
14373.895200 94.267 167.0234
14478.054370 93.500 163.5315
14582.968320 92.671 160.9578
14688.642520 91.813 159.2913
14795.082478 90.955 158.4742
14902.293745 90.123 158.4139
15010.281908 89.338 158.9976
15119.052599 88.611 160.1053
15228.611486 87.952 161.6210
15338.964283 87.364 163.4407
15450.116741 86.845 165.4756
15562.074656 86.392 167.6537
15674.843864 86.002 169.9172
15788.430244 85.670 172.2208
15902.839718 85.391 174.5284
16018.078250 85.160 176.8112
16134.151848 84.974 179.0447
16251.066563 84.830 -178.7930
16368.828491 84.726 -176.7230
16487.443769 84.660 -174.7686
16606.918584 84.631 -172.9547
16727.259161 84.638 -171.3098
16848.471777 84.678 -169.8665
16970.562748 84.750 -168.6609
17093.538442 84.850 -167.7321
17217.405268 84.974 -167.1189
17342.169684 85.114 -166.8569
17467.838194 85.262 -166.9736
17594.417350 85.408 -167.4846
17721.913751 85.539 -168.3910
17850.334044 85.645 -169.6774
17979.684923 85.713 -171.3113
18109.973131 85.734 -173.2437
18241.205462 85.701 -175.4108
18373.388756 85.607 -177.7397
18506.529905 85.449 179.8466
18640.635849 85.228 177.4231
18775.713581 84.945 175.0563
18911.770141 84.605 172.7998
19048.812624 84.215 170.6910
19186.848172 83.781 168.7506
19325.883983 83.314 166.9854
19465.927305 82.829 165.3965
19606.985439 82.351 163.9932
19749.065738 81.918 162.8106
19892.175609 81.581 161.9236
20036.322514 81.396 161.4374
