* Measurement data measured by REW V5.30.4
* Source: Headset (2- CX31993 HIFI AUDIO), MICROPHONE (Master Volume), L, volume: 0.500
* Format: 256k Log Swept Sine, 1 sweep at -12.0 dBFS with no timing reference
* Dated: 08 1, 24 3:36:31 PM
* REW Settings:
*  C-weighting compensation: Off
*  Target level: 75.0 dB
* Note: ; 
* Measurement: KZ Castor Bass DDDD R
* Smoothing: 1/12 octave
* Frequency Step: 96 ppo
* Start Frequency: 20.141602 Hz
*
* Freq(Hz) SPL(dB) Phase(degrees)
20.141602 92.528 -157.6884
20.287556 92.539 -157.6561
20.434568 92.554 -157.6561
20.582645 92.574 -157.6808
20.731796 92.596 -157.7239
20.882027 92.620 -157.7812
21.033346 92.644 -157.8521
21.185762 92.669 -157.9399
21.339283 92.693 -158.0355
21.493916 92.717 -158.1368
21.649670 92.739 -158.2416
21.806553 92.761 -158.3474
21.964573 92.782 -158.4522
22.123737 92.803 -158.5608
22.284056 92.824 -158.6674
22.445536 92.845 -158.7697
22.608185 92.867 -158.8681
22.772013 92.890 -158.9639
22.937029 92.914 -159.0586
23.103241 92.939 -159.1589
23.270657 92.965 -159.2645
23.439285 92.992 -159.3736
23.609137 93.019 -159.4868
23.780218 93.047 -159.6037
23.952539 93.075 -159.7235
24.126110 93.102 -159.8500
24.300938 93.128 -159.9779
24.477032 93.154 -160.1028
24.654402 93.179 -160.2227
24.833057 93.203 -160.3360
25.013008 93.227 -160.4418
25.194263 93.250 -160.5459
25.376831 93.272 -160.6417
25.560722 93.294 -160.7301
25.745945 93.314 -160.8124
25.932510 93.335 -160.8904
26.120428 93.354 -160.9709
26.309708 93.373 -161.0539
26.500359 93.391 -161.1390
26.692390 93.408 -161.2278
26.885815 93.424 -161.3220
27.080641 93.440 -161.4252
27.276878 93.456 -161.5391
27.474539 93.472 -161.6600
27.673630 93.489 -161.7876
27.874165 93.506 -161.9211
28.076153 93.525 -162.0618
28.279604 93.545 -162.2099
28.484529 93.567 -162.3610
28.690941 93.592 -162.5139
28.898848 93.618 -162.6677
29.108261 93.646 -162.8236
29.319191 93.675 -162.9802
29.531651 93.704 -163.1337
29.745649 93.733 -163.2825
29.961199 93.762 -163.4252
30.178310 93.788 -163.5646
30.396996 93.813 -163.6969
30.617264 93.837 -163.8209
30.839128 93.858 -163.9372
31.062601 93.877 -164.0483
31.287693 93.896 -164.1580
31.514416 93.914 -164.2656
31.742783 93.932 -164.3737
31.972803 93.951 -164.4855
32.204491 93.972 -164.6073
32.437859 93.996 -164.7393
32.672916 94.022 -164.8840
32.909679 94.050 -165.0432
33.148155 94.081 -165.2207
33.388359 94.112 -165.4147
33.630306 94.143 -165.6206
33.874004 94.172 -165.8339
34.119469 94.200 -166.0508
34.366711 94.224 -166.2652
34.615746 94.245 -166.4696
34.866585 94.264 -166.6606
35.119244 94.281 -166.8390
35.373734 94.297 -167.0067
35.630066 94.314 -167.1660
35.888256 94.331 -167.3218
36.148315 94.349 -167.4809
36.410259 94.368 -167.6454
36.674103 94.388 -167.8136
36.939857 94.408 -167.9837
37.207539 94.429 -168.1547
37.477161 94.450 -168.3223
37.748737 94.470 -168.4842
38.022282 94.491 -168.6407
38.297806 94.511 -168.7966
38.575329 94.530 -168.9505
38.854862 94.547 -169.1047
39.136421 94.564 -169.2619
39.420021 94.580 -169.4233
39.705673 94.595 -169.5882
39.993397 94.611 -169.7576
40.283207 94.629 -169.9353
40.575115 94.648 -170.1205
40.869141 94.668 -170.3150
41.165295 94.690 -170.5218
41.463596 94.713 -170.7399
41.764057 94.734 -170.9650
42.066696 94.754 -171.1934
42.371529 94.771 -171.4212
42.678570 94.786 -171.6426
42.987835 94.799 -171.8546
43.299343 94.811 -172.0592
43.613110 94.823 -172.2555
43.929150 94.836 -172.4470
44.247478 94.851 -172.6406
44.568115 94.867 -172.8386
44.891075 94.886 -173.0426
45.216373 94.904 -173.2534
45.544029 94.923 -173.4689
45.874062 94.942 -173.6857
46.206486 94.959 -173.9030
46.541317 94.976 -174.1193
46.878574 94.991 -174.3347
47.218277 95.006 -174.5529
47.560440 95.021 -174.7755
47.905083 95.036 -175.0035
48.252224 95.050 -175.2381
48.601879 95.064 -175.4775
48.954067 95.078 -175.7188
49.308807 95.093 -175.9604
49.666119 95.107 -176.1996
50.026020 95.122 -176.4358
50.388531 95.136 -176.6713
50.753666 95.150 -176.9049
51.121449 95.164 -177.1391
51.491894 95.178 -177.3765
51.865025 95.192 -177.6166
52.240860 95.204 -177.8608
52.619419 95.217 -178.1081
53.000721 95.229 -178.3572
53.384785 95.241 -178.6092
53.771633 95.253 -178.8621
54.161285 95.265 -179.1167
54.553761 95.276 -179.3738
54.949081 95.287 -179.6334
55.347263 95.299 -179.8973
55.748333 95.310 179.8355
56.152309 95.322 179.5656
56.559212 95.335 179.2935
56.969063 95.349 179.0211
57.381886 95.363 178.7468
57.797699 95.376 178.4744
58.216526 95.387 178.2050
58.638386 95.396 177.9393
59.063305 95.403 177.6767
59.491302 95.408 177.4141
59.922401 95.412 177.1500
60.356625 95.416 176.8798
60.793995 95.420 176.6033
61.234531 95.424 176.3214
61.678261 95.430 176.0376
62.125206 95.436 175.7560
62.575390 95.442 175.4782
63.028835 95.449 175.2029
63.485569 95.455 174.9264
63.945610 95.461 174.6485
64.408989 95.465 174.3672
64.875725 95.469 174.0837
65.345840 95.473 173.7980
65.819366 95.476 173.5103
66.296318 95.481 173.2197
66.776726 95.485 172.9282
67.260620 95.489 172.6381
67.748016 95.493 172.3487
68.238945 95.496 172.0560
68.733429 95.500 171.7578
69.231499 95.504 171.4557
69.733177 95.507 171.1519
70.238495 95.510 170.8483
70.747475 95.513 170.5454
71.260139 95.515 170.2410
71.776520 95.516 169.9338
72.296638 95.514 169.6254
72.820526 95.510 169.3177
73.348213 95.505 169.0110
73.879723 95.500 168.7050
74.415085 95.495 168.3961
74.954330 95.491 168.0842
75.497482 95.487 167.7697
76.044571 95.484 167.4537
76.595619 95.479 167.1383
77.150665 95.474 166.8253
77.709732 95.469 166.5152
78.272850 95.464 166.2077
78.840050 95.458 165.9017
79.411354 95.453 165.5978
79.986801 95.447 165.2964
80.566422 95.440 164.9968
81.150238 95.433 164.6985
81.738289 95.424 164.4004
82.330597 95.416 164.0985
82.927200 95.408 163.7908
83.528122 95.400 163.4770
84.133400 95.393 163.1555
84.743065 95.386 162.8279
85.357147 95.379 162.4994
85.975677 95.371 162.1730
86.598694 95.363 161.8510
87.226227 95.356 161.5276
87.858307 95.348 161.1992
88.494965 95.339 160.8666
89.136238 95.330 160.5298
89.782158 95.321 160.1899
90.432755 95.311 159.8466
91.088066 95.300 159.5018
91.748131 95.288 159.1572
92.412979 95.276 158.8118
93.082642 95.263 158.4659
93.757156 95.249 158.1186
94.436562 95.235 157.7708
95.120888 95.220 157.4221
95.810173 95.204 157.0724
96.504456 95.188 156.7241
97.203766 95.171 156.3761
97.908142 95.153 156.0267
98.617622 95.135 155.6799
99.332245 95.117 155.3338
100.052048 95.098 154.9871
100.777069 95.079 154.6374
101.507339 95.059 154.2877
102.242905 95.039 153.9398
102.983795 95.018 153.5952
103.730057 94.997 153.2505
104.481728 94.974 152.9080
105.238846 94.951 152.5650
106.001450 94.927 152.2202
106.769577 94.903 151.8715
107.543274 94.877 151.5243
108.322578 94.852 151.1815
109.107529 94.825 150.8439
109.898170 94.799 150.5074
110.694534 94.772 150.1718
111.496674 94.745 149.8379
112.304626 94.719 149.5047
113.118431 94.693 149.1710
113.938133 94.666 148.8364
114.763779 94.640 148.4991
115.595406 94.614 148.1609
116.433060 94.587 147.8187
117.276779 94.560 147.4749
118.126617 94.531 147.1328
118.982613 94.502 146.7839
119.844810 94.472 146.4290
120.713257 94.442 146.0687
121.587997 94.411 145.7040
122.469070 94.379 145.3365
123.356529 94.347 144.9684
124.250420 94.314 144.6013
125.150787 94.280 144.2350
126.057678 94.244 143.8719
126.971146 94.207 143.5130
127.891228 94.168 143.1540
128.817978 94.126 142.7997
129.751450 94.084 142.4506
130.691681 94.041 142.1065
131.638733 93.998 141.7669
132.592636 93.955 141.4299
133.553452 93.912 141.0904
134.521240 93.868 140.7464
135.496033 93.825 140.3999
136.477890 93.781 140.0533
137.466858 93.736 139.7100
138.462997 93.692 139.3696
139.466354 93.648 139.0308
140.476990 93.602 138.6959
141.494949 93.556 138.3641
142.520279 93.508 138.0370
143.553040 93.458 137.7159
144.593277 93.407 137.3987
145.641052 93.356 137.0840
146.696426 93.304 136.7706
147.759445 93.251 136.4590
148.830170 93.198 136.1461
149.908661 93.144 135.8322
150.994965 93.090 135.5200
152.089142 93.035 135.2062
153.191238 92.979 134.8956
154.301331 92.923 134.5893
155.419464 92.866 134.2865
156.545700 92.808 133.9914
157.680099 92.749 133.7037
158.822708 92.690 133.4202
159.973602 92.629 133.1434
161.132843 92.568 132.8707
162.300476 92.507 132.6045
163.476578 92.444 132.3455
164.661194 92.380 132.0920
165.854401 92.315 131.8431
167.056244 92.248 131.6019
168.266800 92.181 131.3687
169.486130 92.113 131.1476
170.714294 92.045 130.9398
171.951355 91.978 130.7426
173.197388 91.910 130.5565
174.452454 91.843 130.3811
175.716614 91.776 130.2165
176.989929 91.710 130.0649
178.272476 91.646 129.9215
179.564316 91.585 129.7908
180.865509 91.525 129.6774
182.176132 91.467 129.5723
183.496262 91.412 129.4779
184.825958 91.359 129.3817
186.165283 91.309 129.2740
187.514313 91.262 129.1479
188.873123 91.219 128.9933
190.241776 91.179 128.8164
191.620346 91.140 128.6050
193.008911 91.101 128.3698
194.407532 91.060 128.0997
195.816284 91.014 127.8141
197.235245 90.963 127.5121
198.664490 90.908 127.2006
200.104095 90.849 126.8843
201.554138 90.786 126.5681
203.014679 90.719 126.2579
204.485809 90.647 125.9568
205.967590 90.572 125.6683
207.460114 90.494 125.3913
208.963455 90.414 125.1304
210.477692 90.332 124.8807
212.002899 90.250 124.6414
213.539154 90.167 124.4144
215.086548 90.083 124.2004
216.645157 89.998 124.0039
218.215057 89.913 123.8163
219.796341 89.827 123.6388
221.389069 89.742 123.4734
222.993347 89.656 123.3163
224.609253 89.570 123.1692
226.236862 89.484 123.0325
227.876266 89.397 122.9069
229.527557 89.309 122.7933
231.190811 89.221 122.6903
232.866119 89.133 122.5994
234.553558 89.043 122.5162
236.253235 88.953 122.4495
237.965225 88.862 122.3986
239.689621 88.770 122.3553
241.426514 88.677 122.3206
243.175995 88.584 122.2939
244.938141 88.491 122.2776
246.713058 88.399 122.2730
248.500839 88.307 122.2834
250.301575 88.217 122.2996
252.115356 88.126 122.3236
253.942291 88.037 122.3575
255.782455 87.948 122.3988
257.635956 87.858 122.4536
259.502899 87.770 122.5168
261.383362 87.683 122.5900
263.277466 87.597 122.6791
265.185272 87.514 122.7724
267.106903 87.432 122.8698
269.042480 87.350 122.9670
270.992065 87.268 123.0697
272.955780 87.185 123.1741
274.933716 87.102 123.2819
276.925995 87.019 123.3983
278.932709 86.936 123.5169
280.953979 86.853 123.6475
282.989899 86.771 123.7939
285.040558 86.690 123.9460
287.106079 86.610 124.1069
289.186554 86.529 124.2751
291.282104 86.449 124.4506
293.392853 86.369 124.6321
295.518890 86.289 124.8216
297.660339 86.210 125.0167
299.817322 86.131 125.2205
301.989929 86.053 125.4389
304.178284 85.977 125.6664
306.382477 85.902 125.9011
308.602661 85.827 126.1436
310.838928 85.753 126.3909
313.091400 85.678 126.6413
315.360199 85.604 126.8978
317.645416 85.530 127.1597
319.947205 85.458 127.4341
322.265686 85.387 127.7174
324.600952 85.318 128.0098
326.953156 85.249 128.3119
329.322388 85.182 128.6187
331.708801 85.117 128.9297
334.112488 85.052 129.2460
336.533600 84.990 129.5701
338.972260 84.929 129.9008
341.428589 84.869 130.2386
343.902710 84.811 130.5798
346.394775 84.755 130.9241
348.904907 84.700 131.2686
351.433228 84.647 131.6164
353.979858 84.595 131.9628
356.544952 84.545 132.3113
359.128632 84.496 132.6626
361.731018 84.449 133.0171
364.352264 84.402 133.3781
366.992523 84.357 133.7423
369.651917 84.313 134.1144
372.330566 84.271 134.4815
375.028625 84.230 134.8568
377.746246 84.191 135.2271
380.483551 84.154 135.5969
383.240692 84.118 135.9618
386.017822 84.085 136.3259
388.815063 84.053 136.6920
391.632568 84.022 137.0522
394.470490 83.992 137.4146
397.328979 83.963 137.7793
400.208191 83.934 138.1435
403.108276 83.907 138.5134
406.029358 83.881 138.8787
408.971619 83.857 139.2398
411.935181 83.833 139.5988
414.920227 83.812 139.9596
417.926910 83.791 140.3121
420.955383 83.772 140.6626
424.005798 83.754 141.0031
427.078308 83.737 141.3410
430.173096 83.721 141.6760
433.290314 83.706 142.0076
436.430115 83.692 142.3400
439.592682 83.680 142.6660
442.778137 83.667 142.9860
445.986694 83.656 143.3007
449.218506 83.646 143.6157
452.473724 83.635 143.9265
455.752533 83.626 144.2335
459.055115 83.617 144.5357
462.381622 83.609 144.8405
465.732239 83.601 145.1375
469.107117 83.595 145.4289
472.506470 83.590 145.7208
475.930450 83.586 146.0021
479.379242 83.583 146.2781
482.853027 83.580 146.5481
486.351990 83.578 146.8101
489.876282 83.576 147.0725
493.426117 83.575 147.3317
497.001678 83.574 147.5809
500.603149 83.574 147.8338
504.230713 83.575 148.0809
507.884583 83.576 148.3245
511.564911 83.578 148.5616
515.271912 83.580 148.7966
519.005798 83.583 149.0298
522.766724 83.587 149.2536
526.554932 83.591 149.4802
530.370544 83.595 149.6959
534.213806 83.599 149.9152
538.084961 83.603 150.1248
541.984131 83.608 150.3287
545.911560 83.613 150.5340
549.867432 83.618 150.7307
553.851990 83.624 150.9217
557.865417 83.630 151.1093
561.907959 83.636 151.2969
565.979797 83.643 151.4802
570.081116 83.649 151.6631
574.212158 83.657 151.8456
578.373108 83.664 152.0260
582.564209 83.671 152.2043
586.785706 83.678 152.3807
591.037781 83.686 152.5500
595.320679 83.694 152.7161
599.634644 83.702 152.8822
603.979858 83.711 153.0451
608.356567 83.720 153.2065
612.764954 83.729 153.3672
617.205322 83.739 153.5207
621.677856 83.749 153.6740
626.182800 83.760 153.8236
630.720398 83.771 153.9730
635.290833 83.782 154.1190
639.894409 83.793 154.2629
644.531372 83.804 154.4064
649.201904 83.816 154.5481
653.906311 83.827 154.6868
658.644775 83.839 154.8273
663.417603 83.852 154.9645
668.224976 83.864 155.1013
673.067200 83.876 155.2374
677.944519 83.889 155.3728
682.857178 83.903 155.5072
687.805420 83.917 155.6411
692.789551 83.931 155.7794
697.809814 83.946 155.9108
702.866455 83.962 156.0441
707.959717 83.978 156.1757
713.089905 83.995 156.3034
718.257263 84.012 156.4276
723.462036 84.029 156.5594
728.704529 84.048 156.6857
733.985046 84.066 156.8098
739.303833 84.086 156.9380
744.661133 84.106 157.0641
750.057251 84.128 157.1862
755.492493 84.150 157.3077
760.967102 84.174 157.4241
766.481384 84.198 157.5371
772.035645 84.224 157.6436
777.630127 84.250 157.7458
783.265137 84.277 157.8357
788.940979 84.303 157.9224
794.657959 84.329 157.9969
800.416382 84.354 158.0685
806.216553 84.379 158.1487
812.058716 84.403 158.2357
817.943237 84.429 158.3375
823.870361 84.456 158.4458
829.840454 84.485 158.5513
835.853821 84.517 158.6554
841.910767 84.550 158.7518
848.011597 84.584 158.8445
854.156616 84.620 158.9233
860.346191 84.657 158.9938
866.580627 84.695 159.0547
872.860229 84.734 159.1064
879.185364 84.774 159.1441
885.556274 84.814 159.1766
891.973389 84.854 159.1939
898.437012 84.895 159.2094
904.947449 84.935 159.2145
911.505066 84.974 159.2072
918.110229 85.013 159.2002
924.763245 85.052 159.1861
931.464478 85.090 159.1774
938.214233 85.128 159.1637
945.012939 85.165 159.1507
951.860901 85.202 159.1364
958.758484 85.240 159.1327
965.706055 85.278 159.1296
972.703979 85.316 159.1371
979.752563 85.356 159.1519
986.852234 85.397 159.1652
994.003357 85.441 159.1856
1001.206299 85.486 159.2070
1008.461426 85.534 159.2300
1015.769165 85.585 159.2422
1023.129822 85.637 159.2538
1030.543823 85.693 159.2579
1038.011597 85.750 159.2485
1045.533447 85.809 159.2271
1053.109863 85.871 159.1951
1060.741089 85.934 159.1414
1068.427612 85.999 159.0732
1076.169922 86.065 158.9938
1083.968262 86.132 158.8932
1091.823120 86.200 158.7743
1099.734863 86.268 158.6413
1107.703979 86.337 158.4922
1115.730835 86.406 158.3232
1123.815918 86.476 158.1420
1131.959595 86.545 157.9464
1140.162231 86.614 157.7274
1148.424316 86.683 157.5054
1156.746216 86.751 157.2637
1165.128418 86.819 157.0110
1173.571411 86.886 156.7451
1182.075562 86.953 156.4645
1190.641357 87.018 156.1788
1199.269287 87.083 155.8754
1207.959717 87.148 155.5632
1216.713135 87.211 155.2451
1225.529907 87.274 154.9139
1234.410645 87.336 154.5789
1243.355713 87.397 154.2314
1252.365601 87.458 153.8794
1261.440796 87.518 153.5145
1270.581665 87.577 153.1525
1279.788818 87.635 152.7806
1289.062744 87.693 152.4014
1298.403809 87.750 152.0204
1307.812622 87.806 151.6362
1317.289551 87.862 151.2409
1326.835205 87.918 150.8495
1336.449951 87.972 150.4513
1346.134399 88.027 150.0495
1355.889038 88.081 149.6395
1365.714355 88.134 149.2304
1375.610840 88.188 148.8203
1385.579102 88.241 148.4107
1395.619629 88.294 147.9931
1405.732910 88.347 147.5758
1415.919434 88.400 147.1535
1426.179810 88.454 146.7327
1436.514526 88.508 146.3046
1446.924072 88.562 145.8829
1457.409058 88.618 145.4471
1467.970093 88.673 145.0104
1478.607666 88.729 144.5673
1489.322266 88.785 144.1314
1500.114502 88.841 143.6925
1510.984985 88.896 143.2518
1521.934204 88.952 142.8018
1532.962769 89.007 142.3585
1544.071289 89.062 141.9059
1555.260254 89.118 141.4513
1566.530273 89.174 140.9925
1577.881958 89.231 140.5391
1589.315918 89.288 140.0667
1600.832764 89.346 139.5960
1612.433105 89.405 139.1282
1624.117432 89.465 138.6494
1635.886475 89.525 138.1689
1647.740723 89.586 137.6808
1659.680908 89.648 137.1931
1671.707642 89.711 136.6956
1683.821533 89.775 136.1907
1696.023193 89.840 135.6782
1708.313232 89.906 135.1691
1720.692383 89.973 134.6470
1733.161255 90.041 134.1193
1745.720459 90.110 133.5753
1758.370728 90.180 133.0288
1771.112549 90.251 132.4682
1783.946777 90.323 131.9101
1796.874023 90.397 131.3448
1809.894897 90.471 130.7502
1823.010132 90.547 130.1572
1836.220459 90.623 129.5557
1849.526489 90.701 128.9387
1862.928955 90.780 128.3167
1876.428467 90.859 127.6740
1890.025879 90.940 127.0256
1903.721802 91.022 126.3578
1917.516968 91.105 125.6811
1931.412109 91.188 124.9856
1945.407959 91.273 124.2810
1959.505127 91.360 123.5587
1973.704468 91.447 122.8214
1988.006714 91.535 122.0726
2002.412598 91.624 121.3014
2016.922852 91.714 120.5162
2031.538330 91.804 119.7100
2046.259644 91.896 118.8873
2061.087646 91.988 118.0465
2076.023193 92.081 117.1932
2091.066895 92.175 116.3086
2106.219727 92.269 115.4111
2121.482178 92.364 114.4819
2136.855225 92.459 113.5453
2152.339844 92.555 112.5848
2167.936523 92.650 111.6100
2183.646240 92.746 110.5888
2199.469727 92.843 109.5575
2215.407959 92.939 108.4976
2231.461670 93.035 107.4146
2247.631836 93.131 106.3108
2263.919189 93.227 105.1832
2280.324463 93.323 104.0340
2296.848633 93.418 102.8492
2313.492432 93.512 101.6329
2330.256836 93.606 100.3885
2347.142822 93.698 99.1186
2364.151123 93.790 97.8250
2381.282715 93.880 96.5064
2398.538574 93.968 95.1500
2415.919434 94.055 93.7698
2433.426270 94.140 92.3665
2451.059814 94.223 90.9342
2468.821289 94.303 89.4668
2486.711426 94.381 87.9806
2504.731201 94.455 86.4456
2522.881592 94.527 84.8904
2541.163330 94.596 83.3166
2559.577637 94.661 81.7222
2578.125488 94.722 80.1195
2596.807617 94.779 78.4449
2615.625244 94.832 76.7721
2634.579102 94.881 75.0748
2653.670410 94.926 73.3723
2672.899902 94.966 71.6549
2692.268799 95.001 69.9155
2711.778076 95.031 68.1449
2731.428711 95.056 66.3700
2751.221680 95.077 64.5914
2771.158203 95.092 62.8026
2791.239258 95.102 60.9963
2811.465820 95.107 59.1949
2831.838867 95.107 57.3932
2852.359619 95.102 55.5760
2873.029053 95.093 53.7697
2893.848145 95.078 51.9610
2914.818115 95.059 50.1401
2935.940186 95.036 48.3610
2957.215332 95.008 46.5557
2978.644531 94.975 44.7664
3000.229004 94.939 42.9821
3021.969971 94.899 41.2258
3043.868408 94.855 39.4676
3065.925537 94.808 37.7072
3088.142578 94.757 35.9765
3110.520508 94.704 34.2665
3133.060547 94.647 32.5513
3155.763916 94.588 30.8496
3178.631836 94.526 29.1801
3201.665527 94.462 27.5193
3224.866211 94.396 25.8693
3248.234863 94.328 24.2311
3271.772949 94.258 22.6108
3295.481445 94.186 21.0067
3319.361816 94.113 19.4187
3343.415283 94.039 17.8428
3367.643066 93.963 16.2811
3392.046387 93.886 14.7474
3416.626465 93.809 13.2186
3441.384766 93.732 11.6960
3466.322510 93.654 10.2074
3491.440918 93.576 8.7151
3516.741455 93.498 7.2345
3542.225098 93.420 5.7770
3567.893555 93.342 4.3306
3593.748047 93.265 2.8715
3619.789795 93.188 1.4536
3646.020264 93.112 0.0358
3672.440918 93.037 -1.3973
3699.052979 92.963 -2.8120
3725.857910 92.889 -4.2125
3752.856934 92.816 -5.6218
3780.051758 92.744 -7.0099
3807.443604 92.673 -8.4076
3835.033936 92.603 -9.8020
3862.824219 92.533 -11.1886
3890.815918 92.464 -12.5887
3919.010254 92.395 -13.9896
3947.408936 92.327 -15.3776
3976.013428 92.259 -16.7938
4004.825195 92.191 -18.1870
4033.845703 92.122 -19.5900
4063.076660 92.054 -21.0046
4092.519287 91.985 -22.3990
4122.175293 91.915 -23.7947
4152.046387 91.846 -25.1848
4182.133789 91.776 -26.5873
4212.439453 91.705 -27.9828
4242.964355 91.635 -29.3723
4273.710449 91.564 -30.7476
4304.679688 91.493 -32.1201
4335.873047 91.421 -33.4987
4367.292480 91.349 -34.8452
4398.939453 91.277 -36.1913
4430.815918 91.206 -37.5181
4462.923340 91.134 -38.8195
4495.263672 91.064 -40.1111
4527.838379 90.995 -41.3651
4560.648926 90.929 -42.5959
4593.697266 90.866 -43.7977
4626.984863 90.809 -44.9736
4660.513672 90.759 -46.1113
4694.285645 90.716 -47.2617
4728.302246 90.682 -48.3662
4762.565430 90.657 -49.4952
4797.077148 90.642 -50.6321
4831.838867 90.637 -51.8019
4866.852539 90.641 -52.9971
4902.119629 90.652 -54.2554
4937.642578 90.669 -55.5523
4973.422852 90.692 -56.9204
5009.462402 90.718 -58.3386
5045.763184 90.746 -59.8262
5082.326660 90.775 -61.3632
5119.155273 90.804 -62.9486
5156.250977 90.832 -64.5903
5193.615234 90.859 -66.2758
5231.250488 90.885 -67.9902
5269.158203 90.909 -69.7376
5307.340820 90.931 -71.5350
5345.799805 90.952 -73.3417
5384.537598 90.971 -75.1868
5423.556152 90.989 -77.0583
5462.857422 91.005 -78.9454
5502.443359 91.021 -80.8632
5542.316406 91.035 -82.8030
5582.478516 91.049 -84.7455
5622.931641 91.061 -86.7340
5663.677734 91.073 -88.7284
5704.719238 91.084 -90.7380
5746.058105 91.095 -92.7604
5787.696289 91.105 -94.7888
5829.636230 91.115 -96.8566
5871.880371 91.124 -98.9245
5914.430664 91.134 -101.0104
5957.289062 91.144 -103.1155
6000.458008 91.154 -105.2324
6043.939941 91.165 -107.3370
6087.736816 91.177 -109.4969
6131.851074 91.190 -111.6355
6176.285156 91.204 -113.8124
6221.041016 91.219 -115.9897
6266.121094 91.236 -118.1890
6311.527832 91.255 -120.4026
6357.263672 91.275 -122.6326
6403.331055 91.298 -124.8883
6449.732422 91.323 -127.1603
6496.469727 91.351 -129.4496
6543.545898 91.381 -131.7350
6590.962891 91.413 -134.0767
6638.723633 91.449 -136.4262
6686.830566 91.487 -138.7917
6735.286133 91.529 -141.2029
6784.092773 91.575 -143.6353
6833.252930 91.624 -146.0681
6882.769531 91.677 -148.5328
6932.645020 91.735 -151.0257
6982.881836 91.798 -153.5630
7033.482910 91.868 -156.1152
7084.450195 91.944 -158.7098
7135.787109 92.028 -161.3467
7187.496094 92.121 -164.0175
7239.579590 92.223 -166.7527
7292.040527 92.336 -169.5580
7344.881836 92.458 -172.4531
7398.105957 92.591 -175.4265
7451.715820 92.734 -178.5140
7505.713867 92.887 178.2573
7560.103516 93.047 174.9000
7614.887207 93.214 171.3585
7670.067871 93.385 167.6146
7725.648438 93.557 163.6794
7781.631836 93.724 159.5316
7838.020508 93.884 155.1495
7894.817871 94.030 150.5410
7952.026855 94.156 145.6849
8009.650391 94.257 140.6152
8067.691406 94.325 135.3102
8126.153320 94.355 129.8452
8185.038574 94.342 124.2357
8244.350586 94.281 118.5016
8304.092773 94.169 112.7287
8364.267578 94.005 106.9360
8424.878906 93.788 101.1873
8485.928711 93.521 95.5482
8547.420898 93.206 90.0442
8609.359375 92.848 84.7346
8671.746094 92.452 79.6373
8734.584961 92.024 74.7929
8797.878906 91.571 70.2120
8861.631836 91.098 65.9056
8925.846680 90.612 61.8645
8990.527344 90.119 58.1028
9055.676758 89.624 54.5914
9121.297852 89.132 51.3344
9187.394531 88.647 48.3205
9253.969727 88.173 45.5032
9321.027344 87.712 42.8904
9388.571289 87.266 40.4445
9456.604492 86.838 38.1428
9525.130859 86.429 35.9727
9594.154297 86.039 33.8888
9663.677734 85.670 31.9098
9733.705078 85.320 30.0140
9804.239258 84.991 28.1644
9875.285156 84.680 26.3844
9946.845703 84.389 24.6375
10018.924805 84.116 22.9152
10091.526367 83.862 21.2233
10164.653320 83.627 19.5471
10238.310547 83.410 17.8784
10312.501953 83.211 16.1968
10387.230469 83.030 14.5107
10462.500977 82.868 12.8094
10538.316406 82.724 11.0709
10614.681641 82.597 9.2940
10691.599609 82.488 7.4848
10769.075195 82.396 5.6176
10847.112305 82.323 3.6636
10925.714844 82.266 1.6493
11004.886719 82.228 -0.4543
11084.632812 82.206 -2.6517
11164.957031 82.201 -4.9513
11245.863281 82.212 -7.4070
11327.355469 82.239 -10.0034
11409.438477 82.281 -12.7387
11492.116211 82.337 -15.6917
11575.392578 82.404 -18.8471
11659.272461 82.478 -22.2607
11743.760742 82.550 -25.9493
11828.861328 82.611 -29.9233
11914.578125 82.653 -34.1575
12000.916016 82.668 -38.6039
12087.879883 82.652 -43.2233
12175.473633 82.599 -47.9637
12263.702148 82.507 -52.7624
12352.570312 82.374 -57.5635
12442.082031 82.200 -62.2835
12532.242188 81.988 -66.8158
12623.055664 81.745 -71.1194
12714.527344 81.483 -75.0490
12806.662109 81.218 -78.5881
12899.464844 80.970 -81.6502
12992.939453 80.765 -84.2404
13087.091797 80.631 -86.4324
13181.925781 80.593 -88.3325
13277.447266 80.668 -90.1646
13373.661133 80.861 -92.1763
13470.572266 81.162 -94.6194
13568.185547 81.547 -97.7125
13666.505859 81.983 -101.5814
13765.539062 82.434 -106.2646
13865.290039 82.868 -111.7341
13965.763672 83.258 -117.8636
14066.965820 83.586 -124.5281
14168.900391 83.841 -131.5812
14271.574219 84.021 -138.8463
14374.992188 84.129 -146.2029
14479.159180 84.175 -153.4958
14584.081055 84.171 -160.6978
14689.763672 84.131 -167.7268
14796.211914 84.070 -174.5676
14903.431641 84.002 178.7727
15011.427734 83.940 172.2207
15120.207031 83.891 165.7207
15229.774414 83.860 159.1951
15340.135742 83.846 152.5398
15451.296875 83.843 145.7070
15563.263672 83.842 138.5653
15676.041016 83.828 131.1013
15789.635742 83.784 123.2625
15904.053711 83.692 115.1143
16019.300781 83.534 106.6515
16135.382812 83.295 97.9871
16252.306641 82.962 89.2240
16370.077148 82.529 80.4961
16488.701172 81.994 71.9624
16608.185547 81.361 63.7013
16728.535156 80.638 55.8481
16849.757812 79.836 48.4979
16971.857422 78.971 41.6982
17094.841797 78.056 35.5049
17218.718750 77.108 29.8872
17343.492188 76.139 24.8713
17469.169922 75.164 20.3986
17595.757812 74.192 16.4382
17723.263672 73.235 12.9117
17851.693359 72.299 9.7950
17981.054688 71.391 6.9952
18111.353516 70.516 4.4607
18242.595703 69.679 2.1233
18374.789062 68.881 -0.0948
18507.939453 68.126 -2.2476
18642.054688 67.415 -4.3707
18777.142578 66.751 -6.5573
18913.208984 66.137 -8.8125
19050.261719 65.578 -11.2422
19188.308594 65.078 -13.8763
19327.355469 64.643 -16.8341
19467.410156 64.279 -20.1442
19608.478516 63.989 -23.9329
19750.570312 63.775 -28.3251
19893.691406 63.636 -33.4734
20037.849609 0.000 320.4516
