* Measurement data measured by REW V5.30.4
* Source: Headset (2- CX31993 HIFI AUDIO), MICROPHONE (Master Volume), L, volume: 0.500
* Format: 256k Log Swept Sine, 1 sweep at -12.0 dBFS with no timing reference
* Dated: 08 1, 24 3:06:35 PM
* REW Settings:
*  C-weighting compensation: Off
*  Target level: 75.0 dB
* Note: ; 
* Measurement: KZ Castor Bass DDUU R
* Smoothing: 1/12 octave
* Frequency Step: 96 ppo
* Start Frequency: 20.141602 Hz
*
* Freq(Hz) SPL(dB) Phase(degrees)
20.141602 92.548 -156.9038
20.287556 92.557 -156.8661
20.434568 92.571 -156.8602
20.582645 92.588 -156.8787
20.731796 92.608 -156.9153
20.882027 92.630 -156.9653
21.033346 92.653 -157.0273
21.185762 92.677 -157.1039
21.339283 92.702 -157.1852
21.493916 92.726 -157.2688
21.649670 92.750 -157.3523
21.806553 92.774 -157.4334
21.964573 92.797 -157.5102
22.123737 92.820 -157.5883
22.284056 92.842 -157.6622
22.445536 92.865 -157.7304
22.608185 92.887 -157.7937
22.772013 92.908 -157.8536
22.937029 92.930 -157.9120
23.103241 92.952 -157.9757
23.270657 92.973 -158.0442
23.439285 92.993 -158.1155
23.609137 93.013 -158.1898
23.780218 93.031 -158.2663
23.952539 93.049 -158.3435
24.126110 93.066 -158.4250
24.300938 93.081 -158.5049
24.477032 93.097 -158.5791
24.654402 93.113 -158.6459
24.833057 93.129 -158.7049
25.013008 93.146 -158.7572
25.194263 93.166 -158.8108
25.376831 93.187 -158.8623
25.560722 93.210 -158.9153
25.745945 93.236 -158.9738
25.932510 93.263 -159.0413
26.120428 93.291 -159.1252
26.309708 93.319 -159.2251
26.500359 93.348 -159.3384
26.692390 93.375 -159.4640
26.885815 93.402 -159.5994
27.080641 93.427 -159.7444
27.276878 93.451 -159.8967
27.474539 93.475 -160.0496
27.673630 93.497 -160.2007
27.874165 93.519 -160.3485
28.076153 93.541 -160.4941
28.279604 93.564 -160.6387
28.484529 93.586 -160.7791
28.690941 93.609 -160.9155
28.898848 93.632 -161.0478
29.108261 93.656 -161.1788
29.319191 93.679 -161.3082
29.531651 93.702 -161.4335
29.745649 93.725 -161.5551
29.961199 93.748 -161.6737
30.178310 93.772 -161.7944
30.396996 93.795 -161.9155
30.617264 93.819 -162.0374
30.839128 93.842 -162.1608
31.062601 93.866 -162.2875
31.287693 93.889 -162.4192
31.514416 93.912 -162.5518
31.742783 93.934 -162.6845
31.972803 93.957 -162.8164
32.204491 93.979 -162.9505
32.437859 94.002 -163.0839
32.672916 94.024 -163.2167
32.909679 94.046 -163.3495
33.148155 94.068 -163.4858
33.388359 94.089 -163.6246
33.630306 94.110 -163.7639
33.874004 94.130 -163.9034
34.119469 94.150 -164.0447
34.366711 94.169 -164.1878
34.615746 94.189 -164.3309
34.866585 94.208 -164.4742
35.119244 94.228 -164.6193
35.373734 94.248 -164.7657
35.630066 94.268 -164.9098
35.888256 94.287 -165.0496
36.148315 94.307 -165.1860
36.410259 94.326 -165.3176
36.674103 94.347 -165.4437
36.939857 94.368 -165.5677
37.207539 94.390 -165.6965
37.477161 94.414 -165.8345
37.748737 94.437 -165.9859
38.022282 94.460 -166.1534
38.297806 94.483 -166.3399
38.575329 94.504 -166.5381
38.854862 94.525 -166.7427
39.136421 94.545 -166.9484
39.420021 94.565 -167.1505
39.705673 94.585 -167.3447
39.993397 94.607 -167.5306
40.283207 94.630 -167.7116
40.575115 94.654 -167.8872
40.869141 94.677 -168.0588
41.165295 94.700 -168.2291
41.463596 94.721 -168.3976
41.764057 94.739 -168.5621
42.066696 94.756 -168.7228
42.371529 94.772 -168.8822
42.678570 94.787 -169.0419
42.987835 94.802 -169.2054
43.299343 94.817 -169.3790
43.613110 94.832 -169.5619
43.929150 94.846 -169.7533
44.247478 94.859 -169.9523
44.568115 94.871 -170.1516
44.891075 94.881 -170.3449
45.216373 94.891 -170.5299
45.544029 94.901 -170.7062
45.874062 94.912 -170.8775
46.206486 94.926 -171.0524
46.541317 94.941 -171.2377
46.878574 94.959 -171.4380
47.218277 94.978 -171.6556
47.560440 94.997 -171.8862
47.905083 95.016 -172.1223
48.252224 95.035 -172.3585
48.601879 95.053 -172.5892
48.954067 95.070 -172.8124
49.308807 95.087 -173.0300
49.666119 95.102 -173.2442
50.026020 95.117 -173.4574
50.388531 95.130 -173.6730
50.753666 95.142 -173.8891
51.121449 95.153 -174.1064
51.491894 95.165 -174.3260
51.865025 95.177 -174.5468
52.240860 95.190 -174.7703
52.619419 95.203 -174.9953
53.000721 95.215 -175.2197
53.384785 95.227 -175.4437
53.771633 95.239 -175.6642
54.161285 95.251 -175.8824
54.553761 95.263 -176.1000
54.949081 95.275 -176.3180
55.347263 95.288 -176.5381
55.748333 95.301 -176.7577
56.152309 95.313 -176.9751
56.559212 95.326 -177.1901
56.969063 95.338 -177.4044
57.381886 95.350 -177.6258
57.797699 95.360 -177.8573
58.216526 95.369 -178.1019
58.638386 95.377 -178.3595
59.063305 95.382 -178.6260
59.491302 95.386 -178.8972
59.922401 95.390 -179.1664
60.356625 95.394 -179.4325
60.793995 95.400 -179.6940
61.234531 95.406 -179.9525
61.678261 95.412 179.7906
62.125206 95.419 179.5352
62.575390 95.425 179.2813
63.028835 95.431 179.0293
63.485569 95.436 178.7775
63.945610 95.440 178.5264
64.408989 95.444 178.2730
64.875725 95.448 178.0167
65.345840 95.451 177.7564
65.819366 95.454 177.4925
66.296318 95.458 177.2244
66.776726 95.461 176.9538
67.260620 95.464 176.6831
67.748016 95.467 176.4131
68.238945 95.470 176.1422
68.733429 95.473 175.8699
69.231499 95.477 175.5961
69.733177 95.482 175.3185
70.238495 95.486 175.0360
70.747475 95.491 174.7502
71.260139 95.493 174.4654
71.776520 95.494 174.1880
72.296638 95.492 173.9226
72.820526 95.488 173.6680
73.348213 95.484 173.4186
73.879723 95.479 173.1689
74.415085 95.474 172.9137
74.954330 95.469 172.6525
75.497482 95.465 172.3855
76.044571 95.461 172.1124
76.595619 95.456 171.8334
77.150665 95.451 171.5481
77.709732 95.446 171.2560
78.272850 95.441 170.9579
78.840050 95.437 170.6563
79.411354 95.431 170.3551
79.986801 95.426 170.0565
80.566422 95.420 169.7606
81.150238 95.413 169.4681
81.738289 95.405 169.1788
82.330597 95.397 168.8903
82.927200 95.389 168.6034
83.528122 95.381 168.3208
84.133400 95.372 168.0407
84.743065 95.362 167.7603
85.357147 95.352 167.4782
85.975677 95.342 167.1932
86.598694 95.331 166.9075
87.226227 95.320 166.6190
87.858307 95.308 166.3278
88.494965 95.296 166.0367
89.136238 95.283 165.7460
89.782158 95.270 165.4553
90.432755 95.256 165.1634
91.088066 95.243 164.8710
91.748131 95.228 164.5790
92.412979 95.214 164.2858
93.082642 95.198 163.9911
93.757156 95.182 163.6944
94.436562 95.166 163.3976
95.120888 95.148 163.1009
95.810173 95.130 162.8041
96.504456 95.112 162.5095
97.203766 95.094 162.2155
97.908142 95.076 161.9203
98.617622 95.057 161.6282
99.332245 95.039 161.3383
100.052048 95.020 161.0504
100.777069 95.000 160.7614
101.507339 94.979 160.4720
102.242905 94.958 160.1805
102.983795 94.935 159.8860
103.730057 94.912 159.5855
104.481728 94.889 159.2837
105.238846 94.864 158.9818
106.001450 94.840 158.6809
106.769577 94.814 158.3788
107.543274 94.788 158.0789
108.322578 94.762 157.7819
109.107529 94.734 157.4875
109.898170 94.706 157.1918
110.694534 94.678 156.8960
111.496674 94.649 156.6021
112.304626 94.619 156.3104
113.118431 94.589 156.0209
113.938133 94.558 155.7344
114.763779 94.528 155.4497
115.595406 94.497 155.1676
116.433060 94.466 154.8838
117.276779 94.435 154.5991
118.126617 94.403 154.3169
118.982613 94.372 154.0294
119.844810 94.339 153.7386
120.713257 94.305 153.4473
121.587997 94.270 153.1587
122.469070 94.233 152.8746
123.356529 94.194 152.5947
124.250420 94.154 152.3152
125.150787 94.115 152.0318
126.057678 94.075 151.7469
126.971146 94.035 151.4634
127.891228 93.995 151.1794
128.817978 93.955 150.8995
129.751450 93.914 150.6234
130.691681 93.872 150.3505
131.638733 93.829 150.0822
132.592636 93.784 149.8196
133.553452 93.739 149.5602
134.521240 93.692 149.3019
135.496033 93.645 149.0448
136.477890 93.598 148.7883
137.466858 93.549 148.5339
138.462997 93.500 148.2804
139.466354 93.451 148.0265
140.476990 93.401 147.7755
141.494949 93.349 147.5284
142.520279 93.297 147.2885
143.553040 93.244 147.0577
144.593277 93.190 146.8336
145.641052 93.135 146.6138
146.696426 93.079 146.3963
147.759445 93.023 146.1811
148.830170 92.966 145.9648
149.908661 92.909 145.7491
150.994965 92.852 145.5378
152.089142 92.795 145.3275
153.191238 92.736 145.1213
154.301331 92.677 144.9191
155.419464 92.618 144.7197
156.545700 92.558 144.5284
157.680099 92.497 144.3462
158.822708 92.436 144.1705
159.973602 92.374 144.0035
161.132843 92.311 143.8415
162.300476 92.248 143.6865
163.476578 92.184 143.5395
164.661194 92.119 143.4001
165.854401 92.054 143.2684
167.056244 91.988 143.1466
168.266800 91.921 143.0326
169.486130 91.853 142.9270
170.714294 91.783 142.8292
171.951355 91.713 142.7375
173.197388 91.641 142.6540
174.452454 91.570 142.5790
175.716614 91.497 142.5120
176.989929 91.425 142.4544
178.272476 91.352 142.4009
179.564316 91.280 142.3560
180.865509 91.209 142.3240
182.176132 91.139 142.2974
183.496262 91.073 142.2844
184.825958 91.008 142.2811
186.165283 90.945 142.2868
187.514313 90.884 142.3002
188.873123 90.824 142.3137
190.241776 90.765 142.3345
191.620346 90.707 142.3507
193.008911 90.650 142.3726
194.407532 90.593 142.3845
195.816284 90.534 142.3959
197.235245 90.475 142.3949
198.664490 90.415 142.3810
200.104095 90.354 142.3571
201.554138 90.294 142.3286
203.014679 90.233 142.3024
204.485809 90.172 142.2839
205.967590 90.109 142.2755
207.460114 90.044 142.2730
208.963455 89.977 142.2783
210.477692 89.907 142.2866
212.002899 89.837 142.2986
213.539154 89.765 142.3156
215.086548 89.693 142.3370
216.645157 89.620 142.3676
218.215057 89.546 142.4026
219.796341 89.472 142.4490
221.389069 89.398 142.5124
222.993347 89.324 142.5893
224.609253 89.249 142.6791
226.236862 89.173 142.7802
227.876266 89.097 142.8934
229.527557 89.020 143.0205
231.190811 88.942 143.1599
232.866119 88.864 143.3103
234.553558 88.787 143.4641
236.253235 88.710 143.6282
237.965225 88.633 143.8025
239.689621 88.557 143.9844
241.426514 88.483 144.1835
243.175995 88.411 144.4026
244.938141 88.339 144.6412
246.713058 88.268 144.8941
248.500839 88.196 145.1605
250.301575 88.125 145.4297
252.115356 88.055 145.7045
253.942291 87.985 145.9893
255.782455 87.916 146.2829
257.635956 87.849 146.5909
259.502899 87.783 146.9071
261.383362 87.718 147.2330
263.277466 87.656 147.5753
265.185272 87.595 147.9231
267.106903 87.536 148.2763
269.042480 87.480 148.6307
270.992065 87.424 148.9923
272.955780 87.370 149.3578
274.933716 87.317 149.7288
276.925995 87.265 150.1098
278.932709 87.215 150.4927
280.953979 87.165 150.8849
282.989899 87.117 151.2895
285.040558 87.071 151.6978
287.106079 87.025 152.1146
289.186554 86.981 152.5380
291.282104 86.939 152.9653
293.392853 86.899 153.3931
295.518890 86.862 153.8216
297.660339 86.826 154.2465
299.817322 86.792 154.6683
301.989929 86.759 155.0925
304.178284 86.729 155.5148
306.382477 86.699 155.9363
308.602661 86.672 156.3598
310.838928 86.645 156.7831
313.091400 86.620 157.2055
315.360199 86.597 157.6295
317.645416 86.575 158.0525
319.947205 86.555 158.4789
322.265686 86.537 158.9036
324.600952 86.521 159.3279
326.953156 86.506 159.7547
329.322388 86.493 160.1806
331.708801 86.481 160.6036
334.112488 86.471 161.0214
336.533600 86.463 161.4327
338.972260 86.456 161.8362
341.428589 86.449 162.2354
343.902710 86.443 162.6315
346.394775 86.438 163.0277
348.904907 86.434 163.4213
351.433228 86.430 163.8133
353.979858 86.428 164.1963
356.544952 86.428 164.5717
359.128632 86.428 164.9395
361.731018 86.429 165.3000
364.352264 86.432 165.6571
366.992523 86.436 166.0085
369.651917 86.441 166.3597
372.330566 86.446 166.6984
375.028625 86.453 167.0396
377.746246 86.460 167.3715
380.483551 86.467 167.6992
383.240692 86.474 168.0184
386.017822 86.483 168.3336
388.815063 86.491 168.6481
391.632568 86.501 168.9539
394.470490 86.512 169.2575
397.328979 86.523 169.5567
400.208191 86.535 169.8481
403.108276 86.548 170.1390
406.029358 86.561 170.4206
408.971619 86.574 170.6941
411.935181 86.588 170.9610
414.920227 86.602 171.2256
417.926910 86.617 171.4789
420.955383 86.632 171.7290
424.005798 86.648 171.9685
427.078308 86.663 172.2045
430.173096 86.678 172.4360
433.290314 86.693 172.6626
436.430115 86.708 172.8893
439.592682 86.723 173.1097
442.778137 86.738 173.3237
445.986694 86.753 173.5313
449.218506 86.769 173.7371
452.473724 86.784 173.9362
455.752533 86.799 174.1297
459.055115 86.815 174.3171
462.381622 86.830 174.5070
465.732239 86.846 174.6899
469.107117 86.861 174.8693
472.506470 86.877 175.0519
475.930450 86.892 175.2266
479.379242 86.907 175.3983
482.853027 86.922 175.5668
486.351990 86.936 175.7297
489.876282 86.950 175.8951
493.426117 86.964 176.0583
497.001678 86.978 176.2121
500.603149 86.992 176.3702
504.230713 87.006 176.5236
507.884583 87.020 176.6757
511.564911 87.034 176.8237
515.271912 87.047 176.9726
519.005798 87.060 177.1224
522.766724 87.073 177.2656
526.554932 87.086 177.4139
530.370544 87.098 177.5536
534.213806 87.111 177.6988
538.084961 87.124 177.8367
541.984131 87.137 177.9722
545.911560 87.149 178.1129
549.867432 87.162 178.2491
553.851990 87.174 178.3836
557.865417 87.186 178.5187
561.907959 87.198 178.6564
565.979797 87.210 178.7910
570.081116 87.222 178.9249
574.212158 87.234 179.0583
578.373108 87.245 179.1910
582.564209 87.257 179.3243
586.785706 87.268 179.4594
591.037781 87.280 179.5912
595.320679 87.291 179.7236
599.634644 87.303 179.8587
603.979858 87.314 179.9929
608.356567 87.326 -179.8717
612.764954 87.337 -179.7339
617.205322 87.349 -179.5995
621.677856 87.360 -179.4611
626.182800 87.372 -179.3224
630.720398 87.383 -179.1803
635.290833 87.394 -179.0389
639.894409 87.406 -178.8973
644.531372 87.417 -178.7540
649.201904 87.429 -178.6104
653.906311 87.440 -178.4675
658.644775 87.452 -178.3198
663.417603 87.464 -178.1723
668.224976 87.477 -178.0223
673.067200 87.490 -177.8705
677.944519 87.503 -177.7173
682.857178 87.516 -177.5637
687.805420 87.530 -177.4088
692.789551 87.543 -177.2471
697.809814 87.557 -177.0891
702.866455 87.572 -176.9259
707.959717 87.586 -176.7609
713.089905 87.602 -176.5968
718.257263 87.618 -176.4341
723.462036 87.634 -176.2618
728.704529 87.651 -176.0930
733.985046 87.669 -175.9244
739.303833 87.687 -175.7496
744.661133 87.706 -175.5746
750.057251 87.726 -175.4011
755.492493 87.746 -175.2253
760.967102 87.767 -175.0515
766.481384 87.789 -174.8776
772.035645 87.812 -174.7063
777.630127 87.836 -174.5347
783.265137 87.860 -174.3709
788.940979 87.884 -174.2057
794.657959 87.908 -174.0494
800.416382 87.932 -173.8944
806.216553 87.956 -173.7316
812.058716 87.980 -173.5645
817.943237 88.005 -173.3854
823.870361 88.032 -173.2007
829.840454 88.060 -173.0183
835.853821 88.091 -172.8356
841.910767 88.122 -172.6583
848.011597 88.155 -172.4814
854.156616 88.189 -172.3146
860.346191 88.225 -172.1514
866.580627 88.261 -171.9930
872.860229 88.298 -171.8396
879.185364 88.337 -171.6973
885.556274 88.376 -171.5594
891.973389 88.416 -171.4373
898.437012 88.457 -171.3185
904.947449 88.499 -171.2120
911.505066 88.540 -171.1191
918.110229 88.581 -171.0262
924.763245 88.622 -170.9398
931.464478 88.661 -170.8469
938.214233 88.700 -170.7578
945.012939 88.737 -170.6674
951.860901 88.773 -170.5785
958.758484 88.808 -170.4799
965.706055 88.843 -170.3813
972.703979 88.878 -170.2715
979.752563 88.913 -170.1521
986.852234 88.949 -170.0304
994.003357 88.985 -169.8962
1001.206299 89.024 -169.7546
1008.461426 89.064 -169.6043
1015.769165 89.106 -169.4576
1023.129822 89.151 -169.3035
1030.543823 89.198 -169.1491
1038.011597 89.248 -168.9999
1045.533447 89.300 -168.8553
1053.109863 89.354 -168.7150
1060.741089 89.411 -168.5916
1068.427612 89.470 -168.4788
1076.169922 89.531 -168.3741
1083.968262 89.593 -168.2873
1091.823120 89.657 -168.2162
1099.734863 89.721 -168.1563
1107.703979 89.787 -168.1107
1115.730835 89.853 -168.0837
1123.815918 89.920 -168.0685
1131.959595 89.986 -168.0676
1140.162231 90.053 -168.0901
1148.424316 90.120 -168.1150
1156.746216 90.186 -168.1589
1165.128418 90.252 -168.2127
1173.571411 90.318 -168.2788
1182.075562 90.383 -168.3582
1190.641357 90.448 -168.4414
1199.269287 90.512 -168.5411
1207.959717 90.575 -168.6487
1216.713135 90.638 -168.7612
1225.529907 90.700 -168.8859
1234.410645 90.762 -169.0134
1243.355713 90.822 -169.1517
1252.365601 90.882 -169.2929
1261.440796 90.941 -169.4452
1270.581665 90.999 -169.5930
1279.788818 91.057 -169.7498
1289.062744 91.114 -169.9129
1298.403809 91.170 -170.0768
1307.812622 91.226 -170.2426
1317.289551 91.281 -170.4182
1326.835205 91.336 -170.5880
1336.449951 91.390 -170.7627
1346.134399 91.443 -170.9389
1355.889038 91.496 -171.1213
1365.714355 91.549 -171.3011
1375.610840 91.602 -171.4805
1385.579102 91.654 -171.6574
1395.619629 91.706 -171.8407
1405.732910 91.757 -172.0220
1415.919434 91.808 -172.2067
1426.179810 91.860 -172.3883
1436.514526 91.911 -172.5748
1446.924072 91.962 -172.7515
1457.409058 92.013 -172.9382
1467.970093 92.065 -173.1217
1478.607666 92.116 -173.3084
1489.322266 92.168 -173.4865
1500.114502 92.220 -173.6671
1510.984985 92.272 -173.8494
1521.934204 92.324 -174.0403
1532.962769 92.377 -174.2224
1544.071289 92.430 -174.4110
1555.260254 92.484 -174.5986
1566.530273 92.539 -174.7875
1577.881958 92.593 -174.9683
1589.315918 92.649 -175.1657
1600.832764 92.705 -175.3591
1612.433105 92.762 -175.5476
1624.117432 92.819 -175.7450
1635.886475 92.878 -175.9419
1647.740723 92.937 -176.1441
1659.680908 92.997 -176.3434
1671.707642 93.057 -176.5504
1683.821533 93.119 -176.7623
1696.023193 93.182 -176.9796
1708.313232 93.245 -177.1907
1720.692383 93.309 -177.4118
1733.161255 93.375 -177.6357
1745.720459 93.441 -177.8730
1758.370728 93.508 -178.1101
1771.112549 93.577 -178.3587
1783.946777 93.646 -178.6021
1796.874023 93.716 -178.8499
1809.894897 93.788 -179.1241
1823.010132 93.860 -179.3940
1836.220459 93.934 -179.6696
1849.526489 94.008 -179.9579
1862.928955 94.084 179.7518
1876.428467 94.160 179.4441
1890.025879 94.238 179.1337
1903.721802 94.316 178.8070
1917.516968 94.396 178.4742
1931.412109 94.476 178.1259
1945.407959 94.558 177.7715
1959.505127 94.640 177.4028
1973.704468 94.724 177.0225
1988.006714 94.808 176.6338
2002.412598 94.893 176.2260
2016.922852 94.979 175.8074
2031.538330 95.065 175.3711
2046.259644 95.153 174.9218
2061.087646 95.241 174.4575
2076.023193 95.330 173.9842
2091.066895 95.419 173.4830
2106.219727 95.509 172.9722
2121.482178 95.599 172.4332
2136.855225 95.689 171.8901
2152.339844 95.780 171.3269
2167.936523 95.871 170.7531
2183.646240 95.962 170.1371
2199.469727 96.054 169.5149
2215.407959 96.145 168.8683
2231.461670 96.236 168.2026
2247.631836 96.327 167.5206
2263.919189 96.417 166.8195
2280.324463 96.507 166.1015
2296.848633 96.597 165.3528
2313.492432 96.686 164.5776
2330.256836 96.773 163.7794
2347.142822 96.860 162.9609
2364.151123 96.946 162.1239
2381.282715 97.030 161.2673
2398.538574 97.113 160.3779
2415.919434 97.194 159.4700
2433.426270 97.273 158.5443
2451.059814 97.350 157.5951
2468.821289 97.424 156.6161
2486.711426 97.497 155.6238
2504.731201 97.566 154.5882
2522.881592 97.633 153.5377
2541.163330 97.696 152.4743
2559.577637 97.756 151.3958
2578.125488 97.813 150.3141
2596.807617 97.866 149.1656
2615.625244 97.915 148.0240
2634.579102 97.960 146.8628
2653.670410 98.001 145.7017
2672.899902 98.038 144.5308
2692.268799 98.071 143.3429
2711.778076 98.099 142.1288
2731.428711 98.122 140.9150
2751.221680 98.141 139.7018
2771.158203 98.156 138.4823
2791.239258 98.166 137.2491
2811.465820 98.171 136.0244
2831.838867 98.172 134.8029
2852.359619 98.168 133.5698
2873.029053 98.159 132.3513
2893.848145 98.146 131.1341
2914.818115 98.129 129.9083
2935.940186 98.108 128.7277
2957.215332 98.083 127.5237
2978.644531 98.054 126.3380
3000.229004 98.021 125.1588
3021.969971 97.985 124.0089
3043.868408 97.945 122.8581
3065.925537 97.902 121.7059
3088.142578 97.856 120.5847
3110.520508 97.806 119.4857
3133.060547 97.754 118.3835
3155.763916 97.699 117.2971
3178.631836 97.641 116.2458
3201.665527 97.581 115.2064
3224.866211 97.519 114.1808
3248.234863 97.454 113.1705
3271.772949 97.388 112.1818
3295.481445 97.320 111.2126
3319.361816 97.251 110.2630
3343.415283 97.181 109.3287
3367.643066 97.109 108.4122
3392.046387 97.037 107.5267
3416.626465 96.964 106.6494
3441.384766 96.890 105.7817
3466.322510 96.816 104.9514
3491.440918 96.741 104.1211
3516.741455 96.667 103.3064
3542.225098 96.593 102.5188
3567.893555 96.518 101.7465
3593.748047 96.444 100.9654
3619.789795 96.371 100.2294
3646.020264 96.298 99.4977
3672.440918 96.225 98.7547
3699.052979 96.153 98.0346
3725.857910 96.081 97.3332
3752.856934 96.011 96.6276
3780.051758 95.940 95.9481
3807.443604 95.871 95.2641
3835.033936 95.801 94.5887
3862.824219 95.733 93.9265
3890.815918 95.664 93.2567
3919.010254 95.596 92.5918
3947.408936 95.528 91.9459
3976.013428 95.460 91.2774
4004.825195 95.392 90.6378
4033.845703 95.324 89.9941
4063.076660 95.256 89.3445
4092.519287 95.187 88.7214
4122.175293 95.118 88.1031
4152.046387 95.048 87.4968
4182.133789 94.978 86.8848
4212.439453 94.908 86.2864
4242.964355 94.837 85.7010
4273.710449 94.766 85.1368
4304.679688 94.695 84.5823
4335.873047 94.624 84.0284
4367.292480 94.553 83.5124
4398.939453 94.482 83.0023
4430.815918 94.411 82.5154
4462.923340 94.341 82.0571
4495.263672 94.273 81.6105
4527.838379 94.206 81.2023
4560.648926 94.141 80.8176
4593.697266 94.080 80.4624
4626.984863 94.023 80.1341
4660.513672 93.971 79.8467
4694.285645 93.926 79.5508
4728.302246 93.889 79.3070
4762.565430 93.859 79.0466
4797.077148 93.839 78.7879
4831.838867 93.826 78.5073
4866.852539 93.822 78.2133
4902.119629 93.825 77.8690
4937.642578 93.833 77.4991
4973.422852 93.846 77.0706
5009.462402 93.863 76.6042
5045.763184 93.881 76.0799
5082.326660 93.901 75.5168
5119.155273 93.920 74.9153
5156.250977 93.939 74.2671
5193.615234 93.956 73.5849
5231.250488 93.971 72.8840
5269.158203 93.984 72.1613
5307.340820 93.995 71.4015
5345.799805 94.004 70.6464
5384.537598 94.011 69.8683
5423.556152 94.017 69.0800
5462.857422 94.021 68.2926
5502.443359 94.025 67.4903
5542.316406 94.029 66.6806
5582.478516 94.033 65.8811
5622.931641 94.036 65.0468
5663.677734 94.040 64.2160
5704.719238 94.044 63.3780
5746.058105 94.048 62.5345
5787.696289 94.051 61.6916
5829.636230 94.055 60.8162
5871.880371 94.059 59.9479
5914.430664 94.062 59.0695
5957.289062 94.066 58.1803
6000.458008 94.069 57.2883
6043.939941 94.073 56.4184
6087.736816 94.078 55.5036
6131.851074 94.083 54.6210
6176.285156 94.090 53.7115
6221.041016 94.097 52.8133
6266.121094 94.106 51.9057
6311.527832 94.117 50.9966
6357.263672 94.129 50.0846
6403.331055 94.143 49.1610
6449.732422 94.159 48.2355
6496.469727 94.177 47.3077
6543.545898 94.198 46.3997
6590.962891 94.222 45.4523
6638.723633 94.248 44.5152
6686.830566 94.278 43.5810
6735.286133 94.311 42.6213
6784.092773 94.348 41.6608
6833.252930 94.390 40.7209
6882.769531 94.437 39.7691
6932.645020 94.490 38.8083
6982.881836 94.550 37.8210
7033.482910 94.617 36.8355
7084.450195 94.692 35.8228
7135.787109 94.777 34.7827
7187.496094 94.871 33.7236
7239.579590 94.975 32.6166
7292.040527 95.090 31.4586
7344.881836 95.216 30.2332
7398.105957 95.352 28.9562
7451.715820 95.501 27.5962
7505.713867 95.660 26.1310
7560.103516 95.830 24.5776
7614.887207 96.011 22.8835
7670.067871 96.202 21.0315
7725.648438 96.401 19.0308
7781.631836 96.606 16.8547
7838.020508 96.815 14.4727
7894.817871 97.023 11.8789
7952.026855 97.226 9.0354
8009.650391 97.420 5.9556
8067.691406 97.597 2.5951
8126.153320 97.751 -0.9956
8185.038574 97.874 -4.8248
8244.350586 97.959 -8.8945
8304.092773 98.000 -13.1353
8364.267578 97.989 -17.5375
8424.878906 97.923 -22.0380
8485.928711 97.796 -26.5623
8547.420898 97.609 -31.0682
8609.359375 97.362 -35.4729
8671.746094 97.058 -39.7307
8734.584961 96.703 -43.7723
8797.878906 96.301 -47.5599
8861.631836 95.862 -51.0585
8925.846680 95.392 -54.2581
8990.527344 94.899 -57.1308
9055.676758 94.392 -59.6960
9121.297852 93.877 -61.9436
9187.394531 93.361 -63.8813
9253.969727 92.848 -65.5537
9321.027344 92.343 -66.9514
9388.571289 91.850 -68.1123
9456.604492 91.371 -69.0595
9525.130859 90.910 -69.8076
9594.154297 90.467 -70.4054
9663.677734 90.045 -70.8389
9733.705078 89.642 -71.1346
9804.239258 89.261 -71.3354
9875.285156 88.900 -71.4230
9946.845703 88.560 -71.4387
10018.924805 88.240 -71.3948
10091.526367 87.940 -71.2875
10164.653320 87.659 -71.1335
10238.310547 87.399 -70.9436
10312.501953 87.159 -70.7400
10387.230469 86.939 -70.5161
10462.500977 86.739 -70.2838
10538.316406 86.558 -70.0659
10614.681641 86.396 -69.8643
10691.599609 86.253 -69.6735
10769.075195 86.128 -69.5195
10847.112305 86.020 -69.4303
10925.714844 85.931 -69.3790
11004.886719 85.858 -69.3936
11084.632812 85.802 -69.4777
11164.957031 85.762 -69.6388
11245.863281 85.738 -69.9294
11327.355469 85.729 -70.3318
11409.438477 85.734 -70.8413
11492.116211 85.752 -71.5330
11575.392578 85.781 -72.3887
11659.272461 85.817 -73.4628
11743.760742 85.853 -74.7745
11828.861328 85.879 -76.3363
11914.578125 85.887 -78.1237
12000.916016 85.868 -80.0869
12087.879883 85.820 -82.1849
12175.473633 85.737 -84.3661
12263.702148 85.618 -86.5693
12352.570312 85.459 -88.7405
12442.082031 85.263 -90.7985
12532.242188 85.032 -92.6380
12623.055664 84.774 -94.2200
12714.527344 84.501 -95.4017
12806.662109 84.229 -96.1722
12899.464844 83.981 -96.4542
12992.939453 83.781 -96.2676
13087.091797 83.657 -95.7058
13181.925781 83.631 -94.8958
13277.447266 83.718 -94.0754
13373.661133 83.919 -93.4938
13470.572266 84.219 -93.3890
13568.185547 84.592 -93.9557
13666.505859 85.006 -95.2933
13765.539062 85.426 -97.4183
13865.290039 85.821 -100.2874
13965.763672 86.167 -103.7650
14066.965820 86.446 -107.7214
14168.900391 86.649 -112.0084
14271.574219 86.774 -116.4485
14374.992188 86.826 -120.9202
14479.159180 86.814 -125.2664
14584.081055 86.751 -129.4567
14689.763672 86.652 -133.4042
14796.211914 86.532 -137.0874
14903.431641 86.406 -140.5056
15011.427734 86.288 -143.7234
15120.207031 86.189 -146.7870
15229.774414 86.116 -149.7659
15340.135742 86.071 -152.7609
15451.296875 86.056 -155.8251
15563.263672 86.064 -159.1059
15676.041016 86.088 -162.6460
15789.635742 86.114 -166.5400
15904.053711 86.127 -170.7762
16019.300781 86.108 -175.4193
16135.382812 86.040 179.5833
16252.306641 85.903 174.2820
16370.077148 85.682 168.7732
16488.701172 85.365 163.1996
16608.185547 84.947 157.6458
16728.535156 84.425 152.2751
16849.757812 83.805 147.2262
16971.857422 83.095 142.5999
17094.841797 82.307 138.5082
17218.718750 81.456 134.9749
17343.492188 80.556 132.0753
17469.169922 79.623 129.7917
17595.757812 78.673 128.1249
17723.263672 77.717 127.0176
17851.693359 76.768 126.4594
17981.054688 75.837 126.3632
18111.353516 74.930 126.6796
18242.595703 74.056 127.3392
18374.789062 73.217 128.2612
18507.939453 72.419 129.3882
18642.054688 71.662 130.6816
18777.142578 70.949 132.0483
18913.208984 70.282 133.4874
19050.261719 69.665 134.9016
19188.308594 69.100 136.2667
19327.355469 68.594 137.4620
19467.410156 68.153 138.4462
19608.478516 67.784 139.0591
19750.570312 67.498 139.1102
19893.691406 67.301 138.3442
20037.849609 0.000 136.4657
