* Measurement data measured by REW V5.31.3
* Source: Headset (2- CX31993 HIFI AUDIO), MICROPHONE (Master Volume), R, volume: 0.400
* Format: 256k Log Swept Sine, 1 sweep at -12.0 dBFS with no timing reference
* Dated: 09 25, 24 4:08:04 PM
* REW Settings:
*  C-weighting compensation: Off
*  Target level: 75.0 dB
* Note: ; 
* Measurement: MAY2DUSK R
* Smoothing: 1/12 octave
* Frequency Step: 96 ppo
* Start Frequency: 0.36621094 Hz
*
* Freq(Hz) SPL(dB) Phase(degrees)
0.366211 51.863 27.0020
0.368865 51.892 27.0147
0.371538 51.934 27.0340
0.374230 51.986 27.0587
0.376942 52.044 27.0878
0.379673 52.107 27.1207
0.382424 52.172 27.1568
0.385196 52.239 27.1958
0.387987 52.307 27.2375
0.390798 52.375 27.2817
0.393630 52.445 27.3283
0.396483 52.515 27.3772
0.399356 52.585 27.4284
0.402250 52.656 27.4818
0.405165 52.728 27.5372
0.408101 52.800 27.5947
0.411058 52.873 27.6540
0.414037 52.946 27.7153
0.417037 53.020 27.7783
0.420059 53.094 27.8430
0.423103 53.169 27.9093
0.426169 53.244 27.9771
0.429257 53.320 28.0463
0.432368 53.396 28.1169
0.435501 53.473 28.1887
0.438656 53.551 28.2616
0.441835 53.629 28.3355
0.445037 53.708 28.4104
0.448262 53.787 28.4861
0.451510 53.867 28.5625
0.454782 53.947 28.6395
0.458077 54.028 28.7171
0.461397 54.110 28.7950
0.464740 54.192 28.8733
0.468108 54.274 28.9517
0.471500 54.358 29.0301
0.474917 54.442 29.1085
0.478358 54.526 29.1868
0.481825 54.611 29.2647
0.485316 54.697 29.3423
0.488833 54.784 29.4193
0.492375 54.871 29.4956
0.495943 54.958 29.5712
0.499537 55.047 29.6459
0.503157 55.136 29.7196
0.506803 55.225 29.7921
0.510475 55.315 29.8634
0.514175 55.406 29.9333
0.517900 55.498 30.0017
0.521653 55.590 30.0684
0.525434 55.683 30.1334
0.529241 55.777 30.1966
0.533076 55.871 30.2577
0.536939 55.966 30.3167
0.540830 56.061 30.3734
0.544749 56.158 30.4278
0.548696 56.255 30.4797
0.552673 56.353 30.5289
0.556677 56.451 30.5755
0.560711 56.550 30.6192
0.564774 56.650 30.6599
0.568867 56.751 30.6976
0.572989 56.852 30.7321
0.577141 56.954 30.7632
0.581324 57.057 30.7910
0.585536 57.160 30.8152
0.589779 57.264 30.8358
0.594053 57.370 30.8527
0.598358 57.475 30.8657
0.602694 57.582 30.8748
0.607061 57.689 30.8798
0.611460 57.797 30.8807
0.615891 57.906 30.8774
0.620354 58.016 30.8697
0.624849 58.127 30.8576
0.629377 58.238 30.8410
0.633938 58.350 30.8198
0.638532 58.463 30.7940
0.643159 58.577 30.7634
0.647819 58.691 30.7279
0.652514 58.807 30.6876
0.657242 58.923 30.6423
0.662005 59.040 30.5920
0.666802 59.158 30.5365
0.671634 59.277 30.4759
0.676501 59.396 30.4101
0.681403 59.517 30.3390
0.686341 59.638 30.2625
0.691314 59.760 30.1808
0.696324 59.883 30.0937
0.701370 60.007 30.0013
0.706452 60.132 29.9037
0.711571 60.257 29.8011
0.716728 60.382 29.6939
0.721921 60.507 29.5827
0.727153 60.632 29.4683
0.732422 60.757 29.3521
0.737729 60.880 29.2353
0.743075 61.003 29.1193
0.748460 61.125 29.0051
0.753883 61.247 28.8934
0.759346 61.370 28.7844
0.764849 61.493 28.6783
0.770391 61.616 28.5749
0.775974 61.740 28.4741
0.781597 61.864 28.3756
0.787261 61.989 28.2792
0.792966 62.114 28.1844
0.798712 62.240 28.0911
0.804500 62.367 27.9990
0.810329 62.494 27.9077
0.816201 62.622 27.8169
0.822116 62.750 27.7264
0.828073 62.879 27.6358
0.834074 63.009 27.5450
0.840118 63.138 27.4535
0.846206 63.269 27.3612
0.852338 63.400 27.2678
0.858514 63.532 27.1729
0.864735 63.664 27.0765
0.871001 63.796 26.9781
0.877313 63.929 26.8775
0.883670 64.063 26.7746
0.890074 64.197 26.6690
0.896524 64.332 26.5605
0.903020 64.467 26.4489
0.909564 64.602 26.3339
0.916155 64.738 26.2154
0.922794 64.875 26.0931
0.929481 65.011 25.9668
0.936216 65.149 25.8363
0.943000 65.287 25.7013
0.949834 65.425 25.5618
0.956717 65.563 25.4174
0.963649 65.702 25.2679
0.970632 65.842 25.1133
0.977666 65.981 24.9532
0.984750 66.121 24.7876
0.991886 66.262 24.6162
0.999074 66.403 24.4388
1.006314 66.544 24.2553
1.013606 66.685 24.0655
1.020951 66.827 23.8692
1.028349 66.969 23.6663
1.035801 67.111 23.4567
1.043307 67.253 23.2402
1.050867 67.396 23.0167
1.058482 67.539 22.7862
1.066152 67.682 22.5488
1.073878 67.825 22.3047
1.081660 67.968 22.0544
1.089498 68.112 21.7987
1.097393 68.256 21.5386
1.105345 68.399 21.2754
1.113355 68.543 21.0105
1.121423 68.687 20.7450
1.129549 68.831 20.4796
1.137734 68.975 20.2148
1.145979 69.119 19.9508
1.154283 69.263 19.6875
1.162647 69.407 19.4249
1.171072 69.551 19.1628
1.179558 69.695 18.9010
1.188106 69.839 18.6393
1.196715 69.983 18.3775
1.205387 70.127 18.1153
1.214122 70.271 17.8525
1.222920 70.416 17.5889
1.231782 70.560 17.3242
1.240708 70.704 17.0583
1.249699 70.849 16.7908
1.258754 70.993 16.5215
1.267876 71.138 16.2502
1.277063 71.282 15.9766
1.286318 71.427 15.7006
1.295639 71.571 15.4219
1.305027 71.716 15.1402
1.314484 71.861 14.8553
1.324009 72.006 14.5669
1.333604 72.151 14.2749
1.343268 72.296 13.9790
1.353002 72.441 13.6790
1.362806 72.586 13.3746
1.372681 72.732 13.0655
1.382628 72.877 12.7516
1.392647 73.023 12.4327
1.402739 73.169 12.1086
1.412904 73.315 11.7791
1.423142 73.461 11.4443
1.433455 73.607 11.1042
1.443843 73.754 10.7590
1.454305 73.900 10.4095
1.464844 74.047 10.0564
1.475459 74.193 9.7007
1.486150 74.340 9.3435
1.496920 74.486 8.9855
1.507767 74.631 8.6272
1.518693 74.777 8.2690
1.529698 74.922 7.9107
1.540783 75.067 7.5524
1.551948 75.212 7.1937
1.563194 75.356 6.8346
1.574521 75.500 6.4746
1.585931 75.644 6.1135
1.597423 75.788 5.7510
1.608999 75.931 5.3867
1.620658 76.074 5.0204
1.632402 76.217 4.6517
1.644232 76.359 4.2803
1.656146 76.502 3.9058
1.668147 76.644 3.5280
1.680235 76.786 3.1464
1.692411 76.927 2.7608
1.704675 77.069 2.3707
1.717028 77.211 1.9759
1.729470 77.352 1.5760
1.742003 77.493 1.1706
1.754626 77.635 0.7595
1.767341 77.776 0.3423
1.780147 77.917 -0.0811
1.793047 78.058 -0.5110
1.806040 78.199 -0.9473
1.819128 78.340 -1.3899
1.832310 78.480 -1.8383
1.845587 78.621 -2.2919
1.858961 78.761 -2.7501
1.872432 78.900 -3.2123
1.886001 79.039 -3.6779
1.899667 79.178 -4.1465
1.913433 79.316 -4.6178
1.927299 79.453 -5.0916
1.941265 79.590 -5.5677
1.955332 79.726 -6.0460
1.969501 79.862 -6.5264
1.983773 79.997 -7.0088
1.998148 80.132 -7.4933
2.012627 80.267 -7.9798
2.027212 80.401 -8.4684
2.041902 80.534 -8.9591
2.056698 80.668 -9.4521
2.071602 80.800 -9.9474
2.086614 80.933 -10.4453
2.101734 81.065 -10.9457
2.116964 81.197 -11.4491
2.132304 81.329 -11.9555
2.147756 81.460 -12.4653
2.163320 81.591 -12.9786
2.178996 81.722 -13.4958
2.194786 81.852 -14.0170
2.210690 81.982 -14.5424
2.226710 82.111 -15.0720
2.242845 82.240 -15.6056
2.259098 82.367 -16.1431
2.275468 82.495 -16.6842
2.291957 82.621 -17.2285
2.308566 82.747 -17.7756
2.325295 82.872 -18.3253
2.342145 82.996 -18.8771
2.359117 83.120 -19.4308
2.376212 83.243 -19.9862
2.393431 83.365 -20.5431
2.410775 83.487 -21.1012
2.428244 83.608 -21.6604
2.445840 83.729 -22.2206
2.463564 83.849 -22.7818
2.481416 83.969 -23.3440
2.499397 84.088 -23.9074
2.517509 84.207 -24.4720
2.535752 84.325 -25.0384
2.554127 84.443 -25.6069
2.572635 84.560 -26.1781
2.591277 84.676 -26.7526
2.610055 84.792 -27.3306
2.628968 84.907 -27.9123
2.648019 85.020 -28.4974
2.667208 85.133 -29.0856
2.686535 85.246 -29.6765
2.706003 85.357 -30.2695
2.725612 85.468 -30.8643
2.745363 85.577 -31.4603
2.765257 85.686 -32.0570
2.785295 85.795 -32.6540
2.805478 85.902 -33.2509
2.825808 86.009 -33.8475
2.846285 86.116 -34.4435
2.866910 86.222 -35.0389
2.887685 86.327 -35.6337
2.908611 86.432 -36.2285
2.929688 86.536 -36.8238
2.950917 86.639 -37.4204
2.972301 86.742 -38.0188
2.993839 86.843 -38.6195
3.015534 86.944 -39.2226
3.037386 87.043 -39.8277
3.059396 87.142 -40.4347
3.081565 87.240 -41.0428
3.103896 87.337 -41.6517
3.126388 87.434 -42.2606
3.149043 87.529 -42.8690
3.171862 87.624 -43.4764
3.194847 87.718 -44.0823
3.217998 87.812 -44.6863
3.241317 87.905 -45.2885
3.264805 87.998 -45.8887
3.288463 88.090 -46.4875
3.312293 88.181 -47.0855
3.336295 88.271 -47.6833
3.360471 88.361 -48.2815
3.384822 88.450 -48.8802
3.409350 88.538 -49.4796
3.434056 88.625 -50.0792
3.458940 88.711 -50.6788
3.484005 88.797 -51.2778
3.509252 88.882 -51.8758
3.534681 88.966 -52.4723
3.560295 89.050 -53.0668
3.586094 89.133 -53.6590
3.612081 89.216 -54.2488
3.638255 89.298 -54.8361
3.664620 89.380 -55.4214
3.691175 89.461 -56.0050
3.717923 89.541 -56.5874
3.744864 89.621 -57.1691
3.772001 89.700 -57.7500
3.799335 89.779 -58.3303
3.826866 89.857 -58.9097
3.854597 89.934 -59.4880
3.882529 90.011 -60.0648
3.910664 90.087 -60.6399
3.939002 90.163 -61.2130
3.967546 90.239 -61.7839
3.996296 90.314 -62.3526
4.025255 90.389 -62.9192
4.054423 90.463 -63.4839
4.083804 90.537 -64.0471
4.113396 90.611 -64.6090
4.143204 90.684 -65.1698
4.173227 90.757 -65.7295
4.203468 90.829 -66.2882
4.233928 90.901 -66.8459
4.264609 90.972 -67.4024
4.295512 91.044 -67.9576
4.326639 91.114 -68.5116
4.357992 91.185 -69.0643
4.389572 91.255 -69.6159
4.421380 91.325 -70.1665
4.453419 91.395 -70.7163
4.485691 91.464 -71.2655
4.518196 91.533 -71.8141
4.550936 91.602 -72.3623
4.583914 91.670 -72.9100
4.617131 91.738 -73.4573
4.650589 91.806 -74.0042
4.684289 91.873 -74.5506
4.718233 91.940 -75.0968
4.752424 92.007 -75.6427
4.786862 92.073 -76.1886
4.821549 92.139 -76.7346
4.856488 92.205 -77.2809
4.891680 92.270 -77.8273
4.927127 92.335 -78.3740
4.962831 92.399 -78.9208
4.998794 92.463 -79.4676
5.035017 92.527 -80.0144
5.071503 92.590 -80.5613
5.108253 92.653 -81.1082
5.145270 92.715 -81.6554
5.182555 92.776 -82.2031
5.220110 92.838 -82.7513
5.257937 92.898 -83.3000
5.296038 92.958 -83.8489
5.334415 93.018 -84.3980
5.373071 93.077 -84.9469
5.412006 93.135 -85.4954
5.451224 93.193 -86.0436
5.490725 93.251 -86.5915
5.530514 93.307 -87.1391
5.570590 93.363 -87.6866
5.610957 93.419 -88.2340
5.651616 93.473 -88.7811
5.692570 93.528 -89.3278
5.733821 93.581 -89.8735
5.775370 93.634 -90.4182
5.817221 93.686 -90.9615
5.859375 93.738 -91.5034
5.901834 93.789 -92.0441
5.944602 93.839 -92.5835
5.987679 93.889 -93.1217
6.031068 93.938 -93.6586
6.074771 93.987 -94.1940
6.118792 94.035 -94.7275
6.163131 94.082 -95.2590
6.207792 94.129 -95.7883
6.252776 94.176 -96.3154
6.298086 94.222 -96.8404
6.343725 94.267 -97.3634
6.389694 94.312 -97.8843
6.435996 94.356 -98.4032
6.482634 94.400 -98.9199
6.529610 94.444 -99.4343
6.576926 94.487 -99.9464
6.624585 94.530 -100.4562
6.672590 94.573 -100.9638
6.720942 94.615 -101.4692
6.769645 94.657 -101.9727
6.818700 94.698 -102.4743
6.868111 94.740 -102.9739
6.917881 94.781 -103.4719
6.968010 94.821 -103.9680
7.018504 94.862 -104.4626
7.069362 94.902 -104.9556
7.120590 94.942 -105.4473
7.172189 94.982 -105.9376
7.224161 95.021 -106.4268
7.276511 95.061 -106.9150
7.329239 95.100 -107.4023
7.382350 95.139 -107.8887
7.435845 95.177 -108.3744
7.489729 95.215 -108.8594
7.544002 95.253 -109.3437
7.598669 95.291 -109.8275
7.653732 95.328 -110.3108
7.709194 95.365 -110.7937
7.765058 95.402 -111.2761
7.821327 95.438 -111.7581
7.878004 95.474 -112.2397
7.935091 95.510 -112.7208
7.992592 95.545 -113.2013
8.050510 95.579 -113.6812
8.108847 95.614 -114.1604
8.167607 95.647 -114.6390
8.226793 95.681 -115.1169
8.286408 95.714 -115.5939
8.346454 95.746 -116.0698
8.406936 95.778 -116.5446
8.467856 95.810 -117.0182
8.529218 95.841 -117.4906
8.591024 95.871 -117.9616
8.653278 95.902 -118.4311
8.715983 95.931 -118.8991
8.779143 95.961 -119.3654
8.842760 95.990 -119.8299
8.906839 96.018 -120.2927
8.971381 96.046 -120.7537
9.036392 96.074 -121.2128
9.101873 96.102 -121.6700
9.167829 96.129 -122.1254
9.234263 96.155 -122.5788
9.301178 96.182 -123.0304
9.368578 96.208 -123.4801
9.436467 96.234 -123.9280
9.504847 96.260 -124.3742
9.573723 96.285 -124.8186
9.643099 96.310 -125.2614
9.712976 96.335 -125.7026
9.783361 96.360 -126.1424
9.854255 96.384 -126.5806
9.925663 96.408 -127.0175
9.997588 96.432 -127.4531
10.070035 96.456 -127.8875
10.143007 96.480 -128.3206
10.216507 96.503 -128.7526
10.290540 96.526 -129.1836
10.365109 96.549 -129.6135
10.440219 96.571 -130.0424
10.515873 96.593 -130.4702
10.592076 96.615 -130.8971
10.668830 96.637 -131.3231
10.746141 96.658 -131.7480
10.824012 96.679 -132.1719
10.902447 96.700 -132.5948
10.981451 96.721 -133.0167
11.061027 96.741 -133.4375
11.141180 96.761 -133.8571
11.221913 96.780 -134.2756
11.303232 96.799 -134.6929
11.385140 96.818 -135.1088
11.467641 96.837 -135.5235
11.550741 96.855 -135.9367
11.634442 96.873 -136.3484
11.718750 96.890 -136.7587
11.803669 96.908 -137.1673
11.889203 96.925 -137.5744
11.975357 96.941 -137.9798
12.062136 96.958 -138.3835
12.149543 96.974 -138.7856
12.237583 96.990 -139.1859
12.326262 97.005 -139.5845
12.415583 97.021 -139.9816
12.505552 97.036 -140.3770
12.596172 97.051 -140.7708
12.687449 97.066 -141.1632
12.779387 97.081 -141.5542
12.871992 97.095 -141.9439
12.965268 97.109 -142.3325
13.059220 97.123 -142.7200
13.153852 97.137 -143.1066
13.249170 97.151 -143.4923
13.345179 97.165 -143.8773
13.441884 97.178 -144.2616
13.539289 97.191 -144.6454
13.637401 97.204 -145.0285
13.736223 97.216 -145.4111
13.835761 97.229 -145.7932
13.936021 97.241 -146.1747
14.037007 97.252 -146.5554
14.138725 97.264 -146.9354
14.241180 97.275 -147.3145
14.344377 97.285 -147.6926
14.448323 97.295 -148.0696
14.553021 97.305 -148.4453
14.658478 97.315 -148.8196
14.764700 97.324 -149.1924
14.871691 97.333 -149.5636
14.979457 97.341 -149.9331
15.088005 97.350 -150.3009
15.197339 97.358 -150.6671
15.307465 97.365 -151.0315
15.418389 97.373 -151.3943
15.530117 97.380 -151.7556
15.642655 97.387 -152.1154
15.756008 97.394 -152.4740
15.870182 97.401 -152.8313
15.985184 97.408 -153.1875
16.101019 97.414 -153.5427
16.217694 97.420 -153.8971
16.335214 97.426 -154.2506
16.453586 97.432 -154.6034
16.572815 97.438 -154.9554
16.692909 97.443 -155.3067
16.813872 97.448 -155.6572
16.935713 97.453 -156.0068
17.058436 97.457 -156.3554
17.182048 97.462 -156.7030
17.306556 97.466 -157.0495
17.431967 97.469 -157.3948
17.558286 97.473 -157.7388
17.685521 97.476 -158.0814
17.813677 97.479 -158.4226
17.942762 97.482 -158.7624
18.072783 97.484 -159.1008
18.203746 97.486 -159.4378
18.335658 97.488 -159.7736
18.468526 97.490 -160.1082
18.602356 97.492 -160.4416
18.737156 97.494 -160.7741
18.872934 97.495 -161.1057
19.009695 97.497 -161.4366
19.147447 97.498 -161.7667
19.286197 97.499 -162.0961
19.425953 97.499 -162.4248
19.566721 97.500 -162.7528
19.708510 97.500 -163.0800
19.851326 97.500 -163.4063
19.995177 97.500 -163.7316
20.140070 97.499 -164.0558
20.286013 97.498 -164.3788
20.433014 97.497 -164.7004
20.581080 97.495 -165.0206
20.730219 97.494 -165.3395
20.880439 97.492 -165.6570
21.031747 97.490 -165.9732
21.184152 97.488 -166.2883
21.337661 97.486 -166.6025
21.492282 97.483 -166.9158
21.648024 97.481 -167.2285
21.804895 97.478 -167.5405
21.962902 97.475 -167.8520
22.122054 97.472 -168.1630
22.282360 97.468 -168.4733
22.443827 97.464 -168.7828
22.606464 97.460 -169.0912
22.770280 97.456 -169.3986
22.935283 97.451 -169.7046
23.101481 97.446 -170.0092
23.268884 97.441 -170.3124
23.437500 97.436 -170.6143
23.607338 97.430 -170.9152
23.778406 97.425 -171.2153
23.950714 97.419 -171.5148
24.124271 97.413 -171.8140
24.299086 97.407 -172.1131
24.475167 97.401 -172.4121
24.652524 97.394 -172.7107
24.831166 97.387 -173.0088
25.011103 97.380 -173.3057
25.192344 97.372 -173.6009
25.374898 97.364 -173.8939
25.558775 97.356 -174.1842
25.743984 97.347 -174.4717
25.930536 97.338 -174.7563
26.118439 97.330 -175.0384
26.307704 97.321 -175.3188
26.498341 97.313 -175.5983
26.690359 97.305 -175.8779
26.883768 97.297 -176.1584
27.078579 97.290 -176.4405
27.274801 97.281 -176.7244
27.472446 97.273 -177.0099
27.671522 97.264 -177.2962
27.872042 97.254 -177.5825
28.074014 97.244 -177.8674
28.277450 97.233 -178.1499
28.482360 97.221 -178.4290
28.688755 97.210 -178.7044
28.896645 97.198 -178.9761
29.106042 97.186 -179.2446
29.316957 97.174 -179.5109
29.529400 97.162 -179.7759
29.743382 97.150 179.9595
29.958915 97.139 179.6946
30.176009 97.127 179.4293
30.394677 97.115 179.1638
30.614929 97.102 178.8987
30.836778 97.089 178.6349
31.060234 97.075 178.3729
31.285309 97.061 178.1131
31.512015 97.047 177.8557
31.740364 97.033 177.6002
31.970368 97.019 177.3459
32.202039 97.005 177.0924
32.435388 96.991 176.8389
32.670428 96.977 176.5852
32.907171 96.963 176.3314
33.145630 96.948 176.0779
33.385817 96.932 175.8254
33.627745 96.917 175.5746
33.871425 96.901 175.3263
34.116871 96.885 175.0806
34.364096 96.869 174.8377
34.613113 96.853 174.5972
34.863934 96.837 174.3585
35.116572 96.822 174.1207
35.371041 96.807 173.8832
35.627354 96.792 173.6449
35.885525 96.777 173.4055
36.145566 96.761 173.1644
36.407492 96.746 172.9218
36.671316 96.730 172.6782
36.937051 96.714 172.4343
37.204712 96.697 172.1911
37.474313 96.680 171.9496
37.745867 96.662 171.7106
38.019389 96.644 171.4746
38.294893 96.625 171.2417
38.572394 96.607 171.0114
38.851905 96.589 170.7829
39.133442 96.571 170.5552
39.417019 96.552 170.3272
39.702651 96.534 170.0980
39.990353 96.516 169.8668
40.280140 96.498 169.6330
40.572026 96.479 169.3967
40.866028 96.459 169.1586
41.162160 96.439 168.9198
41.460438 96.418 168.6821
41.760877 96.396 168.4475
42.063494 96.373 168.2179
42.368303 96.349 167.9944
42.675322 96.326 167.7775
42.984565 96.303 167.5663
43.296048 96.281 167.3593
43.609789 96.259 167.1545
43.925804 96.239 166.9499
44.244108 96.218 166.7435
44.564719 96.198 166.5341
44.887654 96.179 166.3210
45.212928 96.158 166.1044
45.540560 96.138 165.8853
45.870565 96.116 165.6655
46.202962 96.093 165.4471
46.537768 96.070 165.2319
46.875000 96.047 165.0209
47.214676 96.022 164.8141
47.556813 95.998 164.6105
47.901429 95.974 164.4088
48.248542 95.950 164.2081
48.598171 95.926 164.0076
48.950334 95.901 163.8066
49.305048 95.877 163.6035
49.662333 95.853 163.3967
50.022206 95.827 163.1854
50.384688 95.801 162.9706
50.749796 95.773 162.7563
51.117550 95.744 162.5478
51.487969 95.714 162.3502
51.861072 95.684 162.1656
52.236879 95.655 161.9919
52.615409 95.628 161.8239
52.996681 95.603 161.6550
53.380717 95.579 161.4804
53.767536 95.556 161.2982
54.157158 95.532 161.1098
54.549603 95.509 160.9180
54.944892 95.484 160.7257
55.343045 95.459 160.5349
55.744084 95.434 160.3464
56.148028 95.408 160.1609
56.554900 95.382 159.9795
56.964720 95.355 159.8036
57.377510 95.328 159.6343
57.793291 95.301 159.4711
58.212085 95.274 159.3117
58.633914 95.249 159.1521
59.058799 95.224 158.9885
59.486764 95.198 158.8190
59.917829 95.173 158.6435
60.352019 95.147 158.4632
60.789354 95.120 158.2791
61.229859 95.092 158.0919
61.673556 95.063 157.9021
62.120468 95.034 157.7113
62.570618 95.003 157.5212
63.024031 94.972 157.3336
63.480729 94.940 157.1487
63.940736 94.908 156.9668
64.404077 94.875 156.7877
64.870776 94.842 156.6118
65.340856 94.809 156.4396
65.814343 94.775 156.2708
66.291261 94.742 156.1040
66.771635 94.708 155.9379
67.255489 94.675 155.7714
67.742850 94.641 155.6049
68.233743 94.606 155.4394
68.728193 94.571 155.2759
69.226226 94.536 155.1149
69.727867 94.500 154.9558
70.233144 94.464 154.7985
70.742083 94.427 154.6436
71.254709 94.390 154.4924
71.771050 94.354 154.3458
72.291132 94.317 154.2028
72.814984 94.280 154.0610
73.342631 94.244 153.9185
73.874102 94.207 153.7753
74.409424 94.169 153.6326
74.948626 94.131 153.4918
75.491734 94.093 153.3538
76.038779 94.053 153.2189
76.589787 94.014 153.0875
77.144788 93.974 152.9599
77.703811 93.933 152.8359
78.266885 93.893 152.7148
78.834039 93.853 152.5956
79.405303 93.813 152.4771
79.980706 93.774 152.3585
80.560280 93.734 152.2393
81.144053 93.693 152.1189
81.732056 93.652 151.9984
82.324320 93.610 151.8812
82.920876 93.566 151.7723
83.521755 93.522 151.6759
84.126988 93.477 151.5925
84.736607 93.433 151.5188
85.350643 93.390 151.4506
85.969129 93.348 151.3845
86.592097 93.306 151.3186
87.219579 93.263 151.2521
87.851608 93.221 151.1851
88.488217 93.180 151.1173
89.129439 93.138 151.0480
89.775308 93.096 150.9770
90.425856 93.054 150.9044
91.081119 93.011 150.8313
91.741131 92.969 150.7593
92.405925 92.926 150.6897
93.075536 92.882 150.6242
93.750000 92.839 150.5638
94.429351 92.795 150.5091
95.113625 92.751 150.4600
95.802858 92.706 150.4161
96.497085 92.662 150.3772
97.196342 92.617 150.3430
97.900667 92.573 150.3130
98.610096 92.528 150.2867
99.324665 92.483 150.2637
100.044413 92.438 150.2435
100.769376 92.393 150.2260
101.499592 92.349 150.2113
102.235100 92.304 150.2002
102.975938 92.259 150.1933
103.722144 92.215 150.1909
104.473757 92.171 150.1916
105.230817 92.127 150.1941
105.993363 92.083 150.1977
106.761435 92.039 150.2034
107.535072 91.995 150.2123
108.314315 91.951 150.2253
109.099206 91.907 150.2424
109.889783 91.864 150.2633
110.686090 91.821 150.2880
111.488167 91.779 150.3168
112.296056 91.737 150.3505
113.109800 91.695 150.3898
113.929440 91.654 150.4355
114.755020 91.612 150.4885
115.586582 91.569 150.5497
116.424170 91.526 150.6200
117.267827 91.482 150.6992
118.117598 91.437 150.7842
118.973527 91.394 150.8684
119.835658 91.352 150.9413
120.704037 91.311 150.9930
121.578708 91.271 151.0218
122.459718 91.229 151.0370
123.347111 91.186 151.0543
124.240935 91.143 151.0875
125.141236 91.102 151.1420
126.048061 91.064 151.2140
126.961458 91.028 151.2960
127.881473 90.994 151.3819
128.808154 90.960 151.4682
129.741551 90.926 151.5532
130.681712 90.891 151.6367
131.628686 90.854 151.7197
132.582521 90.817 151.8032
133.543269 90.779 151.8869
134.510979 90.742 151.9694
135.485701 90.705 152.0501
136.467486 90.669 152.1304
137.456386 90.633 152.2121
138.452451 90.598 152.2964
139.455735 90.563 152.3841
140.466288 90.528 152.4760
141.484165 90.493 152.5718
142.509418 90.458 152.6711
143.542100 90.424 152.7735
144.582265 90.389 152.8790
145.629968 90.355 152.9880
146.685262 90.321 153.1008
147.748204 90.287 153.2177
148.818849 90.254 153.3368
149.897251 90.221 153.4548
150.983469 90.188 153.5695
152.077557 90.155 153.6809
153.179574 90.122 153.7910
154.289576 90.090 153.9011
155.407622 90.057 154.0109
156.533770 90.026 154.1201
157.668078 89.995 154.2292
158.810606 89.964 154.3397
159.961413 89.934 154.4526
161.120559 89.904 154.5692
162.288105 89.874 154.6896
163.464112 89.845 154.8132
164.648640 89.816 154.9381
165.841752 89.788 155.0627
167.043510 89.759 155.1872
168.253976 89.730 155.3129
169.473213 89.699 155.4409
170.701286 89.668 155.5709
171.938258 89.636 155.7018
173.184194 89.604 155.8323
174.439158 89.572 155.9620
175.703216 89.541 156.0913
176.976434 89.510 156.2219
178.258878 89.479 156.3547
179.550615 89.448 156.4891
180.851713 89.417 156.6223
182.162239 89.385 156.7516
183.482262 89.352 156.8773
184.811850 89.319 157.0040
186.151073 89.288 157.1383
187.500000 89.257 157.2856
188.858702 89.227 157.4474
190.227250 89.198 157.6235
191.605715 89.169 157.8137
192.994169 89.139 158.0184
194.392685 89.109 158.2383
195.801334 89.079 158.4751
197.220191 89.051 158.7303
198.649330 89.022 159.0068
200.088825 88.994 159.3077
201.538751 88.966 159.6313
202.999184 88.942 159.9672
204.470200 88.923 160.2990
205.951875 88.910 160.6113
207.444287 88.905 160.8972
208.947514 88.907 161.1583
210.461634 88.915 161.3983
211.986726 88.927 161.6174
213.522869 88.940 161.8104
215.070144 88.955 161.9698
216.628631 88.967 162.0903
218.198411 88.977 162.1741
219.779567 88.983 162.2316
221.372180 88.984 162.2767
222.976334 88.980 162.3233
224.592112 88.973 162.3806
226.219600 88.964 162.4492
227.858880 88.957 162.5207
229.510039 88.951 162.5858
231.173164 88.945 162.6393
232.848340 88.939 162.6817
234.535655 88.931 162.7168
236.235197 88.921 162.7486
237.947054 88.908 162.7805
239.671317 88.894 162.8175
241.408074 88.878 162.8657
243.157416 88.859 162.9282
244.919435 88.839 163.0017
246.694223 88.817 163.0787
248.481871 88.795 163.1528
250.282473 88.773 163.2220
252.096123 88.751 163.2872
253.922915 88.729 163.3517
255.762945 88.708 163.4211
257.616309 88.688 163.5002
259.483103 88.668 163.5914
261.363424 88.649 163.6932
263.257372 88.630 163.8017
265.165043 88.611 163.9127
267.086538 88.592 164.0236
269.021957 88.573 164.1347
270.971401 88.555 164.2479
272.934972 88.537 164.3652
274.912771 88.521 164.4873
276.904902 88.505 164.6142
278.911469 88.490 164.7462
280.932577 88.477 164.8838
282.968330 88.464 165.0259
285.018835 88.451 165.1675
287.084199 88.437 165.3011
289.164530 88.422 165.4218
291.259935 88.405 165.5315
293.370525 88.387 165.6361
295.496408 88.368 165.7416
297.637697 88.349 165.8519
299.794503 88.331 165.9681
301.966937 88.313 166.0896
304.155114 88.296 166.2153
306.359147 88.279 166.3439
308.579152 88.262 166.4740
310.815244 88.246 166.6043
313.067539 88.230 166.7338
315.336156 88.214 166.8626
317.621211 88.198 166.9911
319.922826 88.183 167.1200
322.241118 88.167 167.2503
324.576210 88.152 167.3824
326.928223 88.137 167.5164
329.297280 88.122 167.6520
331.683504 88.108 167.7888
334.087019 88.093 167.9264
336.507952 88.079 168.0646
338.946427 88.066 168.2033
341.402572 88.053 168.3426
343.876516 88.040 168.4823
346.368387 88.027 168.6224
348.878315 88.014 168.7627
351.406431 88.001 168.9030
353.952867 87.988 169.0434
356.517756 87.976 169.1836
359.101230 87.963 169.3224
361.703426 87.950 169.4588
364.324478 87.937 169.5929
366.964523 87.924 169.7266
369.623699 87.911 169.8619
372.302145 87.898 169.9999
375.000000 87.885 170.1410
377.717405 87.872 170.2844
380.454501 87.859 170.4291
383.211431 87.846 170.5746
385.988339 87.833 170.7207
388.785369 87.820 170.8674
391.602668 87.807 171.0150
394.440383 87.794 171.1636
397.298660 87.781 171.3133
400.177650 87.768 171.4638
403.077502 87.756 171.6149
405.998368 87.743 171.7668
408.940400 87.731 171.9199
411.903750 87.718 172.0745
414.888575 87.706 172.2307
417.895028 87.694 172.3884
420.923268 87.682 172.5479
423.973452 87.670 172.7094
427.045738 87.658 172.8732
430.140287 87.646 173.0400
433.257261 87.634 173.2100
436.396822 87.622 173.3834
439.559133 87.610 173.5599
442.744360 87.599 173.7397
445.952668 87.588 173.9225
449.184225 87.578 174.1082
452.439199 87.568 174.2964
455.717760 87.558 174.4868
459.020079 87.549 174.6788
462.346327 87.541 174.8718
465.696680 87.534 175.0652
469.071310 87.528 175.2579
472.470394 87.523 175.4490
475.894109 87.519 175.6370
479.342634 87.516 175.8204
482.816148 87.514 175.9980
486.314833 87.512 176.1691
489.838871 87.510 176.3333
493.388445 87.508 176.4909
496.963741 87.505 176.6425
500.564945 87.502 176.7894
504.192245 87.498 176.9328
507.845830 87.493 177.0747
511.525890 87.487 177.2170
515.232618 87.481 177.3614
518.966206 87.474 177.5092
522.726849 87.467 177.6611
526.514743 87.460 177.8179
530.330086 87.452 177.9799
534.173076 87.445 178.1467
538.043915 87.437 178.3172
541.942803 87.430 178.4900
545.869944 87.423 178.6641
549.825542 87.416 178.8392
553.809805 87.409 179.0152
557.822939 87.403 179.1920
561.865154 87.396 179.3696
565.936660 87.390 179.5479
570.037671 87.384 179.7275
574.168399 87.378 179.9085
578.329060 87.372 -179.9086
582.519870 87.366 -179.7240
586.741049 87.360 -179.5376
590.992817 87.354 -179.3494
595.275394 87.348 -179.1591
599.589005 87.343 -178.9664
603.933874 87.338 -178.7714
608.310228 87.334 -178.5744
612.718295 87.329 -178.3754
617.158304 87.325 -178.1745
621.630488 87.320 -177.9718
626.135079 87.316 -177.7678
630.672311 87.312 -177.5630
635.242423 87.308 -177.3577
639.845651 87.305 -177.1517
644.482237 87.302 -176.9451
649.152421 87.299 -176.7375
653.856447 87.297 -176.5281
658.594560 87.294 -176.3166
663.367008 87.292 -176.1025
668.174039 87.290 -175.8856
673.015903 87.288 -175.6662
677.892854 87.286 -175.4445
682.805145 87.285 -175.2209
687.753032 87.284 -174.9958
692.736774 87.283 -174.7695
697.756631 87.283 -174.5421
702.812863 87.282 -174.3132
707.905735 87.282 -174.0824
713.035511 87.283 -173.8490
718.202461 87.284 -173.6127
723.406852 87.285 -173.3736
728.648956 87.286 -173.1317
733.929047 87.288 -172.8872
739.247399 87.290 -172.6404
744.604290 87.292 -172.3912
750.000000 87.295 -172.1396
755.434809 87.299 -171.8853
760.909001 87.302 -171.6283
766.422861 87.307 -171.3684
771.976677 87.312 -171.1055
777.570739 87.318 -170.8395
783.205337 87.325 -170.5704
788.880766 87.332 -170.2985
794.597321 87.341 -170.0244
800.355301 87.350 -169.7483
806.155005 87.360 -169.4705
811.996736 87.371 -169.1913
817.880799 87.383 -168.9107
823.807501 87.396 -168.6292
829.777150 87.409 -168.3472
835.790057 87.424 -168.0651
841.846536 87.440 -167.7833
847.946903 87.457 -167.5020
854.091476 87.475 -167.2216
860.280575 87.494 -166.9425
866.514523 87.514 -166.6651
872.793644 87.535 -166.3898
879.118267 87.557 -166.1167
885.488720 87.580 -165.8461
891.905336 87.604 -165.5784
898.368450 87.629 -165.3138
904.878398 87.655 -165.0527
911.435520 87.682 -164.7952
918.040157 87.709 -164.5417
924.692655 87.738 -164.2922
931.393359 87.767 -164.0471
938.142619 87.797 -163.8067
944.940787 87.828 -163.5714
951.788218 87.860 -163.3415
958.685268 87.893 -163.1175
965.632296 87.926 -162.8997
972.629666 87.959 -162.6885
979.677741 87.994 -162.4840
986.776890 88.029 -162.2865
993.927482 88.064 -162.0962
1001.129891 88.100 -161.9132
1008.384491 88.136 -161.7377
1015.691660 88.172 -161.5697
1023.051781 88.209 -161.4096
1030.465236 88.245 -161.2571
1037.932411 88.282 -161.1124
1045.453698 88.318 -160.9752
1053.029486 88.355 -160.8456
1060.660172 88.391 -160.7233
1068.346153 88.427 -160.6083
1076.087829 88.463 -160.5006
1083.885605 88.498 -160.4002
1091.739887 88.533 -160.3071
1099.651084 88.567 -160.2207
1107.619609 88.600 -160.1406
1115.645878 88.633 -160.0665
1123.730308 88.664 -159.9978
1131.873321 88.695 -159.9340
1140.075341 88.725 -159.8746
1148.336797 88.753 -159.8189
1156.658119 88.781 -159.7663
1165.039741 88.807 -159.7162
1173.482099 88.833 -159.6678
1181.985634 88.857 -159.6205
1190.550789 88.880 -159.5734
1199.178011 88.901 -159.5259
1207.867749 88.922 -159.4770
1216.620457 88.941 -159.4258
1225.436590 88.959 -159.3715
1234.316609 88.976 -159.3131
1243.260976 88.992 -159.2498
1252.270157 89.006 -159.1806
1261.344623 89.020 -159.1048
1270.484846 89.032 -159.0213
1279.691303 89.044 -158.9294
1288.964474 89.055 -158.8284
1298.304842 89.065 -158.7177
1307.712894 89.075 -158.5965
1317.189120 89.084 -158.4643
1326.734016 89.093 -158.3203
1336.348077 89.102 -158.1637
1346.031806 89.111 -157.9942
1355.785708 89.121 -157.8116
1365.610290 89.131 -157.6155
1375.506065 89.141 -157.4058
1385.473549 89.153 -157.1823
1395.513261 89.166 -156.9453
1405.625726 89.180 -156.6953
1415.811469 89.196 -156.4330
1426.071023 89.213 -156.1590
1436.404921 89.233 -155.8740
1446.813703 89.255 -155.5786
1457.297912 89.279 -155.2737
1467.858093 89.306 -154.9609
1478.494798 89.335 -154.6415
1489.208581 89.368 -154.3172
1500.000000 89.403 -153.9897
1510.869618 89.441 -153.6609
1521.818002 89.483 -153.3324
1532.845723 89.527 -153.0058
1543.953355 89.575 -152.6828
1555.141477 89.626 -152.3652
1566.410674 89.680 -152.0549
1577.761531 89.737 -151.7539
1589.194642 89.796 -151.4639
1600.710601 89.859 -151.1865
1612.310010 89.923 -150.9230
1623.993473 89.990 -150.6745
1635.761599 90.059 -150.4419
1647.615002 90.130 -150.2260
1659.554299 90.202 -150.0274
1671.580114 90.275 -149.8461
1683.693072 90.349 -149.6819
1695.893807 90.424 -149.5346
1708.182952 90.499 -149.4036
1720.561150 90.575 -149.2885
1733.029045 90.651 -149.1883
1745.587288 90.727 -149.1022
1758.236533 90.803 -149.0288
1770.977440 90.878 -148.9671
1783.810673 90.954 -148.9164
1796.736900 91.030 -148.8758
1809.756796 91.105 -148.8449
1822.871040 91.181 -148.8231
1836.080315 91.256 -148.8101
1849.385310 91.332 -148.8054
1862.786718 91.408 -148.8091
1876.285239 91.484 -148.8210
1889.881575 91.560 -148.8412
1903.576436 91.637 -148.8699
1917.370535 91.714 -148.9074
1931.264593 91.791 -148.9539
1945.259332 91.869 -149.0098
1959.355483 91.947 -149.0757
1973.553781 92.025 -149.1517
1987.854965 92.104 -149.2385
2002.259781 92.183 -149.3362
2016.768981 92.263 -149.4455
2031.383320 92.343 -149.5667
2046.103561 92.423 -149.7003
2060.930471 92.504 -149.8469
2075.864823 92.585 -150.0069
2090.907395 92.666 -150.1809
2106.058972 92.747 -150.3694
2121.320344 92.828 -150.5728
2136.692305 92.909 -150.7917
2152.175658 92.990 -151.0266
2167.771210 93.070 -151.2778
2183.479774 93.150 -151.5457
2199.302169 93.229 -151.8303
2215.239219 93.308 -152.1320
2231.291755 93.386 -152.4508
2247.460615 93.463 -152.7867
2263.746641 93.539 -153.1397
2280.150683 93.613 -153.5098
2296.673595 93.687 -153.8969
2313.316238 93.758 -154.3007
2330.079481 93.828 -154.7212
2346.964198 93.896 -155.1580
2363.971268 93.962 -155.6107
2381.101578 94.026 -156.0788
2398.356022 94.088 -156.5615
2415.735498 94.147 -157.0581
2433.240913 94.203 -157.5679
2450.873180 94.257 -158.0899
2468.633217 94.308 -158.6233
2486.521951 94.356 -159.1671
2504.540314 94.401 -159.7203
2522.689246 94.443 -160.2819
2540.969692 94.481 -160.8508
2559.382606 94.517 -161.4256
2577.928947 94.549 -162.0053
2596.609683 94.578 -162.5884
2615.425787 94.603 -163.1738
2634.378241 94.625 -163.7601
2653.468031 94.644 -164.3461
2672.696154 94.660 -164.9305
2692.063613 94.672 -165.5122
2711.571415 94.681 -166.0900
2731.220579 94.687 -166.6628
2751.012130 94.690 -167.2296
2770.947098 94.690 -167.7893
2791.026522 94.687 -168.3410
2811.251451 94.681 -168.8839
2831.622938 94.673 -169.4170
2852.142045 94.662 -169.9396
2872.809842 94.649 -170.4510
2893.627406 94.634 -170.9506
2914.595823 94.617 -171.4379
2935.716186 94.598 -171.9123
2956.989596 94.577 -172.3734
2978.417161 94.555 -172.8211
3000.000000 94.531 -173.2549
3021.739237 94.506 -173.6748
3043.636005 94.480 -174.0807
3065.691446 94.452 -174.4726
3087.906710 94.425 -174.8509
3110.282955 94.396 -175.2157
3132.821347 94.367 -175.5670
3155.523062 94.337 -175.9050
3178.389283 94.307 -176.2297
3201.421202 94.276 -176.5410
3224.620020 94.246 -176.8387
3247.986946 94.215 -177.1228
3271.523198 94.185 -177.3930
3295.230004 94.155 -177.6490
3319.108599 94.126 -177.8905
3343.160228 94.097 -178.1176
3367.386145 94.070 -178.3307
3391.787613 94.045 -178.5311
3416.365904 94.023 -178.7211
3441.122300 94.003 -178.9043
3466.058091 93.986 -179.0852
3491.174576 93.971 -179.2693
3516.473066 93.960 -179.4623
3541.954880 93.952 -179.6693
3567.621345 93.945 -179.8947
3593.473800 93.939 179.8593
3619.513592 93.933 179.5918
3645.742080 93.927 179.3041
3672.160630 93.920 178.9983
3698.770620 93.910 178.6774
3725.573436 93.899 178.3445
3752.570477 93.886 178.0022
3779.763150 93.870 177.6528
3807.152872 93.852 177.2980
3834.741071 93.833 176.9392
3862.529185 93.811 176.5771
3890.518664 93.788 176.2123
3918.710966 93.763 175.8450
3947.107561 93.736 175.4750
3975.709929 93.707 175.1021
4004.519563 93.676 174.7256
4033.537962 93.643 174.3453
4062.766641 93.608 173.9605
4092.207123 93.571 173.5711
4121.860942 93.531 173.1775
4151.729646 93.487 172.7804
4181.814790 93.440 172.3817
4212.117944 93.389 171.9839
4242.640687 93.334 171.5907
4273.384610 93.274 171.2064
4304.351317 93.210 170.8360
4335.542421 93.142 170.4846
4366.959549 93.070 170.1566
4398.604338 92.995 169.8553
4430.478438 92.919 169.5820
4462.583511 92.840 169.3361
4494.921231 92.761 169.1154
4527.493283 92.682 168.9167
4560.301365 92.603 168.7363
4593.347189 92.525 168.5712
4626.632476 92.446 168.4189
4660.158962 92.366 168.2780
4693.928395 92.287 168.1478
4727.942535 92.206 168.0291
4762.203156 92.124 167.9227
4796.712043 92.041 167.8304
4831.470996 91.957 167.7540
4866.481826 91.872 167.6952
4901.746360 91.786 167.6553
4937.266434 91.699 167.6353
4973.043902 91.612 167.6356
5009.080628 91.525 167.6561
5045.378492 91.438 167.6965
5081.939384 91.351 167.7558
5118.765212 91.264 167.8332
5155.857894 91.179 167.9278
5193.219366 91.093 168.0390
5230.851574 91.008 168.1666
5268.756481 90.923 168.3109
5306.936062 90.839 168.4724
5345.392309 90.755 168.6517
5384.127225 90.671 168.8499
5423.142830 90.587 169.0677
5462.441159 90.504 169.3059
5502.024259 90.422 169.5649
5541.894195 90.340 169.8450
5582.053045 90.260 170.1463
5622.502902 90.180 170.4691
5663.245876 90.102 170.8134
5704.284090 90.025 171.1796
5745.619684 89.950 171.5676
5787.254813 89.876 171.9770
5829.191647 89.804 172.4075
5871.432373 89.734 172.8588
5913.979192 89.666 173.3305
5956.834323 89.599 173.8226
6000.000000 89.535 174.3351
6043.478473 89.473 174.8683
6087.272010 89.414 175.4223
6131.382892 89.356 175.9975
6175.813420 89.302 176.5941
6220.565910 89.250 177.2126
6265.642695 89.201 177.8532
6311.046124 89.156 178.5162
6356.778566 89.114 179.2017
6402.842404 89.076 179.9097
6449.240040 89.042 -179.3597
6495.973891 89.012 -178.6068
6543.046396 88.987 -177.8320
6590.460007 88.968 -177.0358
6638.217197 88.955 -176.2188
6686.320456 88.948 -175.3816
6734.772290 88.948 -174.5252
6783.575226 88.955 -173.6508
6832.731809 88.971 -172.7606
6882.244600 88.995 -171.8579
6932.116181 89.029 -170.9475
6982.349153 89.072 -170.0347
7032.946133 89.126 -169.1257
7083.909760 89.191 -168.2271
7135.242690 89.266 -167.3457
7186.947600 89.352 -166.4877
7239.027185 89.447 -165.6579
7291.484160 89.553 -164.8598
7344.321260 89.668 -164.0952
7397.541239 89.792 -163.3649
7451.146872 89.927 -162.6700
7505.140954 90.072 -162.0123
7559.526299 90.228 -161.3959
7614.305743 90.397 -160.8272
7669.482141 90.579 -160.3159
7725.058371 90.775 -159.8748
7781.037328 90.986 -159.5194
7837.421932 91.212 -159.2679
7894.215122 91.453 -159.1409
7951.419859 91.707 -159.1602
8009.039125 91.973 -159.3488
8067.075924 92.250 -159.7296
8125.533282 92.532 -160.3250
8184.414245 92.818 -161.1555
8243.721885 93.101 -162.2379
8303.459292 93.377 -163.5843
8363.629581 93.639 -165.2003
8424.235888 93.879 -167.0835
8485.281374 94.092 -169.2231
8546.769221 94.270 -171.5988
8608.702634 94.406 -174.1806
8671.084842 94.495 -176.9298
8733.919097 94.532 -179.7997
8797.208675 94.515 177.2618
8860.956876 94.442 174.3096
8925.167022 94.312 171.3983
8989.842461 94.129 168.5800
9054.986566 93.893 165.9029
9120.602731 93.609 163.4104
9186.694378 93.282 161.1412
9253.264952 92.916 159.1293
9320.317925 92.517 157.4037
9387.856790 92.092 155.9874
9455.885071 91.647 154.8954
9524.406312 91.190 154.1331
9593.424086 90.728 153.6941
9662.941992 90.269 153.5594
9732.963653 89.820 153.6985
9803.492719 89.384 154.0724
9874.532869 88.962 154.6398
9946.087805 88.556 155.3646
10018.161257 88.162 156.2245
10090.756983 87.775 157.2164
10163.878768 87.393 158.3589
10237.530423 87.012 159.6895
10311.715789 86.633 161.2593
10386.438732 86.260 163.1250
10461.703149 85.900 165.3393
10537.512962 85.564 167.9401
10613.872125 85.268 170.9390
10690.784618 85.029 174.3069
10768.254450 84.863 177.9633
10846.285661 84.785 -178.2288
10924.882318 84.799 -174.4508
11004.048518 84.903 -170.8979
11083.788390 85.079 -167.7387
11164.106090 85.308 -165.0787
11245.005805 85.562 -162.9456
11326.491752 85.820 -161.2953
11408.568180 86.064 -160.0355
11491.239368 86.284 -159.0526
11574.509626 86.479 -158.2346
11658.383294 86.651 -157.4866
11742.864745 86.805 -156.7380
11827.958384 86.951 -155.9443
11913.668646 87.096 -155.0853
12000.000000 87.249 -154.1604
12086.956947 87.416 -153.1847
12174.544019 87.603 -152.1844
12262.765784 87.815 -151.1935
12351.626840 88.054 -150.2508
12441.131819 88.321 -149.3979
12531.285389 88.616 -148.6780
12622.092249 88.939 -148.1347
12713.557132 89.286 -147.8113
12805.684808 89.654 -147.7504
12898.480079 90.038 -147.9923
12991.947783 90.431 -148.5734
13086.092792 90.824 -149.5237
13180.920015 91.208 -150.8645
13276.434395 91.573 -152.6054
13372.640911 91.906 -154.7407
13469.544580 92.196 -157.2474
13567.150452 92.430 -160.0827
13665.463617 92.599 -163.1839
13764.489200 92.694 -166.4704
13864.232362 92.710 -169.8475
13964.698305 92.645 -173.2127
14065.892266 92.503 -176.4631
14167.819519 92.289 -179.5029
14270.485380 92.011 177.7493
14373.895200 91.683 175.3560
14478.054370 91.317 173.3586
14582.968320 90.928 171.7760
14688.642520 90.529 170.6062
14795.082478 90.133 169.8279
14902.293745 89.753 169.4024
15010.281908 89.399 169.2769
15119.052599 89.077 169.3874
15228.611486 88.796 169.6621
15338.964283 88.556 170.0248
15450.116741 88.358 170.3977
15562.074656 88.200 170.7061
15674.843864 88.075 170.8822
15788.430244 87.976 170.8715
15902.839718 87.890 170.6367
16018.078250 87.805 170.1629
16134.151848 87.709 169.4608
16251.066563 87.588 168.5661
16368.828491 87.435 167.5356
16487.443769 87.243 166.4382
16606.918584 87.010 165.3431
16727.259161 86.737 164.3119
16848.471777 86.426 163.3951
16970.562748 86.081 162.6364
17093.538442 85.706 162.0771
17217.405268 85.304 161.7602
17342.169684 84.881 161.7292
17467.838194 84.445 162.0245
17594.417350 84.005 162.6782
17721.913751 83.572 163.7096
17850.334044 83.159 165.1220
17979.684923 82.779 166.9001
18109.973131 82.446 169.0084
18241.205462 82.174 171.3889
18373.388756 81.975 173.9586
18506.529905 81.862 176.6067
18640.635849 81.841 179.1946
18775.713581 81.914 -178.4391
18911.770141 82.078 -176.4664
19048.812624 82.318 -175.0515
19186.848172 82.613 -174.3264
19325.883983 82.937 -174.3626
19465.927305 83.259 -175.1419
19606.985439 83.549 -176.5248
19749.065738 83.783 -178.2253
19892.175609 83.945 -179.8134
20036.322514 84.028 179.2076
