* Measurement data measured by REW V5.31.3
* Source: Headset (CX31993 HIFI AUDIO), MICROPHONE (Master Volume), R, volume: 0.250
* Format: 256k Log Swept Sine, 1 sweep at -12.0 dBFS with no timing reference
* Dated: 02 3, 25 11:27:43 AM
* REW Settings:
*  C-weighting compensation: Off
*  Target level: 75.0 dB
* Note: ; 
* Measurement: Moondrop Starfield 500 R
* Smoothing: 1/12 octave
* Frequency Step: 96 ppo
* Start Frequency: 0.36621094 Hz
*
* Freq(Hz) SPL(dB) Phase(degrees)
0.366211 12.861 26.9105
0.368865 12.941 27.1827
0.371538 13.060 27.5781
0.374230 13.205 28.0550
0.376942 13.367 28.5793
0.379673 13.541 29.1275
0.382424 13.720 29.6849
0.385196 13.904 30.2432
0.387987 14.091 30.7978
0.390798 14.280 31.3465
0.393630 14.471 31.8882
0.396483 14.663 32.4224
0.399356 14.857 32.9488
0.402250 15.052 33.4674
0.405165 15.249 33.9782
0.408101 15.447 34.4811
0.411058 15.647 34.9761
0.414037 15.847 35.4633
0.417037 16.050 35.9425
0.420059 16.254 36.4137
0.423103 16.459 36.8769
0.426169 16.666 37.3320
0.429257 16.875 37.7789
0.432368 17.084 38.2175
0.435501 17.296 38.6478
0.438656 17.509 39.0697
0.441835 17.723 39.4830
0.445037 17.939 39.8876
0.448262 18.157 40.2835
0.451510 18.376 40.6705
0.454782 18.597 41.0486
0.458077 18.820 41.4176
0.461397 19.044 41.7775
0.464740 19.269 42.1281
0.468108 19.497 42.4694
0.471500 19.726 42.8011
0.474917 19.956 43.1234
0.478358 20.189 43.4359
0.481825 20.423 43.7388
0.485316 20.658 44.0318
0.488833 20.896 44.3150
0.492375 21.135 44.5881
0.495943 21.376 44.8512
0.499537 21.619 45.1043
0.503157 21.863 45.3471
0.506803 22.109 45.5798
0.510475 22.357 45.8021
0.514175 22.607 46.0142
0.517900 22.858 46.2159
0.521653 23.112 46.4072
0.525434 23.367 46.5881
0.529241 23.624 46.7586
0.533076 23.883 46.9186
0.536939 24.144 47.0682
0.540830 24.407 47.2074
0.544749 24.672 47.3360
0.548696 24.938 47.4543
0.552673 25.207 47.5621
0.556677 25.477 47.6595
0.560711 25.750 47.7465
0.564774 26.024 47.8232
0.568867 26.301 47.8895
0.572989 26.579 47.9456
0.577141 26.860 47.9915
0.581324 27.142 48.0272
0.585536 27.427 48.0528
0.589779 27.714 48.0684
0.594053 28.002 48.0740
0.598358 28.293 48.0697
0.602694 28.586 48.0557
0.607061 28.881 48.0319
0.611460 29.179 47.9984
0.615891 29.478 47.9555
0.620354 29.780 47.9031
0.624849 30.083 47.8414
0.629377 30.389 47.7705
0.633938 30.698 47.6905
0.638532 31.008 47.6015
0.643159 31.321 47.5037
0.647819 31.636 47.3971
0.652514 31.953 47.2820
0.657242 32.273 47.1585
0.662005 32.595 47.0266
0.666802 32.919 46.8866
0.671634 33.246 46.7385
0.676501 33.574 46.5827
0.681403 33.905 46.4191
0.686341 34.239 46.2481
0.691314 34.574 46.0698
0.696324 34.911 45.8844
0.701370 35.248 45.6924
0.706452 35.585 45.4941
0.711571 35.921 45.2901
0.716728 36.252 45.0815
0.721921 36.576 44.8696
0.727153 36.890 44.6563
0.732422 37.189 44.4439
0.737729 37.474 44.2352
0.743075 37.745 44.0325
0.748460 38.005 43.8375
0.753883 38.257 43.6512
0.759346 38.503 43.4739
0.764849 38.745 43.3053
0.770391 38.982 43.1451
0.775974 39.216 42.9925
0.781597 39.447 42.8469
0.787261 39.674 42.7075
0.792966 39.899 42.5737
0.798712 40.121 42.4446
0.804500 40.340 42.3196
0.810329 40.556 42.1981
0.816201 40.769 42.0794
0.822116 40.980 41.9629
0.828073 41.188 41.8480
0.834074 41.393 41.7342
0.840118 41.596 41.6209
0.846206 41.796 41.5076
0.852338 41.994 41.3939
0.858514 42.189 41.2793
0.864735 42.382 41.1634
0.871001 42.573 41.0457
0.877313 42.762 40.9258
0.883670 42.948 40.8034
0.890074 43.132 40.6781
0.896524 43.315 40.5496
0.903020 43.495 40.4174
0.909564 43.674 40.2814
0.916155 43.851 40.1411
0.922794 44.027 39.9963
0.929481 44.202 39.8468
0.936216 44.375 39.6922
0.943000 44.547 39.5323
0.949834 44.718 39.3669
0.956717 44.888 39.1957
0.963649 45.058 39.0185
0.970632 45.227 38.8351
0.977666 45.395 38.6452
0.984750 45.564 38.4488
0.991886 45.733 38.2456
0.999074 45.902 38.0354
1.006314 46.072 37.8181
1.013606 46.242 37.5935
1.020951 46.413 37.3614
1.028349 46.585 37.1218
1.035801 46.759 36.8745
1.043307 46.934 36.6195
1.050867 47.112 36.3566
1.058482 47.291 36.0861
1.066152 47.473 35.8080
1.073878 47.657 35.5228
1.081660 47.843 35.2312
1.089498 48.031 34.9343
1.097393 48.220 34.6336
1.105345 48.410 34.3310
1.113355 48.601 34.0283
1.121423 48.791 33.7268
1.129549 48.981 33.4277
1.137734 49.170 33.1314
1.145979 49.358 32.8381
1.154283 49.544 32.5478
1.162647 49.730 32.2602
1.171072 49.914 31.9752
1.179558 50.097 31.6924
1.188106 50.279 31.4114
1.196715 50.460 31.1319
1.205387 50.640 30.8536
1.214122 50.818 30.5762
1.222920 50.996 30.2993
1.231782 51.173 30.0225
1.240708 51.349 29.7456
1.249699 51.524 29.4682
1.258754 51.698 29.1900
1.267876 51.871 28.9106
1.277063 52.044 28.6298
1.286318 52.216 28.3473
1.295639 52.387 28.0627
1.305027 52.558 27.7758
1.314484 52.728 27.4862
1.324009 52.898 27.1936
1.333604 53.067 26.8978
1.343268 53.237 26.5984
1.353002 53.406 26.2953
1.362806 53.575 25.9880
1.372681 53.744 25.6764
1.382628 53.913 25.3601
1.392647 54.082 25.0389
1.402739 54.252 24.7127
1.412904 54.421 24.3812
1.423142 54.592 24.0444
1.433455 54.762 23.7024
1.443843 54.933 23.3554
1.454305 55.105 23.0042
1.464844 55.276 22.6496
1.475459 55.447 22.2926
1.486150 55.617 21.9345
1.496920 55.787 21.5759
1.507767 55.956 21.2176
1.518693 56.125 20.8598
1.529698 56.292 20.5025
1.540783 56.458 20.1456
1.551948 56.624 19.7891
1.563194 56.789 19.4327
1.574521 56.952 19.0762
1.585931 57.115 18.7192
1.597423 57.277 18.3615
1.608999 57.438 18.0029
1.620658 57.599 17.6430
1.632402 57.758 17.2815
1.644232 57.918 16.9182
1.656146 58.076 16.5527
1.668147 58.234 16.1849
1.680235 58.391 15.8142
1.692411 58.548 15.4405
1.704675 58.705 15.0635
1.717028 58.861 14.6829
1.729470 59.017 14.2983
1.742003 59.172 13.9095
1.754626 59.328 13.5161
1.767341 59.483 13.1180
1.780147 59.638 12.7149
1.793047 59.793 12.3066
1.806040 59.948 11.8933
1.819128 60.103 11.4748
1.832310 60.258 11.0517
1.845587 60.412 10.6242
1.858961 60.565 10.1931
1.872432 60.718 9.7588
1.886001 60.869 9.3217
1.899667 61.020 8.8824
1.913433 61.170 8.4411
1.927299 61.319 7.9981
1.941265 61.467 7.5536
1.955332 61.614 7.1078
1.969501 61.760 6.6608
1.983773 61.905 6.2128
1.998148 62.050 5.7639
2.012627 62.194 5.3141
2.027212 62.337 4.8635
2.041902 62.480 4.4120
2.056698 62.622 3.9597
2.071602 62.764 3.5065
2.086614 62.905 3.0524
2.101734 63.045 2.5973
2.116964 63.185 2.1410
2.132304 63.325 1.6834
2.147756 63.465 1.2244
2.163320 63.604 0.7637
2.178996 63.743 0.3010
2.194786 63.881 -0.1640
2.210690 64.018 -0.6316
2.226710 64.155 -1.1018
2.242845 64.291 -1.5747
2.259098 64.426 -2.0502
2.275468 64.560 -2.5280
2.291957 64.693 -3.0078
2.308566 64.826 -3.4893
2.325295 64.957 -3.9721
2.342145 65.087 -4.4559
2.359117 65.217 -4.9404
2.376212 65.345 -5.4251
2.393431 65.473 -5.9100
2.410775 65.601 -6.3946
2.428244 65.727 -6.8787
2.445840 65.853 -7.3622
2.463564 65.979 -7.8449
2.481416 66.104 -8.3268
2.499397 66.229 -8.8077
2.517509 66.353 -9.2879
2.535752 66.476 -9.7675
2.554127 66.600 -10.2470
2.572635 66.722 -10.7269
2.591277 66.844 -11.2077
2.610055 66.965 -11.6897
2.628968 67.085 -12.1731
2.648019 67.204 -12.6579
2.667208 67.322 -13.1437
2.686535 67.439 -13.6305
2.706003 67.555 -14.1176
2.725612 67.671 -14.6048
2.745363 67.786 -15.0916
2.765257 67.900 -15.5776
2.785295 68.013 -16.0625
2.805478 68.126 -16.5457
2.825808 68.239 -17.0271
2.846285 68.351 -17.5064
2.866910 68.462 -17.9833
2.887685 68.573 -18.4580
2.908611 68.684 -18.9305
2.929688 68.795 -19.4011
2.950917 68.904 -19.8704
2.972301 69.013 -20.3387
2.993839 69.122 -20.8065
3.015534 69.229 -21.2739
3.037386 69.336 -21.7409
3.059396 69.442 -22.2074
3.081565 69.548 -22.6731
3.103896 69.653 -23.1380
3.126388 69.757 -23.6016
3.149043 69.861 -24.0637
3.171862 69.965 -24.5240
3.194847 70.068 -24.9823
3.217998 70.171 -25.4383
3.241317 70.274 -25.8919
3.264805 70.376 -26.3431
3.288463 70.479 -26.7918
3.312293 70.581 -27.2383
3.336295 70.683 -27.6828
3.360471 70.785 -28.1256
3.384822 70.886 -28.5668
3.409350 70.986 -29.0067
3.434056 71.087 -29.4454
3.458940 71.187 -29.8831
3.484005 71.286 -30.3198
3.509252 71.386 -30.7556
3.534681 71.485 -31.1906
3.560295 71.584 -31.6248
3.586094 71.684 -32.0582
3.612081 71.783 -32.4907
3.638255 71.882 -32.9224
3.664620 71.982 -33.3532
3.691175 72.081 -33.7831
3.717923 72.180 -34.2121
3.744864 72.279 -34.6402
3.772001 72.378 -35.0678
3.799335 72.477 -35.4951
3.826866 72.576 -35.9224
3.854597 72.675 -36.3502
3.882529 72.774 -36.7787
3.910664 72.873 -37.2084
3.939002 72.972 -37.6394
3.967546 73.070 -38.0721
3.996296 73.169 -38.5066
4.025255 73.268 -38.9428
4.054423 73.367 -39.3808
4.083804 73.466 -39.8204
4.113396 73.565 -40.2616
4.143204 73.664 -40.7044
4.173227 73.763 -41.1491
4.203468 73.861 -41.5959
4.233928 73.960 -42.0452
4.264609 74.058 -42.4972
4.295512 74.157 -42.9524
4.326639 74.255 -43.4110
4.357992 74.352 -43.8734
4.389572 74.450 -44.3397
4.421380 74.547 -44.8100
4.453419 74.644 -45.2842
4.485691 74.741 -45.7623
4.518196 74.837 -46.2441
4.550936 74.933 -46.7294
4.583914 75.029 -47.2182
4.617131 75.124 -47.7104
4.650589 75.218 -48.2060
4.684289 75.312 -48.7050
4.718233 75.405 -49.2077
4.752424 75.498 -49.7143
4.786862 75.590 -50.2251
4.821549 75.681 -50.7400
4.856488 75.771 -51.2591
4.891680 75.861 -51.7819
4.927127 75.949 -52.3081
4.962831 76.037 -52.8370
4.998794 76.124 -53.3681
5.035017 76.210 -53.9010
5.071503 76.295 -54.4355
5.108253 76.379 -54.9716
5.145270 76.462 -55.5095
5.182555 76.544 -56.0494
5.220110 76.625 -56.5914
5.257937 76.705 -57.1351
5.296038 76.783 -57.6800
5.334415 76.861 -58.2252
5.373071 76.938 -58.7698
5.412006 77.013 -59.3134
5.451224 77.087 -59.8552
5.490725 77.161 -60.3953
5.530514 77.233 -60.9338
5.570590 77.304 -61.4707
5.610957 77.374 -62.0062
5.651616 77.443 -62.5397
5.692570 77.511 -63.0708
5.733821 77.578 -63.5988
5.775370 77.645 -64.1229
5.817221 77.710 -64.6426
5.859375 77.775 -65.1578
5.901834 77.839 -65.6683
5.944602 77.903 -66.1743
5.987679 77.966 -66.6759
6.031068 78.028 -67.1732
6.074771 78.090 -67.6660
6.118792 78.151 -68.1540
6.163131 78.212 -68.6372
6.207792 78.274 -69.1152
6.252776 78.335 -69.5881
6.298086 78.395 -70.0559
6.343725 78.456 -70.5191
6.389694 78.517 -70.9779
6.435996 78.578 -71.4328
6.482634 78.639 -71.8844
6.529610 78.701 -72.3328
6.576926 78.763 -72.7785
6.624585 78.825 -73.2216
6.672590 78.887 -73.6622
6.720942 78.950 -74.1010
6.769645 79.014 -74.5384
6.818700 79.078 -74.9752
6.868111 79.142 -75.4122
6.917881 79.206 -75.8501
6.968010 79.272 -76.2892
7.018504 79.337 -76.7298
7.069362 79.403 -77.1723
7.120590 79.469 -77.6170
7.172189 79.536 -78.0644
7.224161 79.602 -78.5150
7.276511 79.669 -78.9693
7.329239 79.735 -79.4277
7.382350 79.802 -79.8904
7.435845 79.868 -80.3574
7.489729 79.935 -80.8287
7.544002 80.001 -81.3041
7.598669 80.066 -81.7835
7.653732 80.131 -82.2670
7.709194 80.195 -82.7545
7.765058 80.259 -83.2459
7.821327 80.322 -83.7408
7.878004 80.384 -84.2387
7.935091 80.445 -84.7389
7.992592 80.505 -85.2408
8.050510 80.565 -85.7439
8.108847 80.623 -86.2478
8.167607 80.680 -86.7521
8.226793 80.736 -87.2561
8.286408 80.791 -87.7590
8.346454 80.845 -88.2601
8.406936 80.898 -88.7585
8.467856 80.950 -89.2538
8.529218 81.001 -89.7456
8.591024 81.051 -90.2334
8.653278 81.100 -90.7167
8.715983 81.149 -91.1950
8.779143 81.197 -91.6679
8.842760 81.245 -92.1351
8.906839 81.292 -92.5965
8.971381 81.339 -93.0521
9.036392 81.386 -93.5020
9.101873 81.433 -93.9464
9.167829 81.480 -94.3853
9.234263 81.527 -94.8190
9.301178 81.574 -95.2480
9.368578 81.622 -95.6727
9.436467 81.670 -96.0939
9.504847 81.718 -96.5123
9.573723 81.767 -96.9285
9.643099 81.817 -97.3430
9.712976 81.867 -97.7566
9.783361 81.918 -98.1703
9.854255 81.969 -98.5848
9.925663 82.020 -99.0008
9.997588 82.072 -99.4190
10.070035 82.124 -99.8399
10.143007 82.177 -100.2641
10.216507 82.229 -100.6922
10.290540 82.282 -101.1245
10.365109 82.334 -101.5614
10.440219 82.386 -102.0029
10.515873 82.438 -102.4492
10.592076 82.489 -102.9002
10.668830 82.540 -103.3557
10.746141 82.590 -103.8157
10.824012 82.639 -104.2796
10.902447 82.687 -104.7471
10.981451 82.734 -105.2176
11.061027 82.780 -105.6905
11.141180 82.825 -106.1653
11.221913 82.868 -106.6411
11.303232 82.911 -107.1172
11.385140 82.952 -107.5928
11.467641 82.991 -108.0671
11.550741 83.030 -108.5393
11.634442 83.067 -109.0087
11.718750 83.102 -109.4743
11.803669 83.137 -109.9355
11.889203 83.170 -110.3915
11.975357 83.203 -110.8418
12.062136 83.235 -111.2857
12.149543 83.265 -111.7228
12.237583 83.296 -112.1525
12.326262 83.325 -112.5747
12.415583 83.354 -112.9892
12.505552 83.383 -113.3959
12.596172 83.412 -113.7949
12.687449 83.442 -114.1864
12.779387 83.471 -114.5710
12.871992 83.501 -114.9490
12.965268 83.531 -115.3212
13.059220 83.562 -115.6885
13.153852 83.594 -116.0518
13.249170 83.626 -116.4121
13.345179 83.659 -116.7708
13.441884 83.694 -117.1289
13.539289 83.729 -117.4878
13.637401 83.765 -117.8487
13.736223 83.802 -118.2128
13.835761 83.840 -118.5812
13.936021 83.878 -118.9548
14.037007 83.916 -119.3345
14.138725 83.954 -119.7207
14.241180 83.993 -120.1138
14.344377 84.031 -120.5138
14.448323 84.069 -120.9204
14.553021 84.105 -121.3332
14.658478 84.141 -121.7514
14.764700 84.176 -122.1739
14.871691 84.210 -122.5994
14.979457 84.242 -123.0267
15.088005 84.274 -123.4542
15.197339 84.304 -123.8805
15.307465 84.332 -124.3042
15.418389 84.360 -124.7239
15.530117 84.387 -125.1385
15.642655 84.413 -125.5472
15.756008 84.438 -125.9496
15.870182 84.463 -126.3454
15.985184 84.489 -126.7349
16.101019 84.514 -127.1186
16.217694 84.540 -127.4974
16.335214 84.566 -127.8724
16.453586 84.593 -128.2449
16.572815 84.621 -128.6164
16.692909 84.649 -128.9880
16.813872 84.677 -129.3609
16.935713 84.706 -129.7361
17.058436 84.735 -130.1142
17.182048 84.763 -130.4952
17.306556 84.791 -130.8791
17.431967 84.819 -131.2652
17.558286 84.846 -131.6526
17.685521 84.872 -132.0402
17.813677 84.897 -132.4267
17.942762 84.921 -132.8110
18.072783 84.945 -133.1919
18.203746 84.968 -133.5688
18.335658 84.991 -133.9413
18.468526 85.013 -134.3095
18.602356 85.036 -134.6740
18.737156 85.059 -135.0358
18.872934 85.082 -135.3962
19.009695 85.105 -135.7567
19.147447 85.129 -136.1188
19.286197 85.152 -136.4836
19.425953 85.175 -136.8520
19.566721 85.197 -137.2240
19.708510 85.219 -137.5994
19.851326 85.239 -137.9768
19.995177 85.257 -138.3544
20.140070 85.274 -138.7301
20.286013 85.289 -139.1014
20.433014 85.303 -139.4657
20.581080 85.315 -139.8211
20.730219 85.327 -140.1659
20.880439 85.338 -140.4996
21.031747 85.349 -140.8224
21.184152 85.361 -141.1358
21.337661 85.374 -141.4419
21.492282 85.388 -141.7436
21.648024 85.404 -142.0441
21.804895 85.420 -142.3464
21.962902 85.437 -142.6531
22.122054 85.455 -142.9661
22.282360 85.472 -143.2863
22.443827 85.489 -143.6134
22.606464 85.506 -143.9463
22.770280 85.521 -144.2829
22.935283 85.535 -144.6211
23.101481 85.547 -144.9584
23.268884 85.559 -145.2928
23.437500 85.570 -145.6231
23.607338 85.581 -145.9488
23.778406 85.591 -146.2703
23.950714 85.602 -146.5889
24.124271 85.614 -146.9064
24.299086 85.626 -147.2247
24.475167 85.638 -147.5456
24.652524 85.650 -147.8703
24.831166 85.662 -148.1993
25.011103 85.674 -148.5324
25.192344 85.685 -148.8685
25.374898 85.694 -149.2061
25.558775 85.703 -149.5434
25.743984 85.711 -149.8786
25.930536 85.719 -150.2101
26.118439 85.726 -150.5370
26.307704 85.732 -150.8587
26.498341 85.739 -151.1752
26.690359 85.745 -151.4870
26.883768 85.752 -151.7948
27.078579 85.760 -152.0993
27.274801 85.767 -152.4016
27.472446 85.775 -152.7023
27.671522 85.784 -153.0021
27.872042 85.793 -153.3018
28.074014 85.802 -153.6018
28.277450 85.811 -153.9023
28.482360 85.820 -154.2033
28.688755 85.829 -154.5047
28.896645 85.837 -154.8059
29.106042 85.846 -155.1062
29.316957 85.854 -155.4051
29.529400 85.861 -155.7021
29.743382 85.869 -155.9973
29.958915 85.876 -156.2912
30.176009 85.883 -156.5844
30.394677 85.890 -156.8779
30.614929 85.896 -157.1718
30.836778 85.901 -157.4656
31.060234 85.905 -157.7571
31.285309 85.907 -158.0431
31.512015 85.907 -158.3193
31.740364 85.906 -158.5815
31.970368 85.905 -158.8267
32.202039 85.905 -159.0543
32.435388 85.906 -159.2669
32.670428 85.910 -159.4708
32.907171 85.918 -159.6748
33.145630 85.928 -159.8889
33.385817 85.941 -160.1221
33.627745 85.955 -160.3808
33.871425 85.967 -160.6668
34.116871 85.977 -160.9769
34.364096 85.984 -161.3040
34.613113 85.986 -161.6386
34.863934 85.983 -161.9707
35.116572 85.977 -162.2920
35.371041 85.969 -162.5976
35.627354 85.959 -162.8861
35.885525 85.950 -163.1597
36.145566 85.941 -163.4224
36.407492 85.933 -163.6787
36.671316 85.927 -163.9325
36.937051 85.920 -164.1859
37.204712 85.915 -164.4397
37.474313 85.910 -164.6938
37.745867 85.905 -164.9483
38.019389 85.901 -165.2039
38.294893 85.898 -165.4619
38.572394 85.895 -165.7240
38.851905 85.892 -165.9909
39.133442 85.888 -166.2617
39.417019 85.884 -166.5332
39.702651 85.879 -166.8007
39.990353 85.872 -167.0591
40.280140 85.866 -167.3047
40.572026 85.860 -167.5376
40.866028 85.857 -167.7622
41.162160 85.856 -167.9866
41.460438 85.857 -168.2206
41.760877 85.858 -168.4712
42.063494 85.859 -168.7401
42.368303 85.856 -169.0215
42.675322 85.848 -169.3029
42.984565 85.836 -169.5697
43.296048 85.821 -169.8102
43.609789 85.806 -170.0201
43.925804 85.792 -170.2053
44.244108 85.782 -170.3785
44.564719 85.774 -170.5542
44.887654 85.767 -170.7414
45.212928 85.760 -170.9400
45.540560 85.750 -171.1408
45.870565 85.739 -171.3313
46.202962 85.727 -171.5020
46.537768 85.717 -171.6524
46.875000 85.711 -171.7920
47.214676 85.710 -171.9364
47.556813 85.713 -172.1011
47.901429 85.719 -172.2951
48.248542 85.724 -172.5192
48.598171 85.727 -172.7670
48.950334 85.727 -173.0289
49.305048 85.725 -173.2955
49.662333 85.720 -173.5591
50.022206 85.714 -173.8141
50.384688 85.706 -174.0571
50.749796 85.697 -174.2867
51.117550 85.689 -174.5040
51.487969 85.682 -174.7124
51.861072 85.675 -174.9165
52.236879 85.669 -175.1204
52.615409 85.664 -175.3266
52.996681 85.658 -175.5360
53.380717 85.652 -175.7487
53.767536 85.645 -175.9646
54.157158 85.636 -176.1832
54.549603 85.626 -176.4021
54.944892 85.614 -176.6174
55.343045 85.601 -176.8249
55.744084 85.587 -177.0230
56.148028 85.574 -177.2146
56.554900 85.562 -177.4054
56.964720 85.550 -177.6014
57.377510 85.538 -177.8049
57.793291 85.525 -178.0128
58.212085 85.511 -178.2192
58.633914 85.497 -178.4185
59.058799 85.483 -178.6097
59.486764 85.471 -178.7967
59.917829 85.460 -178.9864
60.352019 85.451 -179.1852
60.789354 85.441 -179.3953
61.229859 85.431 -179.6145
61.673556 85.419 -179.8368
62.120468 85.406 179.9445
62.570618 85.391 179.7349
63.024031 85.376 179.5368
63.480729 85.362 179.3503
63.940736 85.348 179.1731
64.404077 85.334 179.0015
64.870776 85.322 178.8322
65.340856 85.310 178.6627
65.814343 85.298 178.4927
66.291261 85.285 178.3225
66.771635 85.273 178.1527
67.255489 85.259 177.9827
67.742850 85.245 177.8123
68.233743 85.231 177.6420
68.728193 85.215 177.4737
69.226226 85.199 177.3087
69.727867 85.182 177.1464
70.233144 85.165 176.9844
70.742083 85.149 176.8205
71.254709 85.132 176.6538
71.771050 85.116 176.4852
72.291132 85.098 176.3159
72.814984 85.081 176.1468
73.342631 85.063 175.9788
73.874102 85.045 175.8132
74.409424 85.026 175.6520
74.948626 85.007 175.4977
75.491734 84.989 175.3517
76.038779 84.970 175.2138
76.589787 84.952 175.0826
77.144788 84.934 174.9557
77.703811 84.916 174.8314
78.266885 84.899 174.7087
78.834039 84.881 174.5878
79.405303 84.862 174.4700
79.980706 84.844 174.3560
80.560280 84.825 174.2443
81.144053 84.807 174.1319
81.732056 84.789 174.0162
82.324320 84.770 173.8968
82.920876 84.751 173.7751
83.521755 84.732 173.6523
84.126988 84.712 173.5281
84.736607 84.693 173.4017
85.350643 84.672 173.2733
85.969129 84.651 173.1439
86.592097 84.630 173.0146
87.219579 84.608 172.8855
87.851608 84.586 172.7555
88.488217 84.564 172.6237
89.129439 84.542 172.4896
89.775308 84.519 172.3530
90.425856 84.497 172.2141
91.081119 84.475 172.0735
91.741131 84.453 171.9321
92.405925 84.431 171.7910
93.075536 84.409 171.6519
93.750000 84.388 171.5171
94.429351 84.366 171.3882
95.113625 84.345 171.2658
95.802858 84.325 171.1491
96.497085 84.304 171.0374
97.196342 84.284 170.9301
97.900667 84.264 170.8271
98.610096 84.244 170.7281
99.324665 84.224 170.6317
100.044413 84.204 170.5363
100.769376 84.183 170.4403
101.499592 84.162 170.3430
102.235100 84.140 170.2458
102.975938 84.117 170.1512
103.722144 84.093 170.0616
104.473757 84.068 169.9775
105.230817 84.043 169.8975
105.993363 84.018 169.8197
106.761435 83.993 169.7428
107.535072 83.968 169.6663
108.314315 83.943 169.5897
109.099206 83.918 169.5131
109.889783 83.894 169.4357
110.686090 83.869 169.3572
111.488167 83.845 169.2780
112.296056 83.821 169.2000
113.109800 83.796 169.1255
113.929440 83.771 169.0565
114.755020 83.746 168.9933
115.586582 83.721 168.9359
116.424170 83.695 168.8842
117.267827 83.669 168.8376
118.117598 83.643 168.7950
118.973527 83.617 168.7539
119.835658 83.592 168.7105
120.704037 83.567 168.6616
121.578708 83.542 168.6084
122.459718 83.517 168.5559
123.347111 83.491 168.5078
124.240935 83.466 168.4644
125.141236 83.441 168.4250
126.048061 83.417 168.3886
126.961458 83.393 168.3542
127.881473 83.370 168.3198
128.808154 83.347 168.2828
129.741551 83.324 168.2421
130.681712 83.301 168.1981
131.628686 83.277 168.1507
132.582521 83.252 168.0979
133.543269 83.225 168.0391
134.510979 83.197 167.9787
135.485701 83.167 167.9235
136.467486 83.136 167.8779
137.456386 83.106 167.8422
138.452451 83.077 167.8141
139.455735 83.049 167.7910
140.466288 83.021 167.7710
141.484165 82.992 167.7554
142.509418 82.963 167.7469
143.542100 82.934 167.7455
144.582265 82.905 167.7486
145.629968 82.876 167.7527
146.685262 82.847 167.7560
147.748204 82.818 167.7584
148.818849 82.788 167.7601
149.897251 82.759 167.7618
150.983469 82.728 167.7639
152.077557 82.697 167.7675
153.179574 82.664 167.7736
154.289576 82.631 167.7831
155.407622 82.597 167.7975
156.533770 82.563 167.8192
157.668078 82.528 167.8517
158.810606 82.492 167.8990
159.961413 82.456 167.9638
161.120559 82.419 168.0468
162.288105 82.383 168.1478
163.464112 82.347 168.2675
164.648640 82.312 168.4067
165.841752 82.279 168.5654
167.043510 82.249 168.7422
168.253976 82.223 168.9351
169.473213 82.202 169.1423
170.701286 82.186 169.3608
171.938258 82.177 169.5822
173.184194 82.176 169.7914
174.439158 82.181 169.9721
175.703216 82.192 170.1133
176.976434 82.205 170.2106
178.258878 82.218 170.2651
179.550615 82.228 170.2814
180.851713 82.234 170.2658
182.162239 82.235 170.2251
183.482262 82.231 170.1663
184.811850 82.223 170.0967
186.151073 82.211 170.0239
187.500000 82.196 169.9540
188.858702 82.178 169.8912
190.227250 82.158 169.8373
191.605715 82.137 169.7919
192.994169 82.114 169.7534
194.392685 82.089 169.7214
195.801334 82.064 169.6978
197.220191 82.039 169.6856
198.649330 82.012 169.6868
200.088825 81.985 169.7017
201.538751 81.958 169.7279
202.999184 81.932 169.7612
204.470200 81.905 169.7971
205.951875 81.879 169.8336
207.444287 81.854 169.8716
208.947514 81.829 169.9125
210.461634 81.804 169.9576
211.986726 81.780 170.0066
213.522869 81.754 170.0591
215.070144 81.729 170.1143
216.628631 81.704 170.1716
218.198411 81.678 170.2317
219.779567 81.653 170.2955
221.372180 81.627 170.3636
222.976334 81.601 170.4355
224.592112 81.574 170.5101
226.219600 81.548 170.5864
227.858880 81.523 170.6652
229.510039 81.498 170.7482
231.173164 81.475 170.8376
232.848340 81.452 170.9333
234.535655 81.430 171.0325
236.235197 81.407 171.1314
237.947054 81.385 171.2278
239.671317 81.362 171.3233
241.408074 81.338 171.4221
243.157416 81.315 171.5285
244.919435 81.291 171.6441
246.694223 81.267 171.7687
248.481871 81.242 171.8999
250.282473 81.218 172.0341
252.096123 81.193 172.1689
253.922915 81.170 172.3054
255.762945 81.148 172.4482
257.616309 81.128 172.6037
259.483103 81.110 172.7761
261.363424 81.094 172.9631
263.257372 81.080 173.1556
265.165043 81.067 173.3413
267.086538 81.056 173.5121
269.021957 81.045 173.6664
270.971401 81.035 173.8088
272.934972 81.026 173.9467
274.912771 81.016 174.0843
276.904902 81.006 174.2181
278.911469 80.996 174.3408
280.932577 80.985 174.4491
282.968330 80.973 174.5466
285.018835 80.960 174.6404
287.084199 80.946 174.7352
289.164530 80.930 174.8321
291.259935 80.913 174.9306
293.370525 80.896 175.0305
295.496408 80.879 175.1322
297.637697 80.862 175.2368
299.794503 80.845 175.3454
301.966937 80.828 175.4595
304.155114 80.811 175.5800
306.359147 80.794 175.7068
308.579152 80.776 175.8383
310.815244 80.759 175.9733
313.067539 80.742 176.1116
315.336156 80.725 176.2540
317.621211 80.708 176.4006
319.922826 80.691 176.5507
322.241118 80.675 176.7021
324.576210 80.660 176.8531
326.928223 80.644 177.0035
329.297280 80.629 177.1541
331.683504 80.614 177.3058
334.087019 80.599 177.4595
336.507952 80.585 177.6155
338.946427 80.570 177.7737
341.402572 80.556 177.9338
343.876516 80.541 178.0952
346.368387 80.527 178.2578
348.878315 80.512 178.4219
351.406431 80.498 178.5879
353.952867 80.485 178.7560
356.517756 80.471 178.9263
359.101230 80.458 179.0986
361.703426 80.445 179.2723
364.324478 80.432 179.4474
366.964523 80.419 179.6235
369.623699 80.407 179.8006
372.302145 80.394 179.9790
375.000000 80.381 -179.8409
377.717405 80.369 -179.6584
380.454501 80.357 -179.4736
383.211431 80.345 -179.2865
385.988339 80.333 -179.0975
388.785369 80.322 -178.9067
391.602668 80.310 -178.7141
394.440383 80.299 -178.5195
397.298660 80.288 -178.3230
400.177650 80.277 -178.1248
403.077502 80.267 -177.9250
405.998368 80.256 -177.7236
408.940400 80.246 -177.5207
411.903750 80.236 -177.3164
414.888575 80.226 -177.1108
417.895028 80.217 -176.9042
420.923268 80.208 -176.6970
423.973452 80.199 -176.4896
427.045738 80.190 -176.2817
430.140287 80.182 -176.0726
433.257261 80.174 -175.8622
436.396822 80.167 -175.6506
439.559133 80.159 -175.4376
442.744360 80.151 -175.2227
445.952668 80.144 -175.0053
449.184225 80.136 -174.7852
452.439199 80.129 -174.5627
455.717760 80.122 -174.3385
459.020079 80.115 -174.1130
462.346327 80.109 -173.8866
465.696680 80.102 -173.6591
469.071310 80.096 -173.4300
472.470394 80.091 -173.1992
475.894109 80.085 -172.9663
479.342634 80.080 -172.7316
482.816148 80.075 -172.4951
486.314833 80.071 -172.2572
489.838871 80.066 -172.0180
493.388445 80.062 -171.7772
496.963741 80.058 -171.5345
500.564945 80.054 -171.2893
504.192245 80.051 -171.0414
507.845830 80.048 -170.7908
511.525890 80.045 -170.5380
515.232618 80.042 -170.2840
518.966206 80.040 -170.0293
522.726849 80.038 -169.7739
526.514743 80.036 -169.5173
530.330086 80.035 -169.2589
534.173076 80.034 -168.9981
538.043915 80.033 -168.7348
541.942803 80.033 -168.4688
545.869944 80.033 -168.2001
549.825542 80.033 -167.9290
553.809805 80.033 -167.6559
557.822939 80.034 -167.3809
561.865154 80.035 -167.1043
565.936660 80.037 -166.8260
570.037671 80.038 -166.5457
574.168399 80.040 -166.2634
578.329060 80.043 -165.9789
582.519870 80.045 -165.6918
586.741049 80.048 -165.4019
590.992817 80.052 -165.1089
595.275394 80.055 -164.8131
599.589005 80.060 -164.5149
603.933874 80.064 -164.2147
608.310228 80.069 -163.9127
612.718295 80.075 -163.6087
617.158304 80.080 -163.3022
621.630488 80.086 -162.9928
626.135079 80.092 -162.6803
630.672311 80.099 -162.3646
635.242423 80.105 -162.0458
639.845651 80.112 -161.7235
644.482237 80.120 -161.3971
649.152421 80.127 -161.0660
653.856447 80.135 -160.7294
658.594560 80.144 -160.3868
663.367008 80.152 -160.0371
668.174039 80.162 -159.6785
673.015903 80.171 -159.3088
677.892854 80.181 -158.9250
682.805145 80.192 -158.5241
687.753032 80.205 -158.1029
692.736774 80.221 -157.6593
697.756631 80.240 -157.1924
702.812863 80.266 -156.7057
707.905735 80.299 -156.2084
713.035511 80.342 -155.7186
718.202461 80.393 -155.2628
723.406852 80.452 -154.8705
728.648956 80.514 -154.5640
733.929047 80.573 -154.3460
739.247399 80.624 -154.1964
744.604290 80.666 -154.0800
750.000000 80.697 -153.9616
755.434809 80.721 -153.8160
760.909001 80.740 -153.6317
766.422861 80.757 -153.4074
771.976677 80.774 -153.1483
777.570739 80.793 -152.8615
783.205337 80.813 -152.5546
788.880766 80.837 -152.2342
794.597321 80.863 -151.9062
800.355301 80.891 -151.5753
806.155005 80.922 -151.2450
811.996736 80.954 -150.9185
817.880799 80.989 -150.5979
823.807501 81.025 -150.2855
829.777150 81.061 -149.9830
835.790057 81.098 -149.6913
841.846536 81.135 -149.4102
847.946903 81.171 -149.1381
854.091476 81.205 -148.8714
860.280575 81.236 -148.6050
866.514523 81.266 -148.3321
872.793644 81.294 -148.0453
879.118267 81.320 -147.7376
885.488720 81.347 -147.4043
891.905336 81.374 -147.0434
898.368450 81.404 -146.6566
904.878398 81.438 -146.2486
911.435520 81.475 -145.8260
918.040157 81.517 -145.3958
924.692655 81.563 -144.9644
931.393359 81.613 -144.5372
938.142619 81.668 -144.1181
944.940787 81.725 -143.7095
951.788218 81.785 -143.3132
958.685268 81.847 -142.9298
965.632296 81.912 -142.5597
972.629666 81.978 -142.2029
979.677741 82.046 -141.8587
986.776890 82.116 -141.5263
993.927482 82.187 -141.2052
1001.129891 82.258 -140.8950
1008.384491 82.332 -140.5959
1015.691660 82.406 -140.3079
1023.051781 82.481 -140.0311
1030.465236 82.557 -139.7657
1037.932411 82.633 -139.5115
1045.453698 82.711 -139.2684
1053.029486 82.789 -139.0362
1060.660172 82.868 -138.8147
1068.346153 82.947 -138.6037
1076.087829 83.026 -138.4032
1083.885605 83.106 -138.2133
1091.739887 83.187 -138.0339
1099.651084 83.267 -137.8651
1107.619609 83.348 -137.7067
1115.645878 83.429 -137.5583
1123.730308 83.510 -137.4195
1131.873321 83.591 -137.2898
1140.075341 83.672 -137.1687
1148.336797 83.753 -137.0558
1156.658119 83.834 -136.9510
1165.039741 83.915 -136.8544
1173.482099 83.996 -136.7658
1181.985634 84.076 -136.6851
1190.550789 84.157 -136.6119
1199.178011 84.237 -136.5460
1207.867749 84.317 -136.4867
1216.620457 84.397 -136.4334
1225.436590 84.477 -136.3856
1234.316609 84.556 -136.3430
1243.260976 84.636 -136.3056
1252.270157 84.715 -136.2733
1261.344623 84.794 -136.2459
1270.484846 84.873 -136.2234
1279.691303 84.952 -136.2053
1288.964474 85.030 -136.1912
1298.304842 85.109 -136.1808
1307.712894 85.188 -136.1738
1317.189120 85.266 -136.1703
1326.734016 85.345 -136.1704
1336.348077 85.423 -136.1740
1346.031806 85.502 -136.1811
1355.785708 85.581 -136.1916
1365.610290 85.660 -136.2055
1375.506065 85.739 -136.2226
1385.473549 85.819 -136.2426
1395.513261 85.899 -136.2655
1405.625726 85.979 -136.2915
1415.811469 86.060 -136.3207
1426.071023 86.141 -136.3537
1436.404921 86.222 -136.3905
1446.813703 86.304 -136.4314
1457.297912 86.387 -136.4766
1467.858093 86.470 -136.5261
1478.494798 86.554 -136.5801
1489.208581 86.639 -136.6390
1500.000000 86.724 -136.7030
1510.869618 86.810 -136.7726
1521.818002 86.897 -136.8480
1532.845723 86.984 -136.9295
1543.953355 87.072 -137.0173
1555.141477 87.161 -137.1117
1566.410674 87.251 -137.2132
1577.761531 87.342 -137.3220
1589.194642 87.434 -137.4388
1600.710601 87.526 -137.5642
1612.310010 87.620 -137.6988
1623.993473 87.714 -137.8431
1635.761599 87.809 -137.9974
1647.615002 87.905 -138.1623
1659.554299 88.002 -138.3380
1671.580114 88.100 -138.5253
1683.693072 88.199 -138.7247
1695.893807 88.298 -138.9369
1708.182952 88.399 -139.1626
1720.561150 88.500 -139.4021
1733.029045 88.602 -139.6562
1745.587288 88.705 -139.9255
1758.236533 88.808 -140.2108
1770.977440 88.912 -140.5127
1783.810673 89.016 -140.8320
1796.736900 89.121 -141.1694
1809.756796 89.226 -141.5255
1822.871040 89.332 -141.9010
1836.080315 89.438 -142.2965
1849.385310 89.544 -142.7127
1862.786718 89.650 -143.1502
1876.285239 89.756 -143.6096
1889.881575 89.862 -144.0916
1903.576436 89.967 -144.5966
1917.370535 90.071 -145.1251
1931.264593 90.174 -145.6777
1945.259332 90.277 -146.2548
1959.355483 90.378 -146.8569
1973.553781 90.478 -147.4844
1987.854965 90.576 -148.1376
2002.259781 90.672 -148.8168
2016.768981 90.767 -149.5218
2031.383320 90.859 -150.2527
2046.103561 90.949 -151.0092
2060.930471 91.036 -151.7913
2075.864823 91.119 -152.5985
2090.907395 91.200 -153.4306
2106.058972 91.277 -154.2870
2121.320344 91.350 -155.1667
2136.692305 91.419 -156.0687
2152.175658 91.484 -156.9918
2167.771210 91.543 -157.9345
2183.479774 91.598 -158.8954
2199.302169 91.648 -159.8726
2215.239219 91.693 -160.8645
2231.291755 91.732 -161.8690
2247.460615 91.765 -162.8841
2263.746641 91.793 -163.9077
2280.150683 91.815 -164.9375
2296.673595 91.830 -165.9710
2313.316238 91.840 -167.0058
2330.079481 91.844 -168.0393
2346.964198 91.841 -169.0689
2363.971268 91.832 -170.0922
2381.101578 91.818 -171.1069
2398.356022 91.798 -172.1108
2415.735498 91.772 -173.1019
2433.240913 91.741 -174.0783
2450.873180 91.704 -175.0380
2468.633217 91.663 -175.9794
2486.521951 91.616 -176.9006
2504.540314 91.565 -177.8000
2522.689246 91.509 -178.6761
2540.969692 91.449 -179.5274
2559.382606 91.385 179.6475
2577.928947 91.317 178.8498
2596.609683 91.246 178.0803
2615.425787 91.172 177.3400
2634.378241 91.095 176.6293
2653.468031 91.015 175.9488
2672.696154 90.933 175.2986
2692.063613 90.849 174.6788
2711.571415 90.764 174.0897
2731.220579 90.676 173.5309
2751.012130 90.588 173.0025
2770.947098 90.499 172.5042
2791.026522 90.409 172.0356
2811.251451 90.319 171.5962
2831.622938 90.228 171.1855
2852.142045 90.138 170.8032
2872.809842 90.048 170.4484
2893.627406 89.958 170.1204
2914.595823 89.869 169.8187
2935.716186 89.780 169.5426
2956.989596 89.692 169.2913
2978.417161 89.606 169.0642
3000.000000 89.520 168.8604
3021.739237 89.436 168.6788
3043.636005 89.353 168.5187
3065.691446 89.272 168.3792
3087.906710 89.193 168.2592
3110.282955 89.115 168.1583
3132.821347 89.039 168.0757
3155.523062 88.965 168.0106
3178.389283 88.892 167.9625
3201.421202 88.822 167.9306
3224.620020 88.754 167.9144
3247.986946 88.689 167.9131
3271.523198 88.625 167.9261
3295.230004 88.564 167.9526
3319.108599 88.506 167.9917
3343.160228 88.450 168.0425
3367.386145 88.397 168.1043
3391.787613 88.346 168.1760
3416.365904 88.299 168.2571
3441.122300 88.254 168.3469
3466.058091 88.211 168.4450
3491.174576 88.172 168.5510
3516.473066 88.136 168.6646
3541.954880 88.104 168.7851
3567.621345 88.075 168.9119
3593.473800 88.050 169.0439
3619.513592 88.030 169.1792
3645.742080 88.014 169.3152
3672.160630 88.003 169.4483
3698.770620 87.998 169.5740
3725.573436 87.997 169.6869
3752.570477 88.002 169.7808
3779.763150 88.012 169.8494
3807.152872 88.026 169.8871
3834.741071 88.043 169.8898
3862.529185 88.062 169.8557
3890.518664 88.082 169.7850
3918.710966 88.102 169.6804
3947.107561 88.122 169.5457
3975.709929 88.141 169.3855
4004.519563 88.159 169.2041
4033.537962 88.176 169.0047
4062.766641 88.193 168.7893
4092.207123 88.209 168.5590
4121.860942 88.226 168.3136
4151.729646 88.243 168.0520
4181.814790 88.262 167.7721
4212.117944 88.281 167.4708
4242.640687 88.301 167.1445
4273.384610 88.321 166.7893
4304.351317 88.343 166.4014
4335.542421 88.365 165.9771
4366.959549 88.386 165.5133
4398.604338 88.406 165.0073
4430.478438 88.425 164.4572
4462.583511 88.441 163.8615
4494.921231 88.453 163.2199
4527.493283 88.461 162.5327
4560.301365 88.464 161.8011
4593.347189 88.461 161.0272
4626.632476 88.452 160.2139
4660.158962 88.434 159.3648
4693.928395 88.408 158.4842
4727.942535 88.374 157.5767
4762.203156 88.330 156.6477
4796.712043 88.276 155.7028
4831.470996 88.211 154.7482
4866.481826 88.137 153.7899
4901.746360 88.052 152.8332
4937.266434 87.956 151.8828
4973.043902 87.850 150.9441
5009.080628 87.733 150.0229
5045.378492 87.605 149.1262
5081.939384 87.466 148.2609
5118.765212 87.317 147.4350
5155.857894 87.157 146.6562
5193.219366 86.988 145.9328
5230.851574 86.809 145.2735
5268.756481 86.621 144.6878
5306.936062 86.425 144.1863
5345.392309 86.224 143.7804
5384.127225 86.018 143.4808
5423.142830 85.813 143.2943
5462.441159 85.611 143.2191
5502.024259 85.418 143.2389
5541.894195 85.237 143.3200
5582.053045 85.070 143.4172
5622.502902 84.913 143.4880
5663.245876 84.761 143.5114
5704.284090 84.606 143.4938
5745.619684 84.444 143.4631
5787.254813 84.273 143.4535
5829.191647 84.094 143.4942
5871.432373 83.909 143.6044
5913.979192 83.721 143.7934
5956.834323 83.531 144.0634
6000.000000 83.342 144.4120
6043.478473 83.157 144.8347
6087.272010 82.975 145.3261
6131.382892 82.797 145.8815
6175.813420 82.625 146.4968
6220.565910 82.459 147.1686
6265.642695 82.300 147.8940
6311.046124 82.147 148.6700
6356.778566 82.002 149.4932
6402.842404 81.865 150.3604
6449.240040 81.736 151.2683
6495.973891 81.617 152.2131
6543.046396 81.506 153.1905
6590.460007 81.406 154.1958
6638.217197 81.316 155.2242
6686.320456 81.235 156.2715
6734.772290 81.166 157.3342
6783.575226 81.106 158.4105
6832.731809 81.056 159.4991
6882.244600 81.018 160.5991
6932.116181 80.990 161.7089
6982.349153 80.974 162.8261
7032.946133 80.971 163.9476
7083.909760 80.981 165.0692
7135.242690 81.004 166.1851
7186.947600 81.042 167.2887
7239.027185 81.095 168.3724
7291.484160 81.164 169.4286
7344.321260 81.249 170.4494
7397.541239 81.351 171.4263
7451.146872 81.470 172.3494
7505.140954 81.606 173.2070
7559.526299 81.762 173.9854
7614.305743 81.936 174.6687
7669.482141 82.129 175.2386
7725.058371 82.342 175.6746
7781.037328 82.573 175.9537
7837.421932 82.822 176.0506
7894.215122 83.087 175.9381
7951.419859 83.365 175.5875
8009.039125 83.654 174.9688
8067.075924 83.948 174.0522
8125.533282 84.243 172.8107
8184.414245 84.529 171.2224
8243.721885 84.799 169.2737
8303.459292 85.043 166.9624
8363.629581 85.251 164.2997
8424.235888 85.410 161.3118
8485.281374 85.513 158.0412
8546.769221 85.548 154.5455
8608.702634 85.510 150.8965
8671.084842 85.392 147.1767
8733.919097 85.194 143.4750
8797.208675 84.914 139.8817
8860.956876 84.558 136.4824
8925.167022 84.130 133.3535
8989.842461 83.641 130.5579
9054.986566 83.099 128.1423
9120.602731 82.515 126.1366
9186.694378 81.900 124.5545
9253.264952 81.264 123.3949
9320.317925 80.618 122.6449
9387.856790 79.968 122.2828
9455.885071 79.322 122.2811
9524.406312 78.684 122.6097
9593.424086 78.059 123.2380
9662.941992 77.448 124.1363
9732.963653 76.855 125.2777
9803.492719 76.279 126.6376
9874.532869 75.723 128.1940
9946.087805 75.185 129.9274
10018.161257 74.666 131.8209
10090.756983 74.166 133.8610
10163.878768 73.684 136.0367
10237.530423 73.219 138.3403
10311.715789 72.771 140.7659
10386.438732 72.339 143.3106
10461.703149 71.921 145.9747
10537.512962 71.518 148.7610
10613.872125 71.130 151.6762
10690.784618 70.755 154.7303
10768.254450 70.395 157.9383
10846.285661 70.050 161.3195
10924.882318 69.723 164.8983
11004.048518 69.417 168.7023
11083.788390 69.139 172.7594
11164.106090 68.897 177.0917
11245.005805 68.702 -178.2945
11326.491752 68.566 -173.4213
11408.568180 68.502 -168.3528
11491.239368 68.522 -163.2045
11574.509626 68.629 -158.1384
11658.383294 68.822 -153.3405
11742.864745 69.087 -148.9828
11827.958384 69.403 -145.1863
11913.668646 69.748 -141.9993
12000.000000 70.097 -139.3953
12086.956947 70.433 -137.2894
12174.544019 70.741 -135.5621
12262.765784 71.016 -134.0835
12351.626840 71.259 -132.7323
12441.131819 71.473 -131.4071
12531.285389 71.667 -130.0321
12622.092249 71.850 -128.5577
12713.557132 72.031 -126.9572
12805.684808 72.220 -125.2225
12898.480079 72.427 -123.3593
12991.947783 72.661 -121.3843
13086.092792 72.930 -119.3227
13180.920015 73.243 -117.2075
13276.434395 73.609 -115.0791
13372.640911 74.035 -112.9873
13469.544580 74.530 -110.9934
13567.150452 75.103 -109.1735
13665.463617 75.760 -107.6218
13764.489200 76.503 -106.4535
13864.232362 77.330 -105.8040
13964.698305 78.231 -105.8239
14065.892266 79.187 -106.6693
14167.819519 80.168 -108.4866
14270.485380 81.138 -111.3942
14373.895200 82.052 -115.4618
14478.054370 82.862 -120.6882
14582.968320 83.520 -126.9799
14688.642520 83.979 -134.1352
14795.082478 84.207 -141.8443
14902.293745 84.185 -149.7170
15010.281908 83.916 -157.3368
15119.052599 83.422 -164.3287
15228.611486 82.740 -170.4059
15338.964283 81.918 -175.3874
15450.116741 81.002 -179.1915
15562.074656 80.042 178.1781
15674.843864 79.080 176.6496
15788.430244 78.153 176.1016
15902.839718 77.292 176.3810
16018.078250 76.514 177.3211
16134.151848 75.833 178.7559
16251.066563 75.251 -179.4680
16368.828491 74.767 -177.4850
16487.443769 74.375 -175.4100
16606.918584 74.068 -173.3424
16727.259161 73.839 -171.3721
16848.471777 73.680 -169.5854
16970.562748 73.583 -168.0680
17093.538442 73.538 -166.9052
17217.405268 73.533 -166.1785
17342.169684 73.553 -165.9594
17467.838194 73.579 -166.3020
17594.417350 73.589 -167.2317
17721.913751 73.556 -168.7310
17850.334044 73.449 -170.7209
17979.684923 73.242 -173.0425
18109.973131 72.912 -175.4552
18241.205462 72.460 -177.6899
18373.388756 71.907 -179.5766
18506.529905 71.286 178.8599
18640.635849 70.615 177.5013
18775.713581 69.892 176.2940
18911.770141 69.104 175.3097
19048.812624 68.239 174.7231
19186.848172 67.301 174.7396
19325.883983 66.310 175.4883
19465.927305 65.304 176.9448
19606.985439 64.339 178.9162
19749.065738 63.487 -178.9490
19892.175609 62.837 -177.1102
20036.322514 62.481 -176.0339
