* Measurement data measured by REW V5.31.3
* Source: Headset (2- CX31993 HIFI AUDIO), MICROPHONE (Master Volume), R, volume: 0.250
* Format: 256k Log Swept Sine, 1 sweep at -12.0 dBFS with no timing reference
* Dated: 12 17, 24 9:19:21 AM
* REW Settings:
*  C-weighting compensation: Off
*  Target level: 75.0 dB
* Note: ; 
* Measurement: Moondrop Blessing 2 S2 R
* Smoothing: 1/12 octave
* Frequency Step: 96 ppo
* Start Frequency: 0.36621094 Hz
*
* Freq(Hz) SPL(dB) Phase(degrees)
0.366211 36.502 -73.7298
0.368865 36.530 -73.8776
0.371538 36.571 -74.0964
0.374230 36.622 -74.3662
0.376942 36.679 -74.6703
0.379673 36.740 -74.9962
0.382424 36.803 -75.3358
0.385196 36.868 -75.6840
0.387987 36.934 -76.0379
0.390798 37.001 -76.3958
0.393630 37.069 -76.7568
0.396483 37.137 -77.1204
0.399356 37.206 -77.4863
0.402250 37.275 -77.8543
0.405165 37.345 -78.2244
0.408101 37.415 -78.5964
0.411058 37.486 -78.9702
0.414037 37.557 -79.3459
0.417037 37.629 -79.7233
0.420059 37.701 -80.1023
0.423103 37.774 -80.4830
0.426169 37.847 -80.8653
0.429257 37.921 -81.2491
0.432368 37.996 -81.6344
0.435501 38.071 -82.0212
0.438656 38.146 -82.4093
0.441835 38.222 -82.7987
0.445037 38.299 -83.1895
0.448262 38.376 -83.5816
0.451510 38.454 -83.9748
0.454782 38.532 -84.3693
0.458077 38.611 -84.7649
0.461397 38.690 -85.1617
0.464740 38.771 -85.5596
0.468108 38.851 -85.9585
0.471500 38.932 -86.3586
0.474917 39.014 -86.7597
0.478358 39.096 -87.1618
0.481825 39.179 -87.5650
0.485316 39.263 -87.9692
0.488833 39.347 -88.3743
0.492375 39.432 -88.7805
0.495943 39.517 -89.1877
0.499537 39.603 -89.5960
0.503157 39.690 -90.0052
0.506803 39.777 -90.4154
0.510475 39.865 -90.8267
0.514175 39.954 -91.2390
0.517900 40.043 -91.6524
0.521653 40.133 -92.0669
0.525434 40.223 -92.4825
0.529241 40.314 -92.8993
0.533076 40.406 -93.3171
0.536939 40.498 -93.7362
0.540830 40.592 -94.1565
0.544749 40.685 -94.5781
0.548696 40.780 -95.0010
0.552673 40.875 -95.4251
0.556677 40.971 -95.8507
0.560711 41.068 -96.2777
0.564774 41.165 -96.7062
0.568867 41.263 -97.1362
0.572989 41.361 -97.5678
0.577141 41.461 -98.0009
0.581324 41.561 -98.4358
0.585536 41.662 -98.8724
0.589779 41.763 -99.3108
0.594053 41.866 -99.7510
0.598358 41.969 -100.1931
0.602694 42.073 -100.6372
0.607061 42.177 -101.0833
0.611460 42.282 -101.5315
0.615891 42.388 -101.9819
0.620354 42.495 -102.4345
0.624849 42.603 -102.8893
0.629377 42.711 -103.3465
0.633938 42.821 -103.8061
0.638532 42.931 -104.2682
0.643159 43.041 -104.7328
0.647819 43.153 -105.2001
0.652514 43.265 -105.6700
0.657242 43.378 -106.1426
0.662005 43.493 -106.6181
0.666802 43.607 -107.0964
0.671634 43.723 -107.5776
0.676501 43.840 -108.0619
0.681403 43.957 -108.5491
0.686341 44.075 -109.0395
0.691314 44.194 -109.5330
0.696324 44.314 -110.0296
0.701370 44.435 -110.5293
0.706452 44.556 -111.0321
0.711571 44.678 -111.5376
0.716728 44.801 -112.0456
0.721921 44.924 -112.5553
0.727153 45.047 -113.0658
0.732422 45.170 -113.5758
0.737729 45.293 -114.0837
0.743075 45.416 -114.5879
0.748460 45.539 -115.0872
0.753883 45.662 -115.5807
0.759346 45.786 -116.0680
0.764849 45.911 -116.5487
0.770391 46.036 -117.0228
0.775974 46.163 -117.4903
0.781597 46.290 -117.9515
0.787261 46.418 -118.4064
0.792966 46.546 -118.8553
0.798712 46.676 -119.2984
0.804500 46.806 -119.7360
0.810329 46.937 -120.1683
0.816201 47.069 -120.5955
0.822116 47.202 -121.0179
0.828073 47.336 -121.4359
0.834074 47.470 -121.8496
0.840118 47.605 -122.2594
0.846206 47.741 -122.6655
0.852338 47.877 -123.0682
0.858514 48.014 -123.4678
0.864735 48.152 -123.8646
0.871001 48.291 -124.2588
0.877313 48.430 -124.6509
0.883670 48.570 -125.0409
0.890074 48.711 -125.4294
0.896524 48.852 -125.8164
0.903020 48.994 -126.2023
0.909564 49.136 -126.5875
0.916155 49.280 -126.9721
0.922794 49.423 -127.3565
0.929481 49.567 -127.7409
0.936216 49.712 -128.1256
0.943000 49.857 -128.5109
0.949834 50.003 -128.8971
0.956717 50.149 -129.2845
0.963649 50.295 -129.6732
0.970632 50.442 -130.0636
0.977666 50.589 -130.4560
0.984750 50.737 -130.8506
0.991886 50.885 -131.2476
0.999074 51.033 -131.6474
1.006314 51.181 -132.0501
1.013606 51.330 -132.4561
1.020951 51.479 -132.8656
1.028349 51.628 -133.2788
1.035801 51.777 -133.6959
1.043307 51.926 -134.1172
1.050867 52.075 -134.5428
1.058482 52.224 -134.9729
1.066152 52.373 -135.4075
1.073878 52.522 -135.8465
1.081660 52.671 -136.2895
1.089498 52.819 -136.7359
1.097393 52.968 -137.1848
1.105345 53.117 -137.6350
1.113355 53.265 -138.0854
1.121423 53.413 -138.5347
1.129549 53.562 -138.9824
1.137734 53.710 -139.4278
1.145979 53.858 -139.8708
1.154283 54.006 -140.3112
1.162647 54.154 -140.7492
1.171072 54.302 -141.1846
1.179558 54.450 -141.6177
1.188106 54.597 -142.0486
1.196715 54.745 -142.4774
1.205387 54.893 -142.9043
1.214122 55.040 -143.3295
1.222920 55.188 -143.7531
1.231782 55.335 -144.1754
1.240708 55.483 -144.5965
1.249699 55.630 -145.0167
1.258754 55.778 -145.4362
1.267876 55.925 -145.8551
1.277063 56.073 -146.2738
1.286318 56.220 -146.6924
1.295639 56.368 -147.1111
1.305027 56.515 -147.5302
1.314484 56.663 -147.9498
1.324009 56.810 -148.3704
1.333604 56.958 -148.7920
1.343268 57.105 -149.2150
1.353002 57.253 -149.6396
1.362806 57.401 -150.0659
1.372681 57.549 -150.4944
1.382628 57.697 -150.9251
1.392647 57.845 -151.3584
1.402739 57.993 -151.7944
1.412904 58.142 -152.2334
1.423142 58.290 -152.6754
1.433455 58.439 -153.1203
1.443843 58.588 -153.5680
1.454305 58.737 -154.0182
1.464844 58.886 -154.4700
1.475459 59.035 -154.9228
1.486150 59.183 -155.3757
1.496920 59.332 -155.8280
1.507767 59.480 -156.2792
1.518693 59.627 -156.7293
1.529698 59.775 -157.1781
1.540783 59.922 -157.6258
1.551948 60.068 -158.0725
1.563194 60.215 -158.5183
1.574521 60.360 -158.9636
1.585931 60.506 -159.4086
1.597423 60.651 -159.8536
1.608999 60.796 -160.2988
1.620658 60.941 -160.7446
1.632402 61.085 -161.1913
1.644232 61.229 -161.6391
1.656146 61.373 -162.0884
1.668147 61.516 -162.5395
1.680235 61.659 -162.9928
1.692411 61.802 -163.4484
1.704675 61.945 -163.9069
1.717028 62.088 -164.3685
1.729470 62.231 -164.8336
1.742003 62.373 -165.3024
1.754626 62.516 -165.7754
1.767341 62.658 -166.2529
1.780147 62.801 -166.7350
1.793047 62.943 -167.2220
1.806040 63.085 -167.7140
1.819128 63.227 -168.2109
1.832310 63.369 -168.7124
1.845587 63.511 -169.2181
1.858961 63.652 -169.7275
1.872432 63.793 -170.2401
1.886001 63.933 -170.7552
1.899667 64.072 -171.2727
1.913433 64.211 -171.7921
1.927299 64.350 -172.3131
1.941265 64.488 -172.8355
1.955332 64.625 -173.3592
1.969501 64.762 -173.8840
1.983773 64.898 -174.4098
1.998148 65.034 -174.9365
2.012627 65.169 -175.4642
2.027212 65.304 -175.9926
2.041902 65.438 -176.5220
2.056698 65.572 -177.0523
2.071602 65.706 -177.5836
2.086614 65.839 -178.1160
2.101734 65.972 -178.6496
2.116964 66.105 -179.1846
2.132304 66.237 -179.7211
2.147756 66.369 179.7405
2.163320 66.501 179.2000
2.178996 66.633 178.6572
2.194786 66.764 178.1116
2.210690 66.895 177.5631
2.226710 67.025 177.0115
2.242845 67.154 176.4569
2.259098 67.283 175.8994
2.275468 67.411 175.3393
2.291957 67.538 174.7768
2.308566 67.665 174.2124
2.325295 67.791 173.6464
2.342145 67.916 173.0790
2.359117 68.040 172.5107
2.376212 68.164 171.9417
2.393431 68.287 171.3722
2.410775 68.410 170.8025
2.428244 68.532 170.2327
2.445840 68.654 169.6630
2.463564 68.775 169.0934
2.481416 68.896 168.5240
2.499397 69.016 167.9547
2.517509 69.136 167.3852
2.535752 69.255 166.8152
2.554127 69.374 166.2444
2.572635 69.492 165.6720
2.591277 69.610 165.0977
2.610055 69.726 164.5208
2.628968 69.842 163.9416
2.648019 69.957 163.3599
2.667208 70.072 162.7761
2.686535 70.185 162.1906
2.706003 70.298 161.6038
2.725612 70.410 161.0162
2.745363 70.521 160.4282
2.765257 70.632 159.8404
2.785295 70.741 159.2531
2.805478 70.851 158.6666
2.825808 70.959 158.0813
2.846285 71.068 157.4974
2.866910 71.175 156.9150
2.887685 71.282 156.3340
2.908611 71.389 155.7540
2.929688 71.495 155.1745
2.950917 71.600 154.5948
2.972301 71.705 154.0143
2.993839 71.809 153.4326
3.015534 71.911 152.8497
3.037386 72.013 152.2657
3.059396 72.115 151.6809
3.081565 72.215 151.0958
3.103896 72.315 150.5107
3.126388 72.414 149.9263
3.149043 72.512 149.3431
3.171862 72.610 148.7615
3.194847 72.707 148.1820
3.217998 72.804 147.6048
3.241317 72.900 147.0300
3.264805 72.996 146.4577
3.288463 73.091 145.8875
3.312293 73.186 145.3188
3.336295 73.280 144.7511
3.360471 73.373 144.1840
3.384822 73.466 143.6172
3.409350 73.558 143.0508
3.434056 73.649 142.4848
3.458940 73.740 141.9196
3.484005 73.829 141.3555
3.509252 73.919 140.7929
3.534681 74.008 140.2321
3.560295 74.096 139.6736
3.586094 74.184 139.1174
3.612081 74.272 138.5639
3.638255 74.359 138.0129
3.664620 74.446 137.4643
3.691175 74.532 136.9175
3.717923 74.618 136.3724
3.744864 74.704 135.8286
3.772001 74.789 135.2860
3.799335 74.873 134.7446
3.826866 74.957 134.2043
3.854597 75.040 133.6655
3.882529 75.123 133.1283
3.910664 75.206 132.5929
3.939002 75.289 132.0594
3.967546 75.371 131.5280
3.996296 75.453 130.9986
4.025255 75.534 130.4712
4.054423 75.616 129.9456
4.083804 75.697 129.4216
4.113396 75.777 128.8990
4.143204 75.858 128.3776
4.173227 75.938 127.8573
4.203468 76.018 127.3382
4.233928 76.097 126.8201
4.264609 76.176 126.3032
4.295512 76.255 125.7875
4.326639 76.334 125.2728
4.357992 76.412 124.7592
4.389572 76.490 124.2466
4.421380 76.568 123.7349
4.453419 76.646 123.2239
4.485691 76.724 122.7134
4.518196 76.801 122.2035
4.550936 76.878 121.6941
4.583914 76.955 121.1852
4.617131 77.031 120.6768
4.650589 77.107 120.1689
4.684289 77.183 119.6615
4.718233 77.259 119.1544
4.752424 77.334 118.6476
4.786862 77.409 118.1410
4.821549 77.484 117.6344
4.856488 77.558 117.1278
4.891680 77.633 116.6212
4.927127 77.706 116.1146
4.962831 77.780 115.6081
4.998794 77.853 115.1018
5.035017 77.926 114.5959
5.071503 77.998 114.0902
5.108253 78.070 113.5847
5.145270 78.142 113.0794
5.182555 78.213 112.5741
5.220110 78.284 112.0687
5.257937 78.355 111.5632
5.296038 78.425 111.0579
5.334415 78.495 110.5528
5.373071 78.564 110.0482
5.412006 78.633 109.5441
5.451224 78.701 109.0408
5.490725 78.769 108.5381
5.530514 78.837 108.0359
5.570590 78.904 107.5342
5.610957 78.971 107.0330
5.651616 79.037 106.5323
5.692570 79.103 106.0323
5.733821 79.169 105.5331
5.775370 79.234 105.0348
5.817221 79.299 104.5377
5.859375 79.363 104.0417
5.901834 79.427 103.5468
5.944602 79.491 103.0529
5.987679 79.554 102.5598
6.031068 79.617 102.0677
6.074771 79.679 101.5767
6.118792 79.741 101.0866
6.163131 79.803 100.5977
6.207792 79.865 100.1100
6.252776 79.926 99.6234
6.298086 79.987 99.1378
6.343725 80.048 98.6532
6.389694 80.108 98.1695
6.435996 80.168 97.6866
6.482634 80.228 97.2046
6.529610 80.288 96.7234
6.576926 80.347 96.2430
6.624585 80.406 95.7633
6.672590 80.465 95.2842
6.720942 80.523 94.8058
6.769645 80.581 94.3278
6.818700 80.639 93.8504
6.868111 80.697 93.3734
6.917881 80.754 92.8969
6.968010 80.811 92.4207
7.018504 80.868 91.9448
7.069362 80.924 91.4693
7.120590 80.980 90.9940
7.172189 81.036 90.5192
7.224161 81.091 90.0447
7.276511 81.146 89.5707
7.329239 81.201 89.0972
7.382350 81.255 88.6242
7.435845 81.309 88.1516
7.489729 81.362 87.6796
7.544002 81.415 87.2083
7.598669 81.467 86.7379
7.653732 81.519 86.2684
7.709194 81.571 85.8000
7.765058 81.622 85.3326
7.821327 81.673 84.8663
7.878004 81.723 84.4011
7.935091 81.773 83.9373
7.992592 81.823 83.4749
8.050510 81.872 83.0140
8.108847 81.921 82.5547
8.167607 81.969 82.0969
8.226793 82.017 81.6406
8.286408 82.065 81.1859
8.346454 82.112 80.7326
8.406936 82.160 80.2808
8.467856 82.206 79.8305
8.529218 82.253 79.3816
8.591024 82.299 78.9339
8.653278 82.345 78.4874
8.715983 82.391 78.0420
8.779143 82.437 77.5974
8.842760 82.482 77.1536
8.906839 82.527 76.7106
8.971381 82.572 76.2680
9.036392 82.616 75.8260
9.101873 82.661 75.3842
9.167829 82.704 74.9427
9.234263 82.748 74.5013
9.301178 82.791 74.0601
9.368578 82.834 73.6190
9.436467 82.876 73.1781
9.504847 82.917 72.7374
9.573723 82.959 72.2969
9.643099 82.999 71.8569
9.712976 83.039 71.4174
9.783361 83.079 70.9788
9.854255 83.117 70.5411
9.925663 83.155 70.1047
9.997588 83.193 69.6697
10.070035 83.230 69.2365
10.143007 83.266 68.8054
10.216507 83.301 68.3766
10.290540 83.336 67.9505
10.365109 83.370 67.5273
10.440219 83.404 67.1071
10.515873 83.437 66.6903
10.592076 83.470 66.2770
10.668830 83.502 65.8674
10.746141 83.534 65.4615
10.824012 83.565 65.0594
10.902447 83.596 64.6609
10.981451 83.627 64.2662
11.061027 83.658 63.8751
11.141180 83.688 63.4873
11.221913 83.719 63.1028
11.303232 83.749 62.7211
11.385140 83.780 62.3420
11.467641 83.810 61.9653
11.550741 83.841 61.5906
11.634442 83.871 61.2175
11.718750 83.902 60.8456
11.803669 83.933 60.4747
11.889203 83.963 60.1044
11.975357 83.994 59.7344
12.062136 84.025 59.3644
12.149543 84.055 58.9941
12.237583 84.086 58.6232
12.326262 84.116 58.2516
12.415583 84.147 57.8792
12.505552 84.177 57.5056
12.596172 84.207 57.1310
12.687449 84.236 56.7551
12.779387 84.266 56.3780
12.871992 84.295 55.9997
12.965268 84.323 55.6202
13.059220 84.351 55.2397
13.153852 84.379 54.8583
13.249170 84.406 54.4761
13.345179 84.432 54.0934
13.441884 84.458 53.7104
13.539289 84.484 53.3276
13.637401 84.508 52.9452
13.736223 84.533 52.5635
13.835761 84.556 52.1831
13.936021 84.579 51.8044
14.037007 84.601 51.4278
14.138725 84.623 51.0537
14.241180 84.644 50.6825
14.344377 84.664 50.3146
14.448323 84.685 49.9503
14.553021 84.705 49.5899
14.658478 84.725 49.2334
14.764700 84.744 48.8808
14.871691 84.764 48.5322
14.979457 84.784 48.1871
15.088005 84.804 47.8454
15.197339 84.824 47.5066
15.307465 84.845 47.1700
15.418389 84.866 46.8352
15.530117 84.888 46.5013
15.642655 84.910 46.1676
15.756008 84.932 45.8335
15.870182 84.955 45.4981
15.985184 84.978 45.1609
16.101019 85.001 44.8213
16.217694 85.025 44.4789
16.335214 85.048 44.1332
16.453586 85.071 43.7842
16.572815 85.094 43.4319
16.692909 85.117 43.0765
16.813872 85.139 42.7182
16.935713 85.160 42.3576
17.058436 85.181 41.9953
17.182048 85.201 41.6321
17.306556 85.220 41.2689
17.431967 85.238 40.9066
17.558286 85.255 40.5462
17.685521 85.271 40.1887
17.813677 85.286 39.8351
17.942762 85.300 39.4861
18.072783 85.314 39.1426
18.203746 85.327 38.8051
18.335658 85.340 38.4740
18.468526 85.352 38.1493
18.602356 85.364 37.8309
18.737156 85.376 37.5187
18.872934 85.389 37.2120
19.009695 85.401 36.9102
19.147447 85.414 36.6128
19.286197 85.426 36.3191
19.425953 85.439 36.0286
19.566721 85.452 35.7408
19.708510 85.465 35.4557
19.851326 85.478 35.1734
19.995177 85.491 34.8939
20.140070 85.504 34.6174
20.286013 85.517 34.3444
20.433014 85.531 34.0746
20.581080 85.544 33.8080
20.730219 85.558 33.5436
20.880439 85.573 33.2802
21.031747 85.589 33.0162
21.184152 85.605 32.7492
21.337661 85.623 32.4770
21.492282 85.640 32.1971
21.648024 85.658 31.9077
21.804895 85.676 31.6073
21.962902 85.692 31.2959
22.122054 85.707 30.9742
22.282360 85.721 30.6446
22.443827 85.731 30.3102
22.606464 85.739 29.9753
22.770280 85.745 29.6447
22.935283 85.747 29.3227
23.101481 85.748 29.0133
23.268884 85.748 28.7191
23.437500 85.748 28.4410
23.607338 85.748 28.1780
23.778406 85.749 27.9275
23.950714 85.752 27.6849
24.124271 85.757 27.4454
24.299086 85.764 27.2036
24.475167 85.773 26.9552
24.652524 85.782 26.6971
24.831166 85.791 26.4285
25.011103 85.800 26.1502
25.192344 85.807 25.8652
25.374898 85.813 25.5778
25.558775 85.817 25.2923
25.743984 85.820 25.0131
25.930536 85.822 24.7429
26.118439 85.824 24.4830
26.307704 85.827 24.2327
26.498341 85.831 23.9893
26.690359 85.837 23.7491
26.883768 85.844 23.5079
27.078579 85.852 23.2621
27.274801 85.862 23.0093
27.472446 85.871 22.7488
27.671522 85.879 22.4816
27.872042 85.887 22.2100
28.074014 85.894 21.9373
28.277450 85.899 21.6665
28.482360 85.904 21.4001
28.688755 85.908 21.1396
28.896645 85.912 20.8849
29.106042 85.916 20.6349
29.316957 85.921 20.3881
29.529400 85.926 20.1425
29.743382 85.931 19.8969
29.958915 85.937 19.6508
30.176009 85.941 19.4043
30.394677 85.946 19.1583
30.614929 85.950 18.9139
30.836778 85.953 18.6719
31.060234 85.957 18.4324
31.285309 85.960 18.1953
31.512015 85.964 17.9595
31.740364 85.967 17.7241
31.970368 85.971 17.4881
32.202039 85.974 17.2511
32.435388 85.977 17.0131
32.670428 85.979 16.7746
32.907171 85.981 16.5365
33.145630 85.983 16.2996
33.385817 85.984 16.0643
33.627745 85.985 15.8308
33.871425 85.986 15.5988
34.116871 85.987 15.3679
34.364096 85.988 15.1379
34.613113 85.989 14.9086
34.863934 85.989 14.6801
35.116572 85.990 14.4529
35.371041 85.991 14.2271
35.627354 85.991 14.0026
35.885525 85.992 13.7791
36.145566 85.993 13.5559
36.407492 85.995 13.3323
36.671316 85.996 13.1077
36.937051 85.997 12.8820
37.204712 85.999 12.6555
37.474313 85.999 12.4290
37.745867 86.000 12.2032
38.019389 86.000 11.9789
38.294893 85.999 11.7560
38.572394 85.999 11.5346
38.851905 85.998 11.3142
39.133442 85.998 11.0945
39.417019 85.997 10.8751
39.702651 85.995 10.6560
39.990353 85.993 10.4373
40.280140 85.991 10.2186
40.572026 85.988 10.0001
40.866028 85.985 9.7814
41.162160 85.981 9.5632
41.460438 85.977 9.3466
41.760877 85.972 9.1332
42.063494 85.966 8.9248
42.368303 85.961 8.7219
42.675322 85.955 8.5235
42.984565 85.951 8.3263
43.296048 85.948 8.1265
43.609789 85.944 7.9209
43.925804 85.941 7.7092
44.244108 85.936 7.4951
44.564719 85.930 7.2845
44.887654 85.922 7.0846
45.212928 85.915 6.8993
45.540560 85.909 6.7277
45.870565 85.906 6.5636
46.202962 85.905 6.3974
46.537768 85.907 6.2198
46.875000 85.910 6.0255
47.214676 85.912 5.8146
47.556813 85.912 5.5925
47.901429 85.910 5.3669
48.248542 85.906 5.1449
48.598171 85.900 4.9303
48.950334 85.894 4.7235
49.305048 85.889 4.5222
49.662333 85.883 4.3236
50.022206 85.878 4.1254
50.384688 85.872 3.9269
50.749796 85.867 3.7281
51.117550 85.861 3.5297
51.487969 85.855 3.3323
51.861072 85.849 3.1360
52.236879 85.843 2.9413
52.615409 85.837 2.7482
52.996681 85.831 2.5570
53.380717 85.825 2.3677
53.767536 85.819 2.1804
54.157158 85.813 1.9951
54.549603 85.807 1.8121
54.944892 85.800 1.6317
55.343045 85.794 1.4538
55.744084 85.787 1.2775
56.148028 85.781 1.1010
56.554900 85.774 0.9222
56.964720 85.767 0.7393
57.377510 85.759 0.5513
57.793291 85.750 0.3589
58.212085 85.739 0.1644
58.633914 85.727 -0.0297
59.058799 85.715 -0.2211
59.486764 85.703 -0.4091
59.917829 85.691 -0.5945
60.352019 85.681 -0.7797
60.789354 85.672 -0.9675
61.229859 85.664 -1.1604
61.673556 85.657 -1.3584
62.120468 85.650 -1.5586
62.570618 85.642 -1.7555
63.024031 85.635 -1.9434
63.480729 85.627 -2.1183
63.940736 85.620 -2.2787
64.404077 85.612 -2.4246
64.870776 85.605 -2.5560
65.340856 85.598 -2.6736
65.814343 85.590 -2.7780
66.291261 85.582 -2.8694
66.771635 85.573 -2.9460
67.255489 85.566 -3.0079
67.742850 85.561 -3.0648
68.233743 85.562 -3.1413
68.728193 85.566 -3.2700
69.226226 85.569 -3.4731
69.727867 85.566 -3.7464
70.233144 85.553 -4.0605
70.742083 85.530 -4.3770
71.254709 85.501 -4.6657
71.771050 85.469 -4.9146
72.291132 85.438 -5.1254
72.814984 85.412 -5.3086
73.342631 85.391 -5.4768
73.874102 85.375 -5.6411
74.409424 85.363 -5.8076
74.948626 85.352 -5.9767
75.491734 85.343 -6.1455
76.038779 85.333 -6.3124
76.589787 85.324 -6.4772
77.144788 85.313 -6.6404
77.703811 85.300 -6.8020
78.266885 85.286 -6.9614
78.834039 85.270 -7.1182
79.405303 85.253 -7.2725
79.980706 85.235 -7.4246
80.560280 85.217 -7.5752
81.144053 85.198 -7.7252
81.732056 85.180 -7.8755
82.324320 85.163 -8.0262
82.920876 85.146 -8.1769
83.521755 85.129 -8.3262
84.126988 85.113 -8.4734
84.736607 85.097 -8.6180
85.350643 85.082 -8.7609
85.969129 85.066 -8.9035
86.592097 85.050 -9.0482
87.219579 85.033 -9.1964
87.851608 85.016 -9.3484
88.488217 84.998 -9.5045
89.129439 84.979 -9.6647
89.775308 84.960 -9.8292
90.425856 84.940 -9.9957
91.081119 84.919 -10.1598
91.741131 84.899 -10.3156
92.405925 84.879 -10.4594
93.075536 84.860 -10.5924
93.750000 84.842 -10.7198
94.429351 84.826 -10.8463
95.113625 84.809 -10.9746
95.802858 84.791 -11.1058
96.497085 84.773 -11.2404
97.196342 84.753 -11.3773
97.900667 84.732 -11.5146
98.610096 84.709 -11.6497
99.324665 84.686 -11.7809
100.044413 84.663 -11.9078
100.769376 84.640 -12.0306
101.499592 84.618 -12.1505
102.235100 84.597 -12.2699
102.975938 84.576 -12.3918
103.722144 84.556 -12.5178
104.473757 84.535 -12.6473
105.230817 84.512 -12.7783
105.993363 84.489 -12.9088
106.761435 84.465 -13.0379
107.535072 84.441 -13.1654
108.314315 84.416 -13.2911
109.099206 84.392 -13.4147
109.889783 84.366 -13.5353
110.686090 84.341 -13.6529
111.488167 84.314 -13.7673
112.296056 84.286 -13.8796
113.109800 84.257 -13.9940
113.929440 84.228 -14.1168
114.755020 84.197 -14.2529
115.586582 84.164 -14.4023
116.424170 84.130 -14.5612
117.267827 84.095 -14.7237
118.117598 84.059 -14.8816
118.973527 84.023 -15.0207
119.835658 83.987 -15.1250
120.704037 83.953 -15.1891
121.578708 83.922 -15.2239
122.459718 83.894 -15.2469
123.347111 83.867 -15.2709
124.240935 83.839 -15.2994
125.141236 83.808 -15.3291
126.048061 83.774 -15.3537
126.961458 83.739 -15.3668
127.881473 83.702 -15.3630
128.808154 83.664 -15.3385
129.741551 83.625 -15.2911
130.681712 83.586 -15.2175
131.628686 83.545 -15.1140
132.582521 83.505 -14.9763
133.543269 83.467 -14.8023
134.510979 83.436 -14.5959
135.485701 83.416 -14.3728
136.467486 83.410 -14.1610
137.456386 83.417 -13.9893
138.452451 83.433 -13.8634
139.455735 83.453 -13.7634
140.466288 83.477 -13.6786
141.484165 83.503 -13.6254
142.509418 83.526 -13.6245
143.542100 83.542 -13.6796
144.582265 83.548 -13.7775
145.629968 83.545 -13.9014
146.685262 83.537 -14.0385
147.748204 83.525 -14.1811
148.818849 83.514 -14.3246
149.897251 83.505 -14.4683
150.983469 83.496 -14.6151
152.077557 83.488 -14.7676
153.179574 83.477 -14.9272
154.289576 83.464 -15.0942
155.407622 83.446 -15.2678
156.533770 83.425 -15.4450
157.668078 83.402 -15.6222
158.810606 83.375 -15.7947
159.961413 83.348 -15.9568
161.120559 83.318 -16.1044
162.288105 83.288 -16.2368
163.464112 83.257 -16.3566
164.648640 83.225 -16.4672
165.841752 83.192 -16.5694
167.043510 83.159 -16.6632
168.253976 83.124 -16.7484
169.473213 83.089 -16.8253
170.701286 83.055 -16.8960
171.938258 83.021 -16.9645
173.184194 82.988 -17.0343
174.439158 82.956 -17.1053
175.703216 82.926 -17.1733
176.976434 82.896 -17.2323
178.258878 82.868 -17.2778
179.550615 82.840 -17.3087
180.851713 82.812 -17.3271
182.162239 82.784 -17.3362
183.482262 82.755 -17.3400
184.811850 82.726 -17.3433
186.151073 82.696 -17.3507
187.500000 82.666 -17.3651
188.858702 82.635 -17.3866
190.227250 82.604 -17.4136
191.605715 82.571 -17.4441
192.994169 82.539 -17.4751
194.392685 82.507 -17.5031
195.801334 82.476 -17.5247
197.220191 82.446 -17.5386
198.649330 82.417 -17.5442
200.088825 82.387 -17.5422
201.538751 82.358 -17.5350
202.999184 82.327 -17.5253
204.470200 82.297 -17.5153
205.951875 82.265 -17.5060
207.444287 82.233 -17.4980
208.947514 82.199 -17.4923
210.461634 82.164 -17.4890
211.986726 82.128 -17.4864
213.522869 82.092 -17.4817
215.070144 82.057 -17.4720
216.628631 82.023 -17.4557
218.198411 81.992 -17.4316
219.779567 81.962 -17.3997
221.372180 81.932 -17.3604
222.976334 81.903 -17.3158
224.592112 81.875 -17.2685
226.219600 81.845 -17.2204
227.858880 81.816 -17.1729
229.510039 81.787 -17.1267
231.173164 81.757 -17.0815
232.848340 81.728 -17.0362
234.535655 81.699 -16.9891
236.235197 81.671 -16.9397
237.947054 81.642 -16.8898
239.671317 81.613 -16.8408
241.408074 81.584 -16.7917
243.157416 81.553 -16.7389
244.919435 81.523 -16.6792
246.694223 81.492 -16.6132
248.481871 81.460 -16.5448
250.282473 81.428 -16.4774
252.096123 81.395 -16.4108
253.922915 81.362 -16.3412
255.762945 81.328 -16.2649
257.616309 81.294 -16.1798
259.483103 81.261 -16.0867
261.363424 81.228 -15.9886
263.257372 81.198 -15.8894
265.165043 81.170 -15.7906
267.086538 81.143 -15.6910
269.021957 81.118 -15.5883
270.971401 81.093 -15.4797
272.934972 81.068 -15.3642
274.912771 81.040 -15.2424
276.904902 81.010 -15.1161
278.911469 80.978 -14.9867
280.932577 80.943 -14.8552
282.968330 80.906 -14.7238
285.018835 80.869 -14.5955
287.084199 80.835 -14.4744
289.164530 80.806 -14.3643
291.259935 80.782 -14.2610
293.370525 80.761 -14.1519
295.496408 80.741 -14.0269
297.637697 80.721 -13.8854
299.794503 80.701 -13.7325
301.966937 80.681 -13.5751
304.155114 80.659 -13.4187
306.359147 80.636 -13.2679
308.579152 80.611 -13.1244
310.815244 80.585 -12.9850
313.067539 80.558 -12.8439
315.336156 80.534 -12.6980
317.621211 80.511 -12.5480
319.922826 80.492 -12.3961
322.241118 80.475 -12.2445
324.576210 80.461 -12.0974
326.928223 80.451 -11.9600
329.297280 80.442 -11.8361
331.683504 80.434 -11.7283
334.087019 80.426 -11.6377
336.507952 80.417 -11.5634
338.946427 80.403 -11.5004
341.402572 80.387 -11.4407
343.876516 80.366 -11.3763
346.368387 80.343 -11.3029
348.878315 80.317 -11.2196
351.406431 80.290 -11.1265
353.952867 80.262 -11.0247
356.517756 80.235 -10.9161
359.101230 80.209 -10.8026
361.703426 80.183 -10.6850
364.324478 80.158 -10.5638
366.964523 80.133 -10.4390
369.623699 80.108 -10.3093
372.302145 80.083 -10.1728
375.000000 80.058 -10.0284
377.717405 80.033 -9.8763
380.454501 80.007 -9.7179
383.211431 79.983 -9.5541
385.988339 79.958 -9.3867
388.785369 79.934 -9.2177
391.602668 79.910 -9.0483
394.440383 79.886 -8.8787
397.298660 79.863 -8.7078
400.177650 79.839 -8.5347
403.077502 79.816 -8.3586
405.998368 79.794 -8.1791
408.940400 79.771 -7.9968
411.903750 79.749 -7.8129
414.888575 79.727 -7.6289
417.895028 79.705 -7.4454
420.923268 79.684 -7.2615
423.973452 79.662 -7.0753
427.045738 79.641 -6.8861
430.140287 79.620 -6.6948
433.257261 79.598 -6.5027
436.396822 79.577 -6.3101
439.559133 79.556 -6.1163
442.744360 79.536 -5.9207
445.952668 79.515 -5.7220
449.184225 79.496 -5.5195
452.439199 79.476 -5.3136
455.717760 79.457 -5.1053
459.020079 79.439 -4.8961
462.346327 79.420 -4.6866
465.696680 79.402 -4.4766
469.071310 79.384 -4.2648
472.470394 79.365 -4.0503
475.894109 79.347 -3.8326
479.342634 79.330 -3.6124
482.816148 79.312 -3.3903
486.314833 79.295 -3.1668
489.838871 79.278 -2.9429
493.388445 79.260 -2.7190
496.963741 79.243 -2.4948
500.564945 79.225 -2.2697
504.192245 79.208 -2.0428
507.845830 79.191 -1.8134
511.525890 79.176 -1.5798
515.232618 79.160 -1.3418
518.966206 79.145 -1.0995
522.726849 79.130 -0.8529
526.514743 79.115 -0.6018
530.330086 79.100 -0.3466
534.173076 79.085 -0.0885
538.043915 79.070 0.1714
541.942803 79.055 0.4321
545.869944 79.040 0.6924
549.825542 79.025 0.9515
553.809805 79.010 1.2092
557.822939 78.995 1.4672
561.865154 78.981 1.7277
565.936660 78.968 1.9926
570.037671 78.955 2.2618
574.168399 78.942 2.5348
578.329060 78.930 2.8105
582.519870 78.918 3.0886
586.741049 78.906 3.3688
590.992817 78.895 3.6508
595.275394 78.883 3.9340
599.589005 78.872 4.2183
603.933874 78.861 4.5044
608.310228 78.851 4.7933
612.718295 78.841 5.0862
617.158304 78.831 5.3833
621.630488 78.822 5.6840
626.135079 78.813 5.9872
630.672311 78.804 6.2921
635.242423 78.795 6.5981
639.845651 78.787 6.9058
644.482237 78.779 7.2163
649.152421 78.771 7.5309
653.856447 78.764 7.8497
658.594560 78.757 8.1722
663.367008 78.751 8.4978
668.174039 78.744 8.8265
673.015903 78.737 9.1591
677.892854 78.731 9.4960
682.805145 78.725 9.8369
687.753032 78.720 10.1813
692.736774 78.715 10.5283
697.756631 78.711 10.8776
702.812863 78.708 11.2286
707.905735 78.706 11.5810
713.035511 78.704 11.9337
718.202461 78.703 12.2869
723.406852 78.703 12.6427
728.648956 78.703 13.0043
733.929047 78.703 13.3751
739.247399 78.703 13.7560
744.604290 78.705 14.1455
750.000000 78.706 14.5408
755.434809 78.709 14.9384
760.909001 78.713 15.3356
766.422861 78.718 15.7312
771.976677 78.723 16.1256
777.570739 78.730 16.5199
783.205337 78.738 16.9155
788.880766 78.747 17.3140
794.597321 78.758 17.7172
800.355301 78.769 18.1263
806.155005 78.780 18.5414
811.996736 78.793 18.9615
817.880799 78.806 19.3855
823.807501 78.820 19.8120
829.777150 78.835 20.2410
835.790057 78.851 20.6728
841.846536 78.868 21.1075
847.946903 78.886 21.5449
854.091476 78.905 21.9846
860.280575 78.925 22.4266
866.514523 78.946 22.8707
872.793644 78.970 23.3165
879.118267 78.994 23.7635
885.488720 79.020 24.2115
891.905336 79.048 24.6603
898.368450 79.077 25.1098
904.878398 79.108 25.5591
911.435520 79.141 26.0070
918.040157 79.175 26.4529
924.692655 79.212 26.8975
931.393359 79.250 27.3416
938.142619 79.289 27.7855
944.940787 79.330 28.2288
951.788218 79.372 28.6706
958.685268 79.416 29.1106
965.632296 79.461 29.5487
972.629666 79.508 29.9839
979.677741 79.557 30.4153
986.776890 79.607 30.8424
993.927482 79.660 31.2655
1001.129891 79.714 31.6840
1008.384491 79.770 32.0971
1015.691660 79.827 32.5032
1023.051781 79.886 32.9009
1030.465236 79.947 33.2897
1037.932411 80.009 33.6693
1045.453698 80.072 34.0396
1053.029486 80.138 34.4003
1060.660172 80.205 34.7516
1068.346153 80.273 35.0933
1076.087829 80.344 35.4251
1083.885605 80.416 35.7463
1091.739887 80.489 36.0553
1099.651084 80.564 36.3504
1107.619609 80.641 36.6306
1115.645878 80.719 36.8952
1123.730308 80.797 37.1440
1131.873321 80.877 37.3762
1140.075341 80.958 37.5918
1148.336797 81.039 37.7903
1156.658119 81.120 37.9715
1165.039741 81.202 38.1345
1173.482099 81.284 38.2788
1181.985634 81.365 38.4041
1190.550789 81.446 38.5109
1199.178011 81.527 38.5994
1207.867749 81.606 38.6702
1216.620457 81.685 38.7235
1225.436590 81.763 38.7596
1234.316609 81.839 38.7791
1243.260976 81.914 38.7829
1252.270157 81.987 38.7731
1261.344623 82.059 38.7515
1270.484846 82.129 38.7194
1279.691303 82.196 38.6777
1288.964474 82.262 38.6276
1298.304842 82.326 38.5702
1307.712894 82.387 38.5068
1317.189120 82.447 38.4382
1326.734016 82.505 38.3653
1336.348077 82.560 38.2892
1346.031806 82.614 38.2112
1355.785708 82.666 38.1323
1365.610290 82.716 38.0540
1375.506065 82.765 37.9775
1385.473549 82.812 37.9036
1395.513261 82.857 37.8324
1405.625726 82.901 37.7638
1415.811469 82.944 37.6975
1426.071023 82.986 37.6338
1436.404921 83.027 37.5737
1446.813703 83.066 37.5182
1457.297912 83.105 37.4680
1467.858093 83.143 37.4233
1478.494798 83.181 37.3837
1489.208581 83.218 37.3493
1500.000000 83.254 37.3202
1510.869618 83.289 37.2963
1521.818002 83.325 37.2774
1532.845723 83.360 37.2633
1543.953355 83.395 37.2542
1555.141477 83.430 37.2499
1566.410674 83.465 37.2505
1577.761531 83.500 37.2555
1589.194642 83.535 37.2648
1600.710601 83.571 37.2784
1612.310010 83.606 37.2960
1623.993473 83.642 37.3177
1635.761599 83.678 37.3435
1647.615002 83.714 37.3731
1659.554299 83.751 37.4060
1671.580114 83.788 37.4418
1683.693072 83.825 37.4805
1695.893807 83.863 37.5218
1708.182952 83.902 37.5656
1720.561150 83.942 37.6114
1733.029045 83.982 37.6588
1745.587288 84.022 37.7074
1758.236533 84.064 37.7568
1770.977440 84.106 37.8066
1783.810673 84.149 37.8568
1796.736900 84.193 37.9073
1809.756796 84.237 37.9580
1822.871040 84.283 38.0084
1836.080315 84.329 38.0581
1849.385310 84.377 38.1068
1862.786718 84.425 38.1541
1876.285239 84.474 38.1997
1889.881575 84.524 38.2437
1903.576436 84.575 38.2856
1917.370535 84.626 38.3252
1931.264593 84.679 38.3620
1945.259332 84.732 38.3958
1959.355483 84.786 38.4262
1973.553781 84.841 38.4529
1987.854965 84.897 38.4755
2002.259781 84.954 38.4937
2016.768981 85.012 38.5070
2031.383320 85.071 38.5152
2046.103561 85.130 38.5181
2060.930471 85.191 38.5155
2075.864823 85.252 38.5071
2090.907395 85.315 38.4925
2106.058972 85.378 38.4715
2121.320344 85.442 38.4438
2136.692305 85.507 38.4091
2152.175658 85.573 38.3671
2167.771210 85.640 38.3176
2183.479774 85.707 38.2601
2199.302169 85.776 38.1942
2215.239219 85.846 38.1191
2231.291755 85.917 38.0338
2247.460615 85.989 37.9368
2263.746641 86.063 37.8267
2280.150683 86.137 37.7019
2296.673595 86.212 37.5608
2313.316238 86.287 37.4022
2330.079481 86.363 37.2254
2346.964198 86.439 37.0304
2363.971268 86.514 36.8175
2381.101578 86.590 36.5873
2398.356022 86.664 36.3403
2415.735498 86.738 36.0772
2433.240913 86.811 35.7984
2450.873180 86.884 35.5041
2468.633217 86.955 35.1943
2486.521951 87.026 34.8691
2504.540314 87.096 34.5285
2522.689246 87.164 34.1722
2540.969692 87.232 33.8002
2559.382606 87.298 33.4122
2577.928947 87.363 33.0084
2596.609683 87.426 32.5886
2615.425787 87.487 32.1526
2634.378241 87.546 31.7004
2653.468031 87.604 31.2319
2672.696154 87.659 30.7476
2692.063613 87.713 30.2479
2711.571415 87.763 29.7336
2731.220579 87.811 29.2053
2751.012130 87.856 28.6637
2770.947098 87.898 28.1095
2791.026522 87.937 27.5436
2811.251451 87.972 26.9671
2831.622938 88.004 26.3810
2852.142045 88.032 25.7866
2872.809842 88.057 25.1851
2893.627406 88.078 24.5778
2914.595823 88.095 23.9661
2935.716186 88.108 23.3514
2956.989596 88.118 22.7352
2978.417161 88.123 22.1185
3000.000000 88.125 21.5026
3021.739237 88.122 20.8885
3043.636005 88.116 20.2772
3065.691446 88.106 19.6698
3087.906710 88.092 19.0673
3110.282955 88.074 18.4709
3132.821347 88.052 17.8826
3155.523062 88.026 17.3040
3178.389283 87.996 16.7373
3201.421202 87.962 16.1849
3224.620020 87.925 15.6492
3247.986946 87.883 15.1322
3271.523198 87.839 14.6359
3295.230004 87.792 14.1617
3319.108599 87.742 13.7111
3343.160228 87.689 13.2849
3367.386145 87.635 12.8834
3391.787613 87.580 12.5064
3416.365904 87.524 12.1534
3441.122300 87.466 11.8236
3466.058091 87.408 11.5156
3491.174576 87.350 11.2286
3516.473066 87.291 10.9615
3541.954880 87.232 10.7136
3567.621345 87.172 10.4843
3593.473800 87.111 10.2733
3619.513592 87.051 10.0806
3645.742080 86.989 9.9067
3672.160630 86.928 9.7524
3698.770620 86.865 9.6187
3725.573436 86.803 9.5063
3752.570477 86.740 9.4160
3779.763150 86.678 9.3481
3807.152872 86.616 9.3029
3834.741071 86.554 9.2804
3862.529185 86.493 9.2806
3890.518664 86.432 9.3032
3918.710966 86.373 9.3477
3947.107561 86.314 9.4135
3975.709929 86.257 9.5002
4004.519563 86.200 9.6076
4033.537962 86.145 9.7355
4062.766641 86.092 9.8840
4092.207123 86.040 10.0532
4121.860942 85.990 10.2429
4151.729646 85.942 10.4528
4181.814790 85.896 10.6825
4212.117944 85.852 10.9309
4242.640687 85.810 11.1970
4273.384610 85.771 11.4794
4304.351317 85.734 11.7771
4335.542421 85.700 12.0890
4366.959549 85.669 12.4141
4398.604338 85.641 12.7515
4430.478438 85.616 13.1008
4462.583511 85.593 13.4614
4494.921231 85.574 13.8326
4527.493283 85.557 14.2135
4560.301365 85.544 14.6032
4593.347189 85.534 15.0010
4626.632476 85.526 15.4061
4660.158962 85.522 15.8185
4693.928395 85.520 16.2383
4727.942535 85.522 16.6658
4762.203156 85.527 17.1012
4796.712043 85.536 17.5447
4831.470996 85.548 17.9965
4866.481826 85.563 18.4565
4901.746360 85.583 18.9249
4937.266434 85.608 19.4016
4973.043902 85.637 19.8860
5009.080628 85.671 20.3775
5045.378492 85.711 20.8751
5081.939384 85.757 21.3771
5118.765212 85.809 21.8814
5155.857894 85.869 22.3855
5193.219366 85.935 22.8866
5230.851574 86.010 23.3819
5268.756481 86.093 23.8682
5306.936062 86.185 24.3418
5345.392309 86.287 24.7982
5384.127225 86.399 25.2319
5423.142830 86.523 25.6354
5462.441159 86.658 25.9995
5502.024259 86.806 26.3129
5541.894195 86.967 26.5614
5582.053045 87.142 26.7278
5622.502902 87.330 26.7917
5663.245876 87.530 26.7302
5704.284090 87.741 26.5179
5745.619684 87.959 26.1288
5787.254813 88.181 25.5387
5829.191647 88.399 24.7277
5871.432373 88.609 23.6840
5913.979192 88.800 22.4075
5956.834323 88.964 20.9128
6000.000000 89.094 19.2310
6043.478473 89.181 17.4095
6087.272010 89.221 15.5107
6131.382892 89.210 13.6069
6175.813420 89.149 11.7745
6220.565910 89.042 10.0876
6265.642695 88.895 8.6108
6311.046124 88.717 7.3943
6356.778566 88.520 6.4691
6402.842404 88.314 5.8470
6449.240040 88.110 5.5210
6495.973891 87.919 5.4677
6543.046396 87.750 5.6521
6590.460007 87.607 6.0310
6638.217197 87.497 6.5577
6686.320456 87.422 7.1852
6734.772290 87.384 7.8685
6783.575226 87.381 8.5666
6832.731809 87.415 9.2421
6882.244600 87.483 9.8612
6932.116181 87.585 10.3932
6982.349153 87.717 10.8094
7032.946133 87.879 11.0820
7083.909760 88.068 11.1837
7135.242690 88.281 11.0870
7186.947600 88.516 10.7642
7239.027185 88.769 10.1870
7291.484160 89.035 9.3276
7344.321260 89.308 8.1592
7397.541239 89.582 6.6577
7451.146872 89.849 4.8048
7505.140954 90.098 2.5914
7559.526299 90.318 0.0225
7614.305743 90.500 -2.8796
7669.482141 90.631 -6.0753
7725.058371 90.703 -9.5090
7781.037328 90.708 -13.1127
7837.421932 90.643 -16.8090
7894.215122 90.504 -20.5157
7951.419859 90.293 -24.1508
8009.039125 90.013 -27.6371
8067.075924 89.671 -30.9073
8125.533282 89.273 -33.9060
8184.414245 88.829 -36.5919
8243.721885 88.347 -38.9376
8303.459292 87.838 -40.9289
8363.629581 87.309 -42.5624
8424.235888 86.770 -43.8439
8485.281374 86.228 -44.7861
8546.769221 85.689 -45.4076
8608.702634 85.159 -45.7303
8671.084842 84.643 -45.7800
8733.919097 84.144 -45.5846
8797.208675 83.666 -45.1737
8860.956876 83.211 -44.5777
8925.167022 82.781 -43.8270
8989.842461 82.374 -42.9512
9054.986566 81.993 -41.9775
9120.602731 81.634 -40.9307
9186.694378 81.298 -39.8318
9253.264952 80.982 -38.6986
9320.317925 80.684 -37.5452
9387.856790 80.402 -36.3822
9455.885071 80.134 -35.2178
9524.406312 79.877 -34.0574
9593.424086 79.630 -32.9045
9662.941992 79.391 -31.7606
9732.963653 79.158 -30.6252
9803.492719 78.929 -29.4966
9874.532869 78.704 -28.3718
9946.087805 78.481 -27.2478
10018.161257 78.259 -26.1223
10090.756983 78.038 -24.9933
10163.878768 77.818 -23.8589
10237.530423 77.598 -22.7173
10311.715789 77.377 -21.5649
10386.438732 77.155 -20.3964
10461.703149 76.932 -19.2047
10537.512962 76.708 -17.9819
10613.872125 76.482 -16.7199
10690.784618 76.255 -15.4116
10768.254450 76.028 -14.0508
10846.285661 75.802 -12.6332
10924.882318 75.578 -11.1565
11004.048518 75.358 -9.6206
11083.788390 75.142 -8.0273
11164.106090 74.932 -6.3798
11245.005805 74.729 -4.6813
11326.491752 74.534 -2.9349
11408.568180 74.349 -1.1421
11491.239368 74.175 0.6970
11574.509626 74.014 2.5822
11658.383294 73.869 4.5082
11742.864745 73.745 6.4577
11827.958384 73.643 8.3965
11913.668646 73.565 10.2764
12000.000000 73.508 12.0505
12086.956947 73.467 13.6913
12174.544019 73.434 15.1997
12262.765784 73.406 16.5992
12351.626840 73.380 17.9224
12441.131819 73.356 19.1993
12531.285389 73.334 20.4536
12622.092249 73.318 21.7004
12713.557132 73.310 22.9488
12805.684808 73.311 24.2021
12898.480079 73.324 25.4609
12991.947783 73.350 26.7231
13086.092792 73.392 27.9858
13180.920015 73.450 29.2457
13276.434395 73.525 30.4991
13372.640911 73.620 31.7421
13469.544580 73.735 32.9704
13567.150452 73.870 34.1800
13665.463617 74.027 35.3668
13764.489200 74.207 36.5266
13864.232362 74.411 37.6543
13964.698305 74.642 38.7422
14065.892266 74.901 39.7787
14167.819519 75.191 40.7455
14270.485380 75.513 41.6151
14373.895200 75.871 42.3481
14478.054370 76.264 42.8913
14582.968320 76.691 43.1786
14688.642520 77.148 43.1332
14795.082478 77.626 42.6737
14902.293745 78.111 41.7227
15010.281908 78.586 40.2188
15119.052599 79.028 38.1296
15228.611486 79.411 35.4641
15338.964283 79.712 32.2806
15450.116741 79.906 28.6911
15562.074656 79.977 24.8576
15674.843864 79.916 20.9790
15788.430244 79.724 17.2686
15902.839718 79.412 13.9241
16018.078250 79.002 11.0979
16134.151848 78.520 8.8799
16251.066563 77.994 7.2976
16368.828491 77.449 6.3335
16487.443769 76.906 5.9450
16606.918584 76.387 6.0771
16727.259161 75.910 6.6611
16848.471777 75.496 7.6061
16970.562748 75.163 8.7913
17093.538442 74.930 10.0615
17217.405268 74.807 11.2306
17342.169684 74.795 12.0961
17467.838194 74.884 12.4674
17594.417350 75.049 12.2032
17721.913751 75.260 11.2448
17850.334044 75.483 9.6312
17979.684923 75.695 7.4862
18109.973131 75.887 4.9758
18241.205462 76.063 2.2555
18373.388756 76.234 -0.5713
18506.529905 76.416 -3.4657
18640.635849 76.615 -6.4413
18775.713581 76.834 -9.5389
18911.770141 77.065 -12.8026
19048.812624 77.295 -16.2620
19186.848172 77.512 -19.9208
19325.883983 77.701 -23.7462
19465.927305 77.852 -27.6517
19606.985439 77.961 -31.4720
19749.065738 78.029 -34.9340
19892.175609 78.064 -37.6484
20036.322514 78.078 -39.1708
