* Measurement data measured by REW V5.31
* Source: Headset (CX31993 HIFI AUDIO), MICROPHONE (Master Volume), R, volume: 0.600
* Format: 256k Log Swept Sine, 1 sweep at -12.0 dBFS with no timing reference
* Dated: May 1, 2024 5:48:16 PM
* REW Settings:
*  C-weighting compensation: Off
*  Target level: 75.0 dB
* Note: ; 
* Measurement: Moondrop Starfield2 LDF L
* Smoothing: 1/24 octave
* Frequency Step: 96 ppo
* Start Frequency: 20.141602 Hz
*
* Freq(Hz) SPL(dB) Phase(degrees)
20.141602 94.494 -158.1185
20.287556 94.490 -158.1093
20.434568 94.486 -158.0583
20.582645 94.482 -157.9535
20.731796 94.480 -157.8097
20.882027 94.482 -157.6719
21.033346 94.488 -157.5881
21.185763 94.493 -157.6110
21.339284 94.494 -157.7937
21.493917 94.484 -158.1663
21.649671 94.456 -158.7481
21.806553 94.402 -159.5406
21.964572 94.317 -160.5145
22.123737 94.197 -161.6290
22.284054 94.042 -162.8216
22.445534 93.855 -164.0077
22.608183 93.644 -165.1080
22.772012 93.423 -166.0249
22.937027 93.207 -166.6820
23.103238 93.021 -167.0255
23.270654 92.885 -167.0357
23.439282 92.821 -166.7583
23.609133 92.843 -166.2789
23.780215 92.949 -165.7218
23.952536 93.130 -165.2182
24.126106 93.364 -164.8612
24.300934 93.624 -164.7107
24.477028 93.884 -164.7666
24.654399 94.121 -164.9927
24.833055 94.321 -165.3288
25.013005 94.472 -165.6958
25.194260 94.573 -166.0267
25.376828 94.626 -166.2561
25.560719 94.639 -166.3487
25.745942 94.625 -166.2918
25.932508 94.594 -166.1051
26.120426 94.560 -165.8407
26.309705 94.531 -165.5652
26.500356 94.513 -165.3604
26.692388 94.504 -165.2907
26.885812 94.503 -165.4049
27.080638 94.504 -165.7157
27.276876 94.501 -166.2081
27.474535 94.491 -166.8403
27.673627 94.471 -167.5551
27.874161 94.441 -168.2885
28.076149 94.404 -168.9816
28.279600 94.363 -169.5854
28.484526 94.321 -170.0680
28.690937 94.284 -170.4152
28.898843 94.253 -170.6288
29.108256 94.231 -170.7251
29.319186 94.219 -170.7288
29.531645 94.218 -170.6701
29.745644 94.227 -170.5821
29.961193 94.246 -170.4955
30.178304 94.274 -170.4396
30.396989 94.308 -170.4354
30.617258 94.345 -170.4965
30.839123 94.382 -170.6251
31.062596 94.415 -170.8135
31.287688 94.443 -171.0441
31.514412 94.462 -171.2959
31.742778 94.474 -171.5471
31.972800 94.478 -171.7812
32.204488 94.477 -171.9910
32.437855 94.474 -172.1782
32.672913 94.469 -172.3530
32.909674 94.464 -172.5278
33.148151 94.459 -172.7144
33.388356 94.453 -172.9175
33.630302 94.447 -173.1354
33.874001 94.440 -173.3593
34.119466 94.433 -173.5786
34.366710 94.427 -173.7839
34.615745 94.422 -173.9695
34.866585 94.419 -174.1358
35.119243 94.418 -174.2870
35.373731 94.415 -174.4305
35.630064 94.411 -174.5741
35.888254 94.405 -174.7251
36.148315 94.395 -174.8899
36.410261 94.383 -175.0743
36.674104 94.371 -175.2825
36.939860 94.360 -175.5162
37.207542 94.351 -175.7738
37.477163 94.345 -176.0489
37.748738 94.340 -176.3310
38.022281 94.337 -176.6059
38.297806 94.331 -176.8571
38.575327 94.321 -177.0682
38.854860 94.306 -177.2256
39.136419 94.286 -177.3219
39.420017 94.264 -177.3624
39.705671 94.245 -177.3703
39.993395 94.235 -177.3863
40.283203 94.238 -177.4612
40.575112 94.254 -177.6409
40.869136 94.277 -177.9420
41.165290 94.299 -178.3380
41.463591 94.312 -178.7643
41.764053 94.313 -179.1376
42.066693 94.303 -179.3869
42.371525 94.287 -179.4902
42.678567 94.272 -179.4863
42.987834 94.257 -179.4543
43.299341 94.238 -179.4726
43.613106 94.209 -179.5800
43.929145 94.170 -179.7571
44.247473 94.129 -179.9451
44.568109 94.105 179.9055
44.891068 94.116 179.7968
45.216367 94.167 179.6907
45.544023 94.243 179.5589
45.874054 94.313 179.4385
46.206476 94.349 179.4493
46.541307 94.340 179.7479
46.878565 94.298 -179.5756
47.218266 94.257 -178.6112
47.560429 94.247 -177.6639
47.905072 94.276 -177.1391
48.252212 94.320 -177.3338
48.601867 94.344 -178.2871
48.954056 94.324 -179.7786
49.308798 94.257 178.5607
49.666109 94.169 177.0978
50.026010 94.091 176.0663
50.388520 94.047 175.5068
50.753656 94.038 175.3109
51.121437 94.044 175.3309
51.491884 94.044 175.4638
51.865016 94.029 175.6575
52.240851 94.007 175.8636
52.619410 93.989 176.0051
53.000712 93.984 175.9985
53.384777 93.987 175.8112
53.771625 93.987 175.4932
54.161276 93.977 175.1502
54.553751 93.958 174.8776
54.949070 93.933 174.7069
55.347254 93.911 174.6025
55.748323 93.892 174.5059
56.152298 93.876 174.3885
56.559201 93.867 174.2665
56.969052 93.870 174.1697
57.381873 93.887 174.0979
57.797686 93.914 174.0100
58.216512 93.933 173.8622
58.638373 93.923 173.6570
59.063291 93.875 173.4527
59.491288 93.799 173.3163
59.922386 93.720 173.2510
60.356608 93.667 173.1650
60.793977 93.651 172.9293
61.234515 93.662 172.4847
61.678246 93.675 171.8996
62.125192 93.675 171.3284
62.575377 93.662 170.9125
63.028824 93.642 170.7054
63.485557 93.626 170.6681
63.945599 93.619 170.7131
64.408975 93.621 170.7549
64.875709 93.625 170.7391
65.345825 93.625 170.6537
65.819348 93.614 170.5264
66.296302 93.593 170.3977
66.776713 93.571 170.2803
67.260604 93.556 170.1429
67.748002 93.553 169.9420
68.238932 93.556 169.6721
68.733420 93.555 169.3822
69.231490 93.543 169.1451
69.733170 93.519 169.0162
70.238485 93.483 169.0108
70.747463 93.445 169.0929
71.260128 93.416 169.1762
71.776508 93.401 169.1571
72.296630 93.397 168.9781
72.820521 93.394 168.6644
73.348209 93.385 168.2984
73.879720 93.363 167.9678
74.415083 93.329 167.7409
74.954326 93.285 167.6605
75.497475 93.241 167.7215
76.044561 93.209 167.8494
76.595612 93.190 167.9326
77.150655 93.175 167.8981
77.709720 93.158 167.7471
78.272837 93.139 167.5214
78.840034 93.120 167.2610
79.411342 93.102 166.9947
79.986789 93.083 166.7480
80.566406 93.059 166.5430
81.150224 93.033 166.3955
81.738272 93.008 166.3051
82.330581 92.993 166.2402
82.927182 92.987 166.1554
83.528107 92.977 166.0535
84.133386 92.956 165.9962
84.743051 92.931 166.0120
85.357134 92.915 166.0233
85.975667 92.910 165.9293
86.598682 92.902 165.7294
87.226212 92.881 165.4916
87.858289 92.839 165.2619
88.494946 92.773 165.0975
89.136217 92.699 165.1050
89.782135 92.648 165.2944
90.432733 92.631 165.4967
91.088046 92.605 165.6138
91.748108 92.533 165.8059
92.412952 92.441 166.1675
93.082615 92.391 166.3907
93.757130 92.398 166.0861
94.436533 92.428 165.3498
95.120859 92.457 164.6476
95.810144 92.481 164.2530
96.504423 92.496 164.0732
97.203734 92.493 163.9186
97.908112 92.473 163.7227
98.617595 92.448 163.5220
99.332219 92.427 163.3626
100.052021 92.410 163.2574
100.777039 92.395 163.1956
101.507311 92.379 163.1599
102.242875 92.362 163.1332
102.983769 92.343 163.1088
103.730032 92.320 163.0804
104.481702 92.301 163.0110
105.238820 92.287 162.8609
106.001424 92.271 162.6528
106.769554 92.246 162.4600
107.543250 92.209 162.3379
108.322553 92.162 162.2884
109.107503 92.111 162.2740
109.898141 92.064 162.2510
110.694508 92.027 162.1861
111.496646 92.005 162.0626
112.304596 91.991 161.8661
113.118402 91.971 161.5703
113.938104 91.923 161.2247
114.763747 91.849 160.9987
115.595372 91.788 160.9981
116.433024 91.772 161.1586
117.276746 91.800 161.3763
118.126581 91.841 161.5610
118.982575 91.857 161.6332
119.844772 91.838 161.5768
120.713217 91.802 161.4055
121.587954 91.781 161.1255
122.469031 91.777 160.7825
123.356492 91.773 160.4604
124.250384 91.746 160.2277
125.150753 91.697 160.1193
126.057647 91.641 160.1241
126.971113 91.593 160.1827
127.891198 91.549 160.2534
128.817950 91.506 160.3302
129.751418 91.470 160.4011
130.691651 91.440 160.4734
131.638696 91.411 160.5556
132.592604 91.373 160.6022
133.553425 91.328 160.5741
134.521208 91.289 160.5041
135.496004 91.259 160.4525
136.477864 91.233 160.4288
137.466839 91.202 160.3855
138.462981 91.165 160.2952
139.466340 91.125 160.1912
140.476971 91.083 160.1230
141.494925 91.041 160.1199
142.520256 91.002 160.1618
143.553016 90.962 160.1730
144.593260 90.912 160.1337
145.641043 90.855 160.1199
146.696418 90.803 160.1794
147.759441 90.763 160.2907
148.830166 90.727 160.4166
149.908651 90.688 160.5686
150.994951 90.656 160.7716
152.089123 90.643 160.9497
153.191223 90.639 161.0505
154.301310 90.620 161.1889
155.419441 90.572 161.4847
156.545674 90.506 161.8446
157.680069 90.446 162.1190
158.822683 90.413 162.2959
159.973578 90.411 162.4378
161.132813 90.425 162.6029
162.300447 90.446 162.7596
163.476543 90.466 162.8267
164.661162 90.477 162.7859
165.854364 90.476 162.6835
167.056213 90.470 162.5504
168.266772 90.467 162.3840
169.486102 90.468 162.2017
170.714268 90.468 162.0641
171.951334 90.460 162.0074
173.197364 90.442 161.9807
174.452424 90.416 161.8755
175.716578 90.390 161.6750
176.989893 90.367 161.4575
178.272434 90.342 161.2665
179.564270 90.311 161.0659
180.865467 90.273 160.8670
182.176092 90.226 160.7622
183.496216 90.168 160.7738
184.825905 90.111 160.8093
186.165229 90.070 160.7590
187.514259 90.046 160.6345
188.873065 90.020 160.5331
190.241717 89.978 160.5503
191.620287 89.929 160.6725
193.008847 89.882 160.6976
194.407468 89.840 160.4057
195.816225 89.797 159.9708
197.235190 89.745 159.8837
198.664438 89.684 160.2991
200.104042 89.640 160.8511
201.554078 89.641 161.1431
203.014622 89.672 161.0980
204.485750 89.693 160.8635
205.967538 89.673 160.6523
207.460064 89.617 160.6429
208.963405 89.540 160.8666
210.477640 89.472 161.2197
212.002848 89.437 161.6110
213.539108 89.432 161.9848
215.086500 89.440 162.2007
216.645105 89.445 162.1377
218.215005 89.436 161.8954
219.796281 89.410 161.6631
221.389015 89.371 161.5475
222.993292 89.326 161.5528
224.609193 89.278 161.6187
226.236804 89.234 161.7185
227.876209 89.198 161.8095
229.527494 89.168 161.8533
231.190745 89.130 161.8847
232.866048 89.084 161.9716
234.553491 89.044 162.1286
236.253163 89.013 162.2245
237.965150 88.982 162.2237
239.689544 88.953 162.2206
241.426433 88.932 162.2693
243.175909 88.915 162.3989
244.938062 88.898 162.5724
246.712984 88.877 162.7508
248.500768 88.855 162.9550
250.301507 88.834 163.2278
252.115295 88.811 163.5301
253.942226 88.786 163.7878
255.782396 88.758 163.9888
257.635901 88.729 164.1389
259.502837 88.697 164.2289
261.383301 88.667 164.2514
263.277392 88.640 164.2265
265.185209 88.617 164.2039
267.106850 88.595 164.2421
269.042417 88.569 164.3489
270.992009 88.538 164.4879
272.955729 88.505 164.6185
274.933678 88.476 164.7159
276.925961 88.452 164.7986
278.932681 88.429 164.9121
280.953942 88.402 165.0645
282.989850 88.372 165.2160
285.040511 88.343 165.3346
287.106032 88.316 165.4383
289.186521 88.290 165.5501
291.282086 88.264 165.6589
293.392836 88.239 165.7530
295.518881 88.213 165.8479
297.660333 88.185 165.9624
299.817302 88.155 166.1020
301.989902 88.124 166.2589
304.178245 88.093 166.4236
306.382446 88.064 166.5839
308.602620 88.039 166.7381
310.838882 88.015 166.8952
313.091348 87.992 167.0606
315.360137 87.967 167.2239
317.645367 87.940 167.3717
319.947156 87.909 167.4983
322.265625 87.876 167.6119
324.600895 87.843 167.7341
326.953086 87.814 167.8762
329.322323 87.789 168.0356
331.708729 87.766 168.1967
334.112427 87.743 168.3537
336.533543 87.720 168.5155
338.972204 87.695 168.6915
341.428536 87.669 168.8755
343.902668 87.642 169.0556
346.394729 87.617 169.2270
348.904848 87.593 169.4098
351.433156 87.571 169.5886
353.979786 87.548 169.7599
356.544869 87.525 169.9509
359.128540 87.500 170.1461
361.730934 87.472 170.3457
364.352185 87.444 170.5771
366.992431 87.423 170.7697
369.651810 87.397 170.8614
372.330459 87.363 171.0135
375.028519 87.339 171.3628
377.746130 87.338 171.6969
380.483434 87.346 171.7904
383.240574 87.338 171.7354
386.017693 87.311 171.7059
388.814937 87.271 171.7759
391.632450 87.229 171.9597
394.470380 87.195 172.2200
397.328875 87.171 172.5110
400.208084 87.156 172.8149
403.108157 87.145 173.1431
406.029245 87.130 173.4970
408.971500 87.108 173.8403
411.935076 87.077 174.1193
414.920127 87.047 174.3187
417.926810 87.023 174.4860
420.955280 87.003 174.6899
424.005695 86.981 174.9233
427.078215 86.958 175.1447
430.173000 86.938 175.3607
433.290211 86.919 175.6031
436.430010 86.900 175.8701
439.592562 86.881 176.1253
442.778031 86.863 176.3707
445.986583 86.847 176.6207
449.218386 86.829 176.8535
452.473607 86.808 177.0616
455.752418 86.787 177.2835
459.054987 86.768 177.5168
462.381489 86.750 177.7628
465.732096 86.730 178.0305
469.106983 86.711 178.2927
472.506325 86.693 178.5392
475.930301 86.676 178.8015
479.379088 86.662 179.0733
482.852867 86.649 179.3281
486.351817 86.634 179.5801
489.876123 86.619 179.8441
493.425968 86.604 -179.8862
497.001536 86.590 -179.6128
500.603014 86.575 -179.3321
504.230589 86.560 -179.0480
507.884452 86.544 -178.7738
511.564792 86.527 -178.5055
515.271802 86.508 -178.2265
519.005673 86.489 -177.9314
522.766602 86.472 -177.6325
526.554785 86.459 -177.3342
530.370418 86.448 -177.0398
534.213700 86.440 -176.7477
538.084833 86.433 -176.4563
541.984018 86.422 -176.1652
545.911457 86.408 -175.8753
549.867357 86.391 -175.5834
553.851922 86.375 -175.2855
557.865362 86.363 -174.9791
561.907884 86.353 -174.6630
565.979700 86.344 -174.3456
570.081022 86.336 -174.0394
574.212064 86.328 -173.7391
578.373042 86.319 -173.4256
582.564171 86.309 -173.1064
586.785671 86.298 -172.7773
591.037762 86.288 -172.4453
595.320665 86.277 -172.1159
599.634604 86.268 -171.7888
603.979804 86.259 -171.4795
608.356491 86.250 -171.1796
612.764893 86.241 -170.8663
617.205240 86.233 -170.5392
621.677763 86.226 -170.2034
626.182696 86.219 -169.8561
630.720274 86.212 -169.4988
635.290733 86.205 -169.1401
639.894312 86.199 -168.7873
644.531250 86.194 -168.4372
649.201789 86.190 -168.0796
653.906173 86.185 -167.7134
658.644647 86.179 -167.3373
663.417457 86.173 -166.9500
668.224854 86.169 -166.5617
673.067086 86.167 -166.1844
677.944408 86.165 -165.8118
682.857073 86.165 -165.4369
687.805336 86.167 -165.0577
692.789457 86.168 -164.6700
697.809695 86.169 -164.2841
702.866312 86.167 -163.8861
707.959571 86.166 -163.4570
713.089738 86.168 -163.0402
718.257080 86.171 -162.6335
723.461867 86.176 -162.2305
728.704370 86.180 -161.8453
733.984862 86.185 -161.4566
739.303619 86.189 -161.0581
744.660918 86.193 -160.6490
750.057038 86.199 -160.2282
755.492260 86.206 -159.7929
760.966869 86.215 -159.3450
766.481148 86.225 -158.8944
772.035387 86.236 -158.4481
777.629873 86.248 -158.0021
783.264900 86.261 -157.5513
788.940760 86.275 -157.0989
794.657750 86.288 -156.6485
800.416168 86.302 -156.1972
806.216313 86.317 -155.7392
812.058489 86.335 -155.2744
817.943000 86.354 -154.8088
823.870152 86.374 -154.3447
829.840255 86.397 -153.8768
835.853619 86.420 -153.4067
841.910559 86.444 -152.9404
848.011390 86.469 -152.4782
854.156430 86.496 -152.0169
860.346000 86.524 -151.5544
866.580422 86.553 -151.0888
872.860020 86.582 -150.6170
879.185124 86.614 -150.1382
885.556062 86.647 -149.6579
891.973166 86.681 -149.1832
898.436771 86.716 -148.7148
904.947215 86.753 -148.2484
911.504835 86.792 -147.7829
918.109975 86.833 -147.3209
924.762978 86.876 -146.8678
931.464192 86.921 -146.4258
938.213966 86.966 -145.9856
945.012651 87.012 -145.5358
951.860602 87.058 -145.0809
958.758176 87.106 -144.6315
965.705733 87.157 -144.1944
972.703635 87.210 -143.7689
979.752246 87.266 -143.3535
986.851935 87.322 -142.9445
994.003071 87.379 -142.5407
1001.206027 87.437 -142.1422
1008.461179 87.495 -141.7489
1015.768904 87.555 -141.3610
1023.129584 87.615 -140.9788
1030.543603 87.678 -140.6044
1038.011347 87.741 -140.2403
1045.533205 87.805 -139.8889
1053.109569 87.871 -139.5509
1060.740836 87.937 -139.2251
1068.427401 88.003 -138.9090
1076.169666 88.069 -138.6010
1083.968035 88.134 -138.3009
1091.822915 88.200 -138.0096
1099.734713 88.266 -137.7256
1107.703844 88.332 -137.4472
1115.730723 88.400 -137.1767
1123.815768 88.469 -136.9171
1131.959400 88.539 -136.6685
1140.162045 88.608 -136.4311
1148.424129 88.675 -136.2069
1156.746083 88.743 -135.9924
1165.128342 88.811 -135.7814
1173.571343 88.878 -135.5730
1182.075524 88.945 -135.3714
1190.641331 89.011 -135.1796
1199.269209 89.077 -134.9953
1207.959608 89.144 -134.8190
1216.712981 89.210 -134.6531
1225.529785 89.277 -134.4933
1234.410479 89.342 -134.3360
1243.355526 89.406 -134.1807
1252.365393 89.470 -134.0284
1261.440549 89.533 -133.8787
1270.581467 89.596 -133.7321
1279.788624 89.658 -133.5901
1289.062500 89.720 -133.4534
1298.403578 89.782 -133.3217
1307.812346 89.843 -133.1951
1317.289293 89.905 -133.0728
1326.834914 89.965 -132.9529
1336.449707 90.025 -132.8331
1346.134173 90.085 -132.7106
1355.888816 90.144 -132.5840
1365.714145 90.202 -132.4562
1375.610673 90.260 -132.3313
1385.578915 90.319 -132.2108
1395.619391 90.377 -132.0945
1405.732624 90.436 -131.9804
1415.919142 90.494 -131.8663
1426.179476 90.552 -131.7507
1436.514160 90.609 -131.6322
1446.923734 90.666 -131.5110
1457.408740 90.723 -131.3876
1467.969724 90.780 -131.2629
1478.607238 90.836 -131.1388
1489.321836 90.893 -131.0130
1500.114076 90.951 -130.8842
1510.984521 91.011 -130.7573
1521.933737 91.073 -130.6366
1532.962297 91.135 -130.5240
1544.070773 91.197 -130.4181
1555.259747 91.258 -130.3078
1566.529800 91.318 -130.1816
1577.881521 91.378 -130.0387
1589.315501 91.438 -129.8906
1600.832336 91.497 -129.7515
1612.432627 91.558 -129.6269
1624.116978 91.620 -129.5110
1635.886000 91.684 -129.3949
1647.740304 91.748 -129.2716
1659.680509 91.812 -129.1409
1671.707238 91.875 -129.0098
1683.821118 91.939 -128.8815
1696.022780 92.003 -128.7531
1708.312860 92.068 -128.6252
1720.692000 92.134 -128.5009
1733.160843 92.201 -128.3813
1745.720041 92.269 -128.2654
1758.370248 92.339 -128.1512
1771.112124 92.409 -128.0374
1783.946332 92.480 -127.9240
1796.873543 92.551 -127.8120
1809.894429 92.622 -127.7024
1823.009670 92.695 -127.5952
1836.219950 92.769 -127.4910
1849.525956 92.844 -127.3921
1862.928384 92.920 -127.3014
1876.427931 92.997 -127.2176
1890.025301 93.076 -127.1384
1903.721204 93.155 -127.0623
1917.516352 93.235 -126.9897
1931.411466 93.316 -126.9216
1945.407270 93.397 -126.8579
1959.504493 93.479 -126.7998
1973.703870 93.562 -126.7490
1988.006142 93.647 -126.7068
2002.412054 93.733 -126.6747
2016.922357 93.820 -126.6517
2031.537808 93.909 -126.6363
2046.259169 93.998 -126.6288
2061.087206 94.088 -126.6297
2076.022694 94.178 -126.6399
2091.066410 94.269 -126.6588
2106.219139 94.361 -126.6863
2121.481671 94.454 -126.7246
2136.854802 94.549 -126.7767
2152.339333 94.644 -126.8443
2167.936071 94.741 -126.9255
2183.645829 94.838 -127.0184
2199.469427 94.936 -127.1239
2215.407689 95.034 -127.2435
2231.461446 95.132 -127.3778
2247.631536 95.230 -127.5251
2263.918800 95.329 -127.6850
2280.324089 95.428 -127.8604
2296.848258 95.527 -128.0544
2313.492167 95.627 -128.2672
2330.256685 95.728 -128.4969
2347.142685 95.829 -128.7424
2364.151049 95.929 -129.0048
2381.282662 96.029 -129.2850
2398.538418 96.128 -129.5831
2415.919216 96.226 -129.8985
2433.425962 96.324 -130.2313
2451.059570 96.421 -130.5837
2468.820958 96.518 -130.9575
2486.711052 96.614 -131.3523
2504.730786 96.709 -131.7665
2522.881098 96.804 -132.1999
2541.162934 96.896 -132.6532
2559.577248 96.987 -133.1263
2578.125000 97.076 -133.6175
2596.807157 97.162 -134.1255
2615.624692 97.246 -134.6516
2634.578586 97.328 -135.1982
2653.669829 97.408 -135.7653
2672.899414 97.486 -136.3509
2692.268345 97.562 -136.9526
2711.777632 97.635 -137.5700
2731.428290 97.704 -138.2030
2751.221345 97.770 -138.8501
2771.157829 97.832 -139.5087
2791.238781 97.891 -140.1772
2811.465248 97.945 -140.8569
2831.838284 97.997 -141.5490
2852.358952 98.045 -142.2524
2873.028321 98.089 -142.9642
2893.847468 98.130 -143.6812
2914.817480 98.167 -144.4029
2935.939449 98.200 -145.1287
2957.214476 98.228 -145.8564
2978.643672 98.251 -146.5830
3000.228152 98.271 -147.3068
3021.969041 98.286 -148.0281
3043.867475 98.297 -148.7466
3065.924593 98.304 -149.4600
3088.141547 98.308 -150.1652
3110.519493 98.308 -150.8610
3133.059600 98.304 -151.5465
3155.763041 98.297 -152.2195
3178.631001 98.285 -152.8760
3201.664672 98.270 -153.5139
3224.865254 98.252 -154.1326
3248.233957 98.230 -154.7308
3271.771999 98.206 -155.3064
3295.480608 98.180 -155.8561
3319.361019 98.154 -156.3775
3343.414477 98.127 -156.8703
3367.642236 98.101 -157.3357
3392.045560 98.077 -157.7757
3416.625721 98.054 -158.1945
3441.383999 98.034 -158.6002
3466.321686 98.017 -159.0037
3491.440082 98.003 -159.4156
3516.740496 97.991 -159.8436
3542.224247 97.980 -160.2913
3567.892664 97.968 -160.7592
3593.747085 97.955 -161.2449
3619.788858 97.939 -161.7423
3646.019340 97.920 -162.2431
3672.439900 97.897 -162.7401
3699.051913 97.871 -163.2296
3725.856768 97.842 -163.7110
3752.855862 97.811 -164.1841
3780.050603 97.778 -164.6485
3807.442408 97.746 -165.1037
3835.032705 97.713 -165.5504
3862.822933 97.679 -165.9905
3890.814540 97.646 -166.4247
3919.008986 97.612 -166.8533
3947.407741 97.577 -167.2783
3976.012284 97.542 -167.7029
4004.824108 97.506 -168.1307
4033.844715 97.469 -168.5633
4063.075616 97.432 -169.0006
4092.518337 97.393 -169.4439
4122.174412 97.354 -169.8941
4152.045387 97.312 -170.3511
4182.132820 97.269 -170.8113
4212.438278 97.222 -171.2705
4242.963342 97.173 -171.7259
4273.709604 97.120 -172.1754
4304.678665 97.065 -172.6175
4335.872141 97.008 -173.0510
4367.291658 96.950 -173.4767
4398.938854 96.891 -173.8979
4430.815378 96.832 -174.3198
4462.922893 96.772 -174.7460
4495.263072 96.711 -175.1780
4527.837601 96.647 -175.6156
4560.648179 96.580 -176.0592
4593.696515 96.509 -176.5076
4626.984334 96.432 -176.9570
4660.513370 96.350 -177.4002
4694.285371 96.263 -177.8291
4728.302098 96.171 -178.2336
4762.565324 96.075 -178.6018
4797.076835 95.978 -178.9241
4831.838432 95.884 -179.2031
4866.851925 95.795 -179.4642
4902.119140 95.711 -179.7487
4937.641916 95.625 179.9143
4973.422105 95.534 179.5315
5009.461572 95.432 179.1347
5045.762195 95.319 178.7547
5082.325868 95.199 178.4083
5119.154496 95.073 178.1018
5156.250000 94.943 177.8376
5193.614313 94.809 177.6167
5231.249383 94.671 177.4390
5269.157173 94.530 177.3038
5307.339658 94.386 177.2121
5345.798829 94.240 177.1657
5384.536691 94.091 177.1662
5423.555263 93.942 177.2144
5462.856580 93.792 177.3104
5502.442691 93.643 177.4541
5542.315659 93.495 177.6452
5582.477563 93.348 177.8830
5622.930497 93.202 178.1656
5663.676569 93.057 178.4918
5704.717904 92.914 178.8610
5746.056642 92.773 179.2736
5787.694937 92.633 179.7294
5829.634960 92.496 -179.7719
5871.878898 92.363 -179.2306
5914.428953 92.233 -178.6443
5957.287343 92.107 -178.0110
6000.456303 91.986 -177.3314
6043.938083 91.870 -176.6084
6087.734950 91.760 -175.8448
6131.849187 91.655 -175.0428
6176.283094 91.557 -174.2053
6221.038987 91.465 -173.3362
6266.119200 91.381 -172.4405
6311.526083 91.304 -171.5222
6357.262002 91.234 -170.5825
6403.329344 91.171 -169.6195
6449.730508 91.113 -168.6317
6496.467914 91.064 -167.6229
6543.543998 91.022 -166.5972
6590.961215 90.990 -165.5533
6638.722037 90.967 -164.4893
6686.828954 90.954 -163.4061
6735.284473 90.952 -162.3067
6784.091120 90.961 -161.1946
6833.251441 90.983 -160.0727
6882.767998 91.019 -158.9435
6932.643372 91.069 -157.8123
6982.880164 91.134 -156.6872
7033.480992 91.215 -155.5768
7084.448495 91.312 -154.4834
7135.785329 91.423 -153.4081
7187.494171 91.549 -152.3610
7239.577717 91.694 -151.3564
7292.038681 91.858 -150.4067
7344.879799 92.042 -149.5236
7398.103826 92.248 -148.7213
7451.713536 92.476 -148.0178
7505.711724 92.726 -147.4333
7560.101205 93.000 -146.9903
7614.884815 93.297 -146.7165
7670.065409 93.618 -146.6457
7725.645865 93.962 -146.8188
7781.629080 94.328 -147.2807
7838.017972 94.712 -148.0807
7894.815481 95.108 -149.2693
7952.024569 95.507 -150.8949
8009.648217 95.899 -152.9996
8067.689429 96.267 -155.6122
8126.151233 96.594 -158.7425
8185.036674 96.862 -162.3679
8244.348824 97.054 -166.4267
8304.090774 97.153 -170.8183
8364.265639 97.149 -175.4121
8424.876556 97.038 179.9339
8485.926684 96.820 175.3659
8547.419207 96.503 171.0226
8609.357330 96.097 167.0184
8671.744282 95.615 163.4353
8734.583316 95.072 160.3267
8797.877707 94.484 157.7218
8861.630756 93.866 155.6282
8925.845785 93.232 154.0328
8990.526143 92.593 152.9065
9055.675202 91.959 152.2112
9121.296357 91.338 151.9048
9187.393031 90.734 151.9466
9253.968668 90.151 152.2996
9321.026740 89.591 152.9285
9388.570742 89.054 153.7956
9456.604196 88.544 154.8640
9525.130648 88.060 156.1064
9594.153671 87.605 157.5013
9663.676863 87.176 159.0284
9733.703850 86.773 160.6693
9804.238280 86.395 162.4081
9875.283832 86.043 164.2330
9946.844210 85.713 166.1344
10018.923143 85.407 168.1029
10091.524390 85.123 170.1295
10164.651736 84.860 172.2061
10238.308993 84.620 174.3268
10312.500000 84.402 176.4857
10387.228626 84.206 178.6729
10462.498767 84.033 -179.1226
10538.314345 83.882 -176.9090
10614.679315 83.753 -174.6920
10691.597657 83.644 -172.4745
10769.073381 83.556 -170.2575
10847.110526 83.488 -168.0430
10925.713161 83.442 -165.8339
11004.885382 83.419 -163.6344
11084.631318 83.420 -161.4510
11164.955126 83.446 -159.2933
11245.860993 83.499 -157.1735
11327.353138 83.581 -155.1043
11409.435808 83.693 -153.0993
11492.113283 83.837 -151.1757
11575.389873 84.015 -149.3567
11659.269920 84.229 -147.6721
11743.757796 84.484 -146.1621
11828.857906 84.784 -144.8843
11914.574686 85.135 -143.9281
12000.912606 85.542 -143.4340
12087.876166 86.007 -143.6208
12175.469900 86.519 -144.8101
12263.698373 87.032 -147.4101
12352.566187 87.451 -151.7898
12442.077974 87.606 -157.9248
12532.238400 87.283 -164.6518
12623.052165 86.347 -168.2027
12714.524005 85.100 -160.6513
12806.658687 84.552 -140.1671
12899.461015 85.279 -126.2347
12992.935827 86.580 -123.2867
13087.087996 87.834 -125.3369
13181.922430 88.877 -129.3905
13277.444074 89.705 -134.4014
13373.657907 90.335 -139.9743
13470.568945 90.777 -145.8747
13568.182241 91.040 -151.8790
13666.502883 91.133 -157.7549
13765.535996 91.077 -163.2912
13865.286744 90.900 -168.3190
13965.760328 90.638 -172.7315
14066.961984 90.326 -176.4893
14168.896989 89.998 -179.6093
14271.570658 89.681 177.8450
14374.988342 89.396 175.7784
14479.155433 89.160 174.0787
14584.077362 88.984 172.6246
14689.759598 88.877 171.2917
14796.207652 88.847 169.9531
14903.427072 88.895 168.4773
15011.423448 89.024 166.7230
15120.202410 89.229 164.5370
15229.769630 89.502 161.7568
15340.130819 89.826 158.2148
15451.291730 90.172 153.7579
15563.258160 90.502 148.2772
15676.035944 90.769 141.7449
15789.630962 90.920 134.2444
15904.049137 90.911 125.9856
16019.296433 90.707 117.2903
16135.378859 90.300 108.5363
16252.302465 89.702 100.0812
16370.073348 88.946 92.1937
16488.697648 88.076 85.0159
16608.181548 87.139 78.5626
16728.531278 86.174 72.7445
16849.753112 85.211 67.4066
16971.853368 84.265 62.3723
17094.838414 83.340 57.4773
17218.714660 82.429 52.5901
17343.488565 81.517 47.6223
17469.166632 80.585 42.5388
17595.755415 79.615 37.3614
17723.261512 78.588 32.1606
17851.691571 77.494 27.0399
17981.052287 76.327 22.1151
18111.350404 75.088 17.5000
18242.592715 73.785 13.3016
18374.786062 72.432 9.6023
18507.937336 71.045 6.4539
18642.053479 69.639 3.8831
18777.141484 68.232 1.8873
18913.208391 66.839 0.4392
19050.261296 65.476 -0.5028
19188.307342 64.161 -0.9856
19327.353727 62.911 -1.0879
19467.407699 61.746 -0.9380
19608.476560 60.693 -0.7088
19750.567664 59.799 -0.5867
19893.688419 59.137 -0.7036
20037.846286 58.793 -0.9686
