* Measurement data measured by REW V5.31
* Source: Headset (CX31993 HIFI AUDIO), MICROPHONE (Master Volume), R, volume: 0.600
* Format: 256k Log Swept Sine, 1 sweep at -12.0 dBFS with no timing reference
* Dated: May 7, 2024 12:39:38 PM
* REW Settings:
*  C-weighting compensation: Off
*  Target level: 75.0 dB
* Note: ; 
* Measurement: Moondrop DUSK  M1 L
* Smoothing: 1/24 octave
* Frequency Step: 96 ppo
* Start Frequency: 20.141602 Hz
*
* Freq(Hz) SPL(dB) Phase(degrees)
20.141602 91.358 -155.6829
20.287556 91.298 -156.2383
20.434568 91.211 -156.9564
20.582645 91.116 -157.5948
20.731796 91.031 -158.0287
20.882027 90.981 -158.2059
21.033346 90.988 -158.1259
21.185763 91.067 -157.8647
21.339284 91.230 -157.5420
21.493917 91.471 -157.2836
21.649671 91.775 -157.2351
21.806553 92.120 -157.4840
21.964572 92.474 -158.0758
22.123737 92.809 -159.0143
22.284054 93.101 -160.2427
22.445534 93.327 -161.6843
22.608183 93.474 -163.2495
22.772012 93.532 -164.8167
22.937027 93.498 -166.2863
23.103238 93.374 -167.5310
23.270654 93.169 -168.4417
23.439282 92.901 -168.9254
23.609133 92.593 -168.9093
23.780215 92.276 -168.3940
23.952536 91.984 -167.4459
24.126106 91.744 -166.2136
24.300934 91.576 -164.9230
24.477028 91.478 -163.7863
24.654399 91.436 -162.9908
24.833055 91.428 -162.6044
25.013005 91.427 -162.6340
25.194260 91.415 -163.0128
25.376828 91.383 -163.6120
25.560719 91.328 -164.3133
25.745942 91.261 -165.0027
25.932508 91.193 -165.6252
26.120426 91.141 -166.1767
26.309705 91.112 -166.7036
26.500356 91.110 -167.2904
26.692388 91.126 -168.0048
26.885812 91.142 -168.8873
27.080638 91.140 -169.9057
27.276876 91.105 -170.9659
27.474535 91.028 -171.9139
27.673627 90.917 -172.5650
27.874161 90.795 -172.7442
28.076149 90.697 -172.3410
28.279600 90.672 -171.3855
28.484526 90.755 -170.0600
28.690937 90.959 -168.7062
28.898843 91.261 -167.6611
29.108256 91.612 -167.1870
29.319186 91.953 -167.3587
29.531645 92.230 -168.1164
29.745644 92.405 -169.2814
29.961193 92.458 -170.6464
30.178304 92.386 -171.9679
30.396989 92.202 -173.0455
30.617258 91.936 -173.7114
30.839123 91.633 -173.8991
31.062596 91.342 -173.6540
31.287688 91.111 -173.1714
31.514412 90.964 -172.7135
31.742778 90.903 -172.5403
31.972800 90.902 -172.7980
32.204488 90.930 -173.4840
32.437855 90.957 -174.4639
32.672913 90.967 -175.5371
32.909674 90.957 -176.5065
33.148151 90.935 -177.2157
33.388356 90.912 -177.6057
33.630302 90.901 -177.7048
33.874001 90.905 -177.6225
34.119466 90.920 -177.4895
34.366710 90.932 -177.4209
34.615745 90.928 -177.4858
34.866585 90.899 -177.6960
35.119243 90.843 -178.0254
35.373731 90.766 -178.4254
35.630064 90.678 -178.8506
35.888254 90.593 -179.2674
36.148315 90.524 -179.6576
36.410261 90.477 179.9829
36.674104 90.455 179.6505
36.939860 90.454 179.3381
37.207542 90.465 179.0392
37.477163 90.477 178.7534
37.748738 90.478 178.4926
38.022281 90.456 178.2867
38.297806 90.406 178.1855
38.575327 90.330 178.2462
38.854860 90.239 178.5131
39.136419 90.151 178.9921
39.420017 90.092 179.6227
39.705671 90.076 -179.7171
39.993395 90.108 -179.1749
40.283203 90.179 -178.8768
40.575112 90.265 -178.8859
40.869136 90.343 -179.1880
41.165290 90.392 -179.7175
41.463591 90.400 179.6111
41.764053 90.360 178.8851
42.066693 90.267 178.1941
42.371525 90.128 177.6429
42.678567 89.955 177.3620
42.987834 89.780 177.4863
43.299341 89.654 178.0921
43.613106 89.640 179.1005
43.929145 89.784 -179.7843
44.247473 90.085 -178.9971
44.568109 90.484 -178.8942
44.891068 90.893 -179.5839
45.216367 91.229 179.0758
45.544023 91.436 177.3757
45.874054 91.487 175.6509
46.206476 91.391 174.2043
46.541307 91.179 173.2441
46.878565 90.904 172.8336
47.218266 90.621 172.8710
47.560429 90.374 173.1370
47.905072 90.184 173.4070
48.252212 90.046 173.5570
48.601867 89.948 173.5935
48.954056 89.878 173.6002
49.308798 89.833 173.6479
49.666109 89.815 173.7285
50.026010 89.823 173.7501
50.388520 89.849 173.5975
50.753656 89.873 173.2185
51.121437 89.879 172.6813
51.491884 89.857 172.1639
51.865016 89.814 171.8741
52.240851 89.773 171.9337
52.619410 89.757 172.2916
53.000712 89.774 172.7414
53.384777 89.812 173.0491
53.771625 89.848 173.0985
54.161276 89.869 172.9382
54.553751 89.888 172.7087
54.949070 89.928 172.5197
55.347254 90.009 172.3692
55.748323 90.128 172.1534
56.152298 90.261 171.7311
56.559201 90.378 170.9676
56.969052 90.459 169.7419
57.381873 90.491 167.9762
57.797686 90.462 165.7294
58.216512 90.364 163.2998
58.638373 90.204 161.2254
59.063291 90.015 160.1042
59.491288 89.860 160.2659
59.922386 89.788 161.4971
60.356608 89.786 163.1525
60.793977 89.788 164.6469
61.234515 89.732 165.8038
61.678246 89.619 166.7339
62.125192 89.508 167.4775
62.575377 89.463 167.8202
63.028824 89.487 167.5057
63.485557 89.521 166.5830
63.945599 89.512 165.4500
64.408975 89.451 164.5740
64.875709 89.368 164.1954
65.345825 89.288 164.2814
65.819348 89.208 164.7131
66.296302 89.112 165.4263
66.776713 89.004 166.3043
67.260604 88.899 167.0409
67.748002 88.807 167.2836
68.238932 88.760 166.9241
68.733420 88.839 166.1003
69.231490 89.123 164.8933
69.733170 89.568 163.2358
70.238485 89.988 161.2610
70.747463 90.191 159.5475
71.260128 90.097 158.8724
71.776508 89.775 159.6733
72.296630 89.383 161.4861
72.820521 89.051 163.0741
73.348209 88.813 163.5395
73.879720 88.656 163.0895
74.415083 88.589 162.5256
74.954326 88.620 162.3383
75.497475 88.697 162.4688
76.044561 88.748 162.6740
76.595612 88.734 162.8031
77.150655 88.671 162.7902
77.709720 88.602 162.6225
78.272837 88.557 162.3763
78.840034 88.544 162.1778
79.411342 88.547 162.0756
79.986789 88.535 162.0019
80.566406 88.479 161.8702
81.150224 88.380 161.6660
81.738272 88.268 161.4462
82.330581 88.183 161.2993
82.927182 88.150 161.3295
83.528107 88.163 161.6009
84.133386 88.200 162.0017
84.743051 88.229 162.2122
85.357134 88.211 161.9572
85.975667 88.136 161.2881
86.598682 88.036 160.5644
87.226212 87.966 160.1708
87.858289 87.941 160.3176
88.494946 87.937 160.9806
89.136217 87.933 161.8119
89.782135 87.913 162.2035
90.432733 87.857 161.7653
91.088046 87.767 160.7628
91.748108 87.689 159.8680
92.412952 87.669 159.4973
93.082615 87.698 159.5623
93.757130 87.722 159.7889
94.436533 87.713 159.9924
95.120859 87.680 160.0890
95.810144 87.641 160.1189
96.504423 87.607 160.2059
97.203734 87.583 160.3384
97.908112 87.557 160.2994
98.617595 87.511 159.9166
99.332219 87.442 159.2742
100.052021 87.368 158.6521
100.777039 87.306 158.3454
101.507311 87.263 158.4878
102.242875 87.239 158.9278
102.983769 87.232 159.3003
103.730032 87.236 159.3022
104.481702 87.244 158.9202
105.238820 87.253 158.4218
106.001424 87.265 158.1525
106.769554 87.281 158.3188
107.543250 87.282 158.9174
108.322553 87.219 159.7475
109.107503 87.068 160.3538
109.898141 86.891 160.1457
110.694508 86.846 159.0543
111.496646 87.029 158.1758
112.304596 87.306 159.0148
113.118402 87.409 161.8304
113.938104 87.163 165.0335
114.763747 86.578 166.0566
115.595372 85.903 163.5735
116.433024 85.606 159.7328
117.276746 85.926 158.0729
118.126581 86.537 158.8391
118.982575 87.010 160.4499
119.844772 87.160 162.1752
120.713217 86.987 163.5704
121.587954 86.584 163.4148
122.469031 86.160 160.5625
123.356492 86.045 156.2180
124.250384 86.346 153.7234
125.150753 86.754 154.6022
126.057647 86.942 157.3322
126.971113 86.826 159.5427
127.891198 86.573 159.9124
128.817950 86.451 158.5706
129.751418 86.503 157.4231
130.691651 86.602 158.3570
131.638696 86.616 160.4431
132.592604 86.459 161.6910
133.553425 86.241 161.4044
134.521208 86.132 160.3788
135.496004 86.156 160.3483
136.477864 86.240 161.3912
137.466839 86.283 161.6661
138.462981 86.238 160.7193
139.466340 86.163 160.2123
140.476971 86.121 160.8989
141.494925 86.054 161.4110
142.520256 85.904 161.1778
143.553016 85.772 161.4205
144.593260 85.771 162.3004
145.641043 85.818 162.0222
146.696418 85.773 160.1489
147.759441 85.664 158.9581
148.830166 85.638 159.8961
149.908651 85.732 161.2594
150.994951 85.865 161.4672
152.089123 85.958 160.9973
153.191223 85.943 160.5550
154.301310 85.798 160.0314
155.419441 85.572 159.4535
156.545674 85.311 159.4457
157.680069 85.078 160.2823
158.822683 84.993 161.4267
159.973578 85.108 162.2242
161.132813 85.311 162.3447
162.300447 85.493 161.7088
163.476543 85.635 160.6011
164.661162 85.724 159.6577
165.854364 85.725 159.2864
167.056213 85.621 159.4040
168.266772 85.439 159.6174
169.486102 85.260 159.5540
170.714268 85.164 159.3559
171.951334 85.167 159.4534
173.197364 85.237 159.8599
174.452424 85.346 160.4021
175.716578 85.464 161.1934
176.989893 85.514 162.2772
178.272434 85.430 163.3141
179.564270 85.252 163.8814
180.865467 85.101 163.9321
182.176092 85.048 164.0299
183.496216 85.053 164.6193
184.825905 85.046 165.4507
186.165229 85.011 165.9728
187.514259 84.963 165.9106
188.873065 84.916 165.4789
190.241717 84.872 165.3007
191.620287 84.790 165.7126
193.008847 84.661 165.8971
194.407468 84.581 165.0590
195.816225 84.626 164.0786
197.235190 84.723 164.0413
198.664438 84.782 164.6149
200.104042 84.784 165.3143
201.554078 84.728 166.0223
203.014622 84.631 166.4400
204.485750 84.541 166.5696
205.967538 84.496 166.8003
207.460064 84.496 167.1564
208.963405 84.522 167.2971
210.477640 84.553 167.1632
212.002848 84.578 167.0023
213.539108 84.581 167.0087
215.086500 84.563 167.0797
216.645105 84.542 167.1117
218.215005 84.532 167.1615
219.796281 84.526 167.2574
221.389015 84.517 167.3947
222.993292 84.504 167.5764
224.609193 84.489 167.7559
226.236804 84.473 167.8603
227.876209 84.456 167.9178
229.527494 84.437 167.9850
231.190745 84.424 168.0905
232.866048 84.417 168.2299
234.553491 84.405 168.4211
236.253163 84.392 168.6483
237.965150 84.379 168.8715
239.689544 84.374 169.1022
241.426433 84.379 169.3276
243.175909 84.393 169.4962
244.938062 84.411 169.5817
246.712984 84.423 169.6288
248.500768 84.427 169.7556
250.301507 84.438 170.2026
252.115295 84.477 170.9044
253.942226 84.525 171.4655
255.782396 84.540 171.7691
257.635901 84.508 171.9056
259.502837 84.443 171.8312
261.383301 84.370 171.5168
263.277392 84.313 171.0820
265.185209 84.280 170.8361
267.106850 84.265 171.0242
269.042417 84.249 171.4539
270.992009 84.213 171.6630
272.955729 84.166 171.5199
274.933678 84.130 171.3408
276.925961 84.116 171.3541
278.932681 84.108 171.4207
280.953942 84.103 171.4344
282.989850 84.102 171.5551
285.040511 84.095 171.7772
287.106032 84.085 171.9188
289.186521 84.080 172.0657
291.282086 84.076 172.2822
293.392836 84.074 172.4901
295.518881 84.068 172.6693
297.660333 84.052 172.7801
299.817302 84.036 172.9255
301.989902 84.025 173.1508
304.178245 84.023 173.3788
306.382446 84.023 173.5080
308.602620 84.020 173.5371
310.838882 84.010 173.5458
313.091348 83.990 173.5961
315.360137 83.968 173.7437
317.645367 83.950 173.9456
319.947156 83.940 174.1546
322.265625 83.938 174.3936
324.600895 83.941 174.5917
326.953086 83.946 174.7181
329.322323 83.952 174.8263
331.708729 83.963 174.9677
334.112427 83.975 175.1210
336.533543 83.976 175.2144
338.972204 83.961 175.3188
341.428536 83.937 175.5118
343.902668 83.923 175.8379
346.394729 83.938 176.2436
348.904848 83.986 176.5919
351.433156 84.055 176.7297
353.979786 84.126 176.6523
356.544869 84.180 176.4856
359.128540 84.203 176.3705
361.730934 84.194 176.3496
364.352185 84.166 176.4624
366.992431 84.136 176.7256
369.651810 84.106 177.1034
372.330459 84.069 177.4969
375.028519 84.023 177.8031
377.746130 83.975 177.8811
380.483434 83.945 177.7679
383.240574 83.939 177.6606
386.017693 83.949 177.6833
388.814937 83.964 177.8171
391.632450 83.973 178.0379
394.470380 83.970 178.2632
397.328875 83.962 178.3773
400.208084 83.961 178.4476
403.108157 83.964 178.5691
406.029245 83.965 178.7027
408.971500 83.963 178.7989
411.935076 83.961 178.8737
414.920127 83.960 178.9646
417.926810 83.959 179.0739
420.955280 83.958 179.2006
424.005695 83.959 179.3420
427.078215 83.964 179.4818
430.173000 83.972 179.6008
433.290211 83.978 179.6902
436.430010 83.982 179.7471
439.592562 83.981 179.7910
442.778031 83.974 179.8489
445.986583 83.961 179.9274
449.218386 83.946 -179.9785
452.473607 83.932 -179.8568
455.752418 83.923 -179.7029
459.054987 83.919 -179.5388
462.381489 83.917 -179.3709
465.732096 83.917 -179.1877
469.106983 83.918 -178.9943
472.506325 83.924 -178.8256
475.930301 83.935 -178.7323
479.379088 83.947 -178.7155
482.852867 83.955 -178.7442
486.351817 83.952 -178.7713
489.876123 83.937 -178.7440
493.425968 83.915 -178.6424
497.001536 83.894 -178.4889
500.603014 83.878 -178.3238
504.230589 83.871 -178.1617
507.884452 83.868 -178.0044
511.564792 83.868 -177.8476
515.271802 83.868 -177.6555
519.005673 83.872 -177.4393
522.766602 83.878 -177.2523
526.554785 83.881 -177.1163
530.370418 83.878 -176.9945
534.213700 83.876 -176.8521
538.084833 83.875 -176.6842
541.984018 83.875 -176.5316
545.911457 83.875 -176.3941
549.867357 83.874 -176.2632
553.851922 83.872 -176.1267
557.865362 83.871 -175.9744
561.907884 83.871 -175.8257
565.979700 83.871 -175.6777
570.081022 83.872 -175.5385
574.212064 83.873 -175.3876
578.373042 83.872 -175.2216
582.564171 83.871 -175.0584
586.785671 83.868 -174.9007
591.037762 83.866 -174.7315
595.320665 83.865 -174.5463
599.634604 83.864 -174.3607
603.979804 83.864 -174.1867
608.356491 83.865 -174.0295
612.764893 83.867 -173.8802
617.205240 83.867 -173.7289
621.677763 83.866 -173.5660
626.182696 83.865 -173.3897
630.720274 83.865 -173.2016
635.290733 83.866 -173.0032
639.894312 83.868 -172.8026
644.531250 83.870 -172.6116
649.201789 83.871 -172.4129
653.906173 83.874 -172.2151
658.644647 83.878 -172.0589
663.417457 83.879 -171.9253
668.224854 83.876 -171.7560
673.067086 83.875 -171.5303
677.944408 83.877 -171.2705
682.857073 83.884 -171.0071
687.805336 83.893 -170.7631
692.789457 83.901 -170.5480
697.809695 83.908 -170.3574
702.866312 83.914 -170.1756
707.959571 83.919 -169.9785
713.089738 83.924 -169.7541
718.257080 83.928 -169.5137
723.461867 83.932 -169.2706
728.704370 83.935 -169.0325
733.984862 83.940 -168.7958
739.303619 83.946 -168.5535
744.660918 83.954 -168.3027
750.057038 83.964 -168.0504
755.492260 83.974 -167.8061
760.966869 83.986 -167.5634
766.481148 83.998 -167.3071
772.035387 84.010 -167.0389
777.629873 84.023 -166.7753
783.264900 84.037 -166.5105
788.940760 84.053 -166.2406
794.657750 84.071 -165.9693
800.416168 84.091 -165.6990
806.216313 84.110 -165.4249
812.058489 84.129 -165.1473
817.943000 84.147 -164.8774
823.870152 84.167 -164.6132
829.840255 84.189 -164.3513
835.853619 84.213 -164.0889
841.910559 84.239 -163.8117
848.011390 84.266 -163.5151
854.156430 84.295 -163.2223
860.346000 84.321 -162.9460
866.580422 84.345 -162.6676
872.860020 84.370 -162.3645
879.185124 84.402 -162.0610
885.556062 84.439 -161.7841
891.973166 84.479 -161.5359
898.436771 84.516 -161.2937
904.947215 84.552 -161.0312
911.504835 84.589 -160.7480
918.109975 84.627 -160.4630
924.762978 84.666 -160.1842
931.464192 84.708 -159.9118
938.213966 84.754 -159.6489
945.012651 84.802 -159.4006
951.860602 84.850 -159.1711
958.758176 84.896 -158.9505
965.705733 84.942 -158.7167
972.703635 84.989 -158.4621
979.752246 85.038 -158.2163
986.851935 85.087 -158.0096
994.003071 85.139 -157.8292
1001.206027 85.193 -157.6521
1008.461179 85.249 -157.4754
1015.768904 85.308 -157.2997
1023.129584 85.367 -157.1270
1030.543603 85.426 -156.9724
1038.011347 85.485 -156.8426
1045.533205 85.546 -156.7225
1053.109569 85.608 -156.5997
1060.740836 85.668 -156.4820
1068.427401 85.729 -156.3779
1076.169666 85.790 -156.2841
1083.968035 85.851 -156.2015
1091.822915 85.913 -156.1293
1099.734713 85.975 -156.0670
1107.703844 86.037 -156.0146
1115.730723 86.099 -155.9702
1123.815768 86.160 -155.9356
1131.959400 86.219 -155.9108
1140.162045 86.278 -155.8972
1148.424129 86.336 -155.8926
1156.746083 86.395 -155.9018
1165.128342 86.454 -155.9314
1173.571343 86.513 -155.9781
1182.075524 86.570 -156.0283
1190.641331 86.627 -156.0784
1199.269209 86.683 -156.1307
1207.959608 86.738 -156.1828
1216.712981 86.792 -156.2370
1225.529785 86.844 -156.3042
1234.410479 86.896 -156.3848
1243.355526 86.948 -156.4739
1252.365393 86.999 -156.5671
1261.440549 87.049 -156.6590
1270.581467 87.098 -156.7480
1279.788624 87.145 -156.8399
1289.062500 87.192 -156.9400
1298.403578 87.237 -157.0476
1307.812346 87.282 -157.1580
1317.289293 87.325 -157.2672
1326.834914 87.367 -157.3748
1336.449707 87.409 -157.4822
1346.134173 87.449 -157.5884
1355.888816 87.489 -157.6936
1365.714145 87.530 -157.8018
1375.610673 87.570 -157.9164
1385.578915 87.609 -158.0364
1395.619391 87.648 -158.1563
1405.732624 87.685 -158.2702
1415.919142 87.721 -158.3748
1426.179476 87.756 -158.4728
1436.514160 87.790 -158.5699
1446.923734 87.825 -158.6709
1457.408740 87.860 -158.7777
1467.969724 87.895 -158.8892
1478.607238 87.930 -159.0011
1489.321836 87.964 -159.1084
1500.114076 87.998 -159.2071
1510.984521 88.030 -159.2974
1521.933737 88.061 -159.3836
1532.962297 88.092 -159.4694
1544.070773 88.124 -159.5553
1555.259747 88.155 -159.6430
1566.529800 88.187 -159.7342
1577.881521 88.220 -159.8265
1589.315501 88.252 -159.9153
1600.832336 88.284 -159.9985
1612.432627 88.316 -160.0785
1624.116978 88.348 -160.1578
1635.886000 88.379 -160.2358
1647.740304 88.411 -160.3119
1659.680509 88.442 -160.3868
1671.707238 88.475 -160.4614
1683.821118 88.507 -160.5364
1696.022780 88.540 -160.6118
1708.312860 88.574 -160.6876
1720.692000 88.607 -160.7638
1733.160843 88.641 -160.8399
1745.720041 88.675 -160.9149
1758.370248 88.709 -160.9878
1771.112124 88.742 -161.0588
1783.946332 88.776 -161.1290
1796.873543 88.811 -161.2000
1809.894429 88.846 -161.2746
1823.009670 88.883 -161.3545
1836.219950 88.920 -161.4392
1849.525956 88.957 -161.5276
1862.928384 88.994 -161.6166
1876.427931 89.030 -161.7019
1890.025301 89.067 -161.7824
1903.721204 89.104 -161.8613
1917.516352 89.142 -161.9445
1931.411466 89.180 -162.0357
1945.407270 89.220 -162.1350
1959.504493 89.260 -162.2401
1973.703870 89.301 -162.3496
1988.006142 89.341 -162.4631
2002.412054 89.382 -162.5776
2016.922357 89.422 -162.6922
2031.537808 89.462 -162.8099
2046.259169 89.502 -162.9336
2061.087206 89.543 -163.0631
2076.022694 89.584 -163.1982
2091.066410 89.626 -163.3395
2106.219139 89.668 -163.4875
2121.481671 89.711 -163.6430
2136.854802 89.754 -163.8067
2152.339333 89.797 -163.9770
2167.936071 89.839 -164.1511
2183.645829 89.881 -164.3286
2199.469427 89.922 -164.5115
2215.407689 89.963 -164.7009
2231.461446 90.004 -164.8982
2247.631536 90.045 -165.1046
2263.918800 90.087 -165.3207
2280.324089 90.129 -165.5463
2296.848258 90.171 -165.7808
2313.492167 90.213 -166.0220
2330.256685 90.253 -166.2678
2347.142685 90.292 -166.5180
2364.151049 90.331 -166.7746
2381.282662 90.369 -167.0404
2398.538418 90.407 -167.3182
2415.919216 90.446 -167.6095
2433.425962 90.484 -167.9145
2451.059570 90.523 -168.2324
2468.820958 90.560 -168.5617
2486.711052 90.597 -168.9011
2504.730786 90.631 -169.2508
2522.881098 90.663 -169.6120
2541.162934 90.694 -169.9862
2559.577248 90.722 -170.3731
2578.125000 90.749 -170.7714
2596.807157 90.774 -171.1791
2615.624692 90.798 -171.5962
2634.578586 90.820 -172.0212
2653.669829 90.841 -172.4516
2672.899414 90.861 -172.8904
2692.268345 90.879 -173.3425
2711.777632 90.895 -173.8053
2731.428290 90.907 -174.2690
2751.221345 90.915 -174.7259
2771.157829 90.919 -175.1774
2791.238781 90.919 -175.6328
2811.465248 90.917 -176.0973
2831.838284 90.913 -176.5670
2852.358952 90.907 -177.0373
2873.028321 90.897 -177.5053
2893.847468 90.884 -177.9696
2914.817480 90.867 -178.4293
2935.939449 90.847 -178.8837
2957.214476 90.823 -179.3327
2978.643672 90.797 -179.7770
3000.228152 90.768 179.7840
3021.969041 90.738 179.3538
3043.867475 90.705 178.9329
3065.924593 90.670 178.5189
3088.141547 90.634 178.1113
3110.519493 90.594 177.7133
3133.059600 90.550 177.3325
3155.763041 90.502 176.9748
3178.631001 90.451 176.6352
3201.664672 90.400 176.3047
3224.865254 90.349 175.9768
3248.233957 90.298 175.6534
3271.771999 90.247 175.3425
3295.480608 90.196 175.0471
3319.361019 90.144 174.7654
3343.414477 90.090 174.4949
3367.642236 90.036 174.2335
3392.045560 89.980 173.9823
3416.625721 89.922 173.7444
3441.383999 89.864 173.5231
3466.321686 89.804 173.3185
3491.440082 89.744 173.1280
3516.740496 89.685 172.9493
3542.224247 89.626 172.7828
3567.892664 89.568 172.6293
3593.747085 89.510 172.4884
3619.788858 89.452 172.3593
3646.019340 89.393 172.2422
3672.439900 89.333 172.1374
3699.051913 89.273 172.0434
3725.856768 89.213 171.9592
3752.855862 89.154 171.8829
3780.050603 89.098 171.8127
3807.442408 89.042 171.7499
3835.032705 88.987 171.6995
3862.822933 88.932 171.6666
3890.814540 88.875 171.6514
3919.008986 88.819 171.6492
3947.407741 88.763 171.6573
3976.012284 88.710 171.6752
4004.824108 88.659 171.7039
4033.844715 88.610 171.7432
4063.075616 88.564 171.7908
4092.518337 88.521 171.8469
4122.174412 88.478 171.9119
4152.045387 88.438 171.9844
4182.132820 88.399 172.0629
4212.438278 88.363 172.1450
4242.963342 88.329 172.2284
4273.709604 88.299 172.3114
4304.678665 88.273 172.3945
4335.872141 88.249 172.4780
4367.291658 88.228 172.5591
4398.938854 88.210 172.6337
4430.815378 88.195 172.7009
4462.922893 88.185 172.7625
4495.263072 88.177 172.8172
4527.837601 88.173 172.8607
4560.648179 88.171 172.8886
4593.696515 88.173 172.8979
4626.984334 88.178 172.8878
4660.513370 88.186 172.8553
4694.285371 88.199 172.7945
4728.302098 88.216 172.6987
4762.565324 88.236 172.5625
4797.076835 88.258 172.3824
4831.838432 88.279 172.1570
4866.851925 88.300 171.8843
4902.119140 88.317 171.5625
4937.641916 88.331 171.1921
4973.422105 88.342 170.7767
5009.461572 88.347 170.3219
5045.762195 88.346 169.8334
5082.325868 88.339 169.3203
5119.154496 88.325 168.7957
5156.250000 88.302 168.2731
5193.614313 88.270 167.7632
5231.249383 88.232 167.2726
5269.157173 88.187 166.8038
5307.339658 88.139 166.3569
5345.798829 88.089 165.9315
5384.536691 88.038 165.5266
5423.555263 87.986 165.1420
5462.856580 87.933 164.7769
5502.442691 87.878 164.4271
5542.315659 87.822 164.0868
5582.477563 87.764 163.7542
5622.930497 87.704 163.4277
5663.676569 87.644 163.1039
5704.717904 87.581 162.7799
5746.056642 87.518 162.4562
5787.694937 87.451 162.1338
5829.634960 87.382 161.8109
5871.878898 87.308 161.4849
5914.428953 87.231 161.1555
5957.287343 87.147 160.8226
6000.456303 87.057 160.4867
6043.938083 86.958 160.1512
6087.734950 86.849 159.8237
6131.849187 86.726 159.5131
6176.283094 86.589 159.2325
6221.038987 86.435 159.0018
6266.119200 86.266 158.8492
6311.526083 86.080 158.8091
6357.262002 85.880 158.9188
6403.329344 85.670 159.2135
6449.730508 85.455 159.7241
6496.467914 85.241 160.4679
6543.543998 85.037 161.4401
6590.961215 84.851 162.6136
6638.722037 84.689 163.9470
6686.828954 84.555 165.3929
6735.284473 84.450 166.9053
6784.091120 84.373 168.4462
6833.251441 84.319 169.9882
6882.767998 84.286 171.5157
6932.643372 84.269 173.0213
6982.880164 84.267 174.5030
7033.480992 84.277 175.9627
7084.448495 84.298 177.4042
7135.785329 84.332 178.8304
7187.494171 84.376 -179.7518
7239.577717 84.431 -178.3227
7292.038681 84.500 -176.8497
7344.879799 84.590 -175.2986
7398.103826 84.718 -173.6775
7451.713536 84.897 -172.1121
7505.711724 85.123 -170.8493
7560.101205 85.361 -170.0508
7614.884815 85.579 -169.6058
7670.065409 85.768 -169.2779
7725.645865 85.945 -168.9354
7781.629080 86.125 -168.5831
7838.017972 86.317 -168.2853
7894.815481 86.522 -168.1080
7952.024569 86.737 -168.1003
8009.648217 86.958 -168.2964
8067.689429 87.177 -168.7189
8126.151233 87.388 -169.3808
8185.036674 87.582 -170.2853
8244.348824 87.753 -171.4230
8304.090774 87.891 -172.7693
8364.265639 87.990 -174.2831
8424.876556 88.046 -175.9047
8485.926684 88.055 -177.5570
8547.419207 88.018 -179.1491
8609.357330 87.943 179.4087
8671.744282 87.845 178.1698
8734.583316 87.745 177.0887
8797.877707 87.649 175.9909
8861.630756 87.536 174.7125
8925.845785 87.366 173.3511
8990.526143 87.132 172.2207
9055.675202 86.859 171.5439
9121.296357 86.583 171.3416
9187.393031 86.327 171.5242
9253.968668 86.104 171.9875
9321.026740 85.915 172.6508
9388.570742 85.761 173.4586
9456.604196 85.645 174.3699
9525.130648 85.567 175.3568
9594.153671 85.534 176.4060
9663.676863 85.554 177.5003
9733.703850 85.642 178.5707
9804.238280 85.810 179.4279
9875.283832 86.044 179.7632
9946.844210 86.296 179.3498
10018.923143 86.510 178.2969
10091.524390 86.666 176.9254
10164.651736 86.781 175.4382
10238.308993 86.870 173.8539
10312.500000 86.939 172.1237
10387.228626 86.981 170.2161
10462.498767 86.989 168.1372
10538.314345 86.954 165.9228
10614.679315 86.872 163.6251
10691.597657 86.740 161.3036
10769.073381 86.556 159.0202
10847.110526 86.321 156.8325
10925.713161 86.038 154.7914
11004.885382 85.709 152.9416
11084.631318 85.338 151.3251
11164.955126 84.929 149.9861
11245.860993 84.490 148.9676
11327.353138 84.031 148.2964
11409.435808 83.562 147.9734
11492.113283 83.092 147.9841
11575.389873 82.624 148.3081
11659.269920 82.162 148.9278
11743.757796 81.708 149.8267
11828.857906 81.266 150.9876
11914.574686 80.838 152.3941
12000.912606 80.427 154.0336
12087.876166 80.037 155.8926
12175.469900 79.671 157.9523
12263.698373 79.330 160.1898
12352.566187 79.015 162.5813
12442.077974 78.727 165.1037
12532.238400 78.465 167.7375
12623.052165 78.230 170.4647
12714.524005 78.023 173.2649
12806.658687 77.845 176.1125
12899.461015 77.696 178.9854
12992.935827 77.575 -178.1307
13087.087996 77.483 -175.2488
13181.922430 77.417 -172.3881
13277.444074 77.378 -169.5679
13373.657907 77.364 -166.8030
13470.568945 77.375 -164.1089
13568.182241 77.411 -161.5034
13666.502883 77.470 -159.0040
13765.535996 77.553 -156.6282
13865.286744 77.657 -154.3911
13965.760328 77.781 -152.3053
14066.961984 77.923 -150.3821
14168.896989 78.082 -148.6312
14271.570658 78.256 -147.0626
14374.988342 78.444 -145.6852
14479.155433 78.645 -144.5077
14584.077362 78.855 -143.5421
14689.759598 79.072 -142.8011
14796.207652 79.289 -142.2900
14903.427072 79.505 -142.0044
15011.423448 79.714 -141.9326
15120.202410 79.912 -142.0603
15229.769630 80.094 -142.3691
15340.130819 80.253 -142.8255
15451.291730 80.383 -143.3715
15563.258160 80.477 -143.9162
15676.035944 80.535 -144.3305
15789.630962 80.566 -144.4532
15904.049137 80.592 -144.1161
16019.296433 80.656 -143.1884
16135.378859 80.819 -141.6584
16252.302465 81.150 -139.7427
16370.073348 81.695 -137.9467
16488.697648 82.453 -136.9661
16608.181548 83.365 -137.4542
16728.531278 84.335 -139.8305
16849.753112 85.258 -144.2369
16971.853368 86.029 -150.5680
17094.838414 86.558 -158.4962
17218.714660 86.774 -167.4891
17343.488565 86.638 -176.8671
17469.166632 86.153 174.0881
17595.755415 85.356 166.0104
17723.261512 84.312 159.3567
17851.691571 83.102 154.3655
17981.052287 81.810 151.0558
18111.350404 80.511 149.2615
18242.592715 79.258 148.7034
18374.786062 78.083 149.0732
18507.937336 76.997 150.0960
18642.053479 76.002 151.5443
18777.141484 75.091 153.2196
18913.208391 74.254 154.9373
19050.261296 73.476 156.5356
19188.307342 72.737 157.8868
19327.353727 72.010 158.9088
19467.407699 71.272 159.5783
19608.476560 70.512 159.9265
19750.567664 69.760 160.0202
19893.688419 69.116 159.9536
20037.846286 68.748 159.8512
