* Measurement data measured by REW V5.31.3
* Source: Headset (2- CX31993 HIFI AUDIO), MICROPHONE (Master Volume), R, volume: 0.250
* Format: 256k Log Swept Sine, 1 sweep at -12.0 dBFS with no timing reference
* Dated: 11 9, 24 11:52:47 AM
* REW Settings:
*  C-weighting compensation: Off
*  Target level: 75.0 dB
* Note: ; 
* Measurement: Moondrop Kadenz KATO B
* Smoothing: 1/12 octave
* Frequency Step: 96 ppo
* Start Frequency: 0.36621094 Hz
*
* Freq(Hz) SPL(dB) Phase(degrees)
0.366211 33.894 -4.8315
0.368865 33.933 -4.6315
0.371538 33.991 -4.3360
0.374230 34.063 -3.9721
0.376942 34.143 -3.5626
0.379673 34.229 -3.1244
0.382424 34.318 -2.6681
0.385196 34.409 -2.2005
0.387987 34.502 -1.7252
0.390798 34.597 -1.2443
0.393630 34.692 -0.7591
0.396483 34.787 -0.2701
0.399356 34.884 0.2224
0.402250 34.981 0.7182
0.405165 35.079 1.2172
0.408101 35.178 1.7192
0.411058 35.277 2.2242
0.414037 35.378 2.7320
0.417037 35.478 3.2425
0.420059 35.580 3.7557
0.423103 35.682 4.2713
0.426169 35.786 4.7893
0.429257 35.889 5.3095
0.432368 35.994 5.8317
0.435501 36.099 6.3557
0.438656 36.205 6.8813
0.441835 36.312 7.4083
0.445037 36.420 7.9365
0.448262 36.528 8.4656
0.451510 36.638 8.9954
0.454782 36.748 9.5257
0.458077 36.859 10.0561
0.461397 36.970 10.5863
0.464740 37.083 11.1161
0.468108 37.196 11.6452
0.471500 37.310 12.1732
0.474917 37.425 12.6998
0.478358 37.541 13.2247
0.481825 37.657 13.7476
0.485316 37.775 14.2680
0.488833 37.893 14.7856
0.492375 38.012 15.3001
0.495943 38.132 15.8110
0.499537 38.253 16.3182
0.503157 38.375 16.8210
0.506803 38.497 17.3193
0.510475 38.621 17.8126
0.514175 38.745 18.3005
0.517900 38.871 18.7827
0.521653 38.997 19.2589
0.525434 39.124 19.7286
0.529241 39.252 20.1915
0.533076 39.381 20.6472
0.536939 39.511 21.0955
0.540830 39.642 21.5359
0.544749 39.774 21.9682
0.548696 39.907 22.3920
0.552673 40.041 22.8071
0.556677 40.175 23.2131
0.560711 40.311 23.6097
0.564774 40.448 23.9968
0.568867 40.585 24.3740
0.572989 40.724 24.7411
0.577141 40.864 25.0979
0.581324 41.005 25.4441
0.585536 41.146 25.7796
0.589779 41.289 26.1041
0.594053 41.433 26.4176
0.598358 41.578 26.7198
0.602694 41.724 27.0107
0.607061 41.871 27.2900
0.611460 42.019 27.5577
0.615891 42.168 27.8138
0.620354 42.318 28.0581
0.624849 42.469 28.2905
0.629377 42.622 28.5111
0.633938 42.775 28.7198
0.638532 42.930 28.9165
0.643159 43.085 29.1013
0.647819 43.242 29.2743
0.652514 43.400 29.4353
0.657242 43.559 29.5846
0.662005 43.720 29.7220
0.666802 43.881 29.8477
0.671634 44.044 29.9618
0.676501 44.208 30.0643
0.681403 44.372 30.1554
0.686341 44.539 30.2353
0.691314 44.706 30.3039
0.696324 44.874 30.3617
0.701370 45.044 30.4088
0.706452 45.214 30.4457
0.711571 45.386 30.4729
0.716728 45.557 30.4913
0.721921 45.729 30.5023
0.727153 45.901 30.5076
0.732422 46.072 30.5094
0.737729 46.243 30.5104
0.743075 46.413 30.5127
0.748460 46.583 30.5181
0.753883 46.753 30.5275
0.759346 46.924 30.5413
0.764849 47.095 30.5594
0.770391 47.268 30.5813
0.775974 47.441 30.6067
0.781597 47.616 30.6347
0.787261 47.792 30.6649
0.792966 47.968 30.6966
0.798712 48.146 30.7291
0.804500 48.325 30.7619
0.810329 48.505 30.7943
0.816201 48.686 30.8258
0.822116 48.868 30.8559
0.828073 49.050 30.8841
0.834074 49.234 30.9098
0.840118 49.419 30.9326
0.846206 49.604 30.9520
0.852338 49.790 30.9677
0.858514 49.978 30.9791
0.864735 50.166 30.9860
0.871001 50.354 30.9880
0.877313 50.544 30.9846
0.883670 50.734 30.9756
0.890074 50.925 30.9606
0.896524 51.117 30.9394
0.903020 51.309 30.9116
0.909564 51.502 30.8770
0.916155 51.695 30.8352
0.922794 51.889 30.7861
0.929481 52.083 30.7294
0.936216 52.278 30.6648
0.943000 52.473 30.5922
0.949834 52.669 30.5114
0.956717 52.864 30.4220
0.963649 53.060 30.3241
0.970632 53.257 30.2172
0.977666 53.453 30.1014
0.984750 53.649 29.9765
0.991886 53.846 29.8422
0.999074 54.042 29.6984
1.006314 54.238 29.5451
1.013606 54.435 29.3820
1.020951 54.631 29.2091
1.028349 54.826 29.0262
1.035801 55.022 28.8334
1.043307 55.216 28.6305
1.050867 55.411 28.4175
1.058482 55.604 28.1946
1.066152 55.798 27.9621
1.073878 55.990 27.7204
1.081660 56.182 27.4704
1.089498 56.372 27.2134
1.097393 56.562 26.9511
1.105345 56.751 26.6857
1.113355 56.939 26.4191
1.121423 57.126 26.1531
1.129549 57.313 25.8887
1.137734 57.498 25.6265
1.145979 57.682 25.3666
1.154283 57.866 25.1091
1.162647 58.048 24.8536
1.171072 58.230 24.6000
1.179558 58.411 24.3477
1.188106 58.591 24.0964
1.196715 58.770 23.8458
1.205387 58.948 23.5953
1.214122 59.126 23.3447
1.222920 59.302 23.0936
1.231782 59.478 22.8415
1.240708 59.654 22.5881
1.249699 59.829 22.3330
1.258754 60.003 22.0759
1.267876 60.176 21.8165
1.277063 60.349 21.5542
1.286318 60.522 21.2889
1.295639 60.694 21.0201
1.305027 60.865 20.7476
1.314484 61.036 20.4710
1.324009 61.207 20.1900
1.333604 61.378 19.9042
1.343268 61.548 19.6133
1.353002 61.719 19.3171
1.362806 61.889 19.0152
1.372681 62.059 18.7073
1.382628 62.229 18.3931
1.392647 62.400 18.0724
1.402739 62.570 17.7449
1.412904 62.741 17.4105
1.423142 62.912 17.0692
1.433455 63.083 16.7210
1.443843 63.254 16.3664
1.454305 63.426 16.0061
1.464844 63.597 15.6413
1.475459 63.769 15.2733
1.486150 63.939 14.9034
1.496920 64.110 14.5326
1.507767 64.279 14.1617
1.518693 64.447 13.7911
1.529698 64.615 13.4206
1.540783 64.782 13.0504
1.551948 64.948 12.6801
1.563194 65.113 12.3096
1.574521 65.277 11.9384
1.585931 65.441 11.5664
1.597423 65.603 11.1930
1.608999 65.765 10.8180
1.620658 65.926 10.4411
1.632402 66.087 10.0618
1.644232 66.247 9.6798
1.656146 66.406 9.2948
1.668147 66.565 8.9063
1.680235 66.723 8.5140
1.692411 66.881 8.1175
1.704675 67.039 7.7165
1.717028 67.196 7.3106
1.729470 67.352 6.8993
1.742003 67.509 6.4824
1.754626 67.665 6.0594
1.767341 67.822 5.6302
1.780147 67.978 5.1943
1.793047 68.134 4.7518
1.806040 68.290 4.3024
1.819128 68.445 3.8465
1.832310 68.601 3.3846
1.845587 68.756 2.9171
1.858961 68.910 2.4449
1.872432 69.063 1.9687
1.886001 69.216 1.4890
1.899667 69.367 1.0064
1.913433 69.518 0.5212
1.927299 69.668 0.0338
1.941265 69.817 -0.4557
1.955332 69.965 -0.9471
1.969501 70.112 -1.4402
1.983773 70.259 -1.9350
1.998148 70.404 -2.4315
2.012627 70.549 -2.9295
2.027212 70.694 -3.4292
2.041902 70.837 -3.9305
2.056698 70.980 -4.4336
2.071602 71.122 -4.9386
2.086614 71.264 -5.4456
2.101734 71.406 -5.9548
2.116964 71.547 -6.4664
2.132304 71.687 -6.9806
2.147756 71.828 -7.4978
2.163320 71.967 -8.0182
2.178996 72.107 -8.5421
2.194786 72.246 -9.0700
2.210690 72.384 -9.6019
2.226710 72.521 -10.1380
2.242845 72.658 -10.6782
2.259098 72.793 -11.2222
2.275468 72.928 -11.7698
2.291957 73.061 -12.3205
2.308566 73.194 -12.8739
2.325295 73.325 -13.4296
2.342145 73.456 -13.9871
2.359117 73.586 -14.5462
2.376212 73.714 -15.1064
2.393431 73.842 -15.6675
2.410775 73.970 -16.2292
2.428244 74.096 -16.7913
2.445840 74.222 -17.3537
2.463564 74.347 -17.9162
2.481416 74.472 -18.4789
2.499397 74.596 -19.0418
2.517509 74.719 -19.6052
2.535752 74.842 -20.1695
2.554127 74.964 -20.7352
2.572635 75.086 -21.3031
2.591277 75.206 -21.8736
2.610055 75.326 -22.4474
2.628968 75.445 -23.0245
2.648019 75.562 -23.6047
2.667208 75.678 -24.1877
2.686535 75.794 -24.7729
2.706003 75.908 -25.3600
2.725612 76.022 -25.9481
2.745363 76.134 -26.5369
2.765257 76.246 -27.1257
2.785295 76.356 -27.7139
2.805478 76.466 -28.3012
2.825808 76.576 -28.8871
2.846285 76.684 -29.4713
2.866910 76.792 -30.0538
2.887685 76.899 -30.6346
2.908611 77.006 -31.2141
2.929688 77.112 -31.7930
2.950917 77.217 -32.3720
2.972301 77.321 -32.9519
2.993839 77.424 -33.5332
3.015534 77.526 -34.1161
3.037386 77.627 -34.7002
3.059396 77.727 -35.2853
3.081565 77.826 -35.8708
3.103896 77.924 -36.4563
3.126388 78.022 -37.0409
3.149043 78.118 -37.6242
3.171862 78.214 -38.2056
3.194847 78.309 -38.7845
3.217998 78.404 -39.3605
3.241317 78.497 -39.9335
3.264805 78.591 -40.5035
3.288463 78.684 -41.0708
3.312293 78.776 -41.6361
3.336295 78.867 -42.2000
3.360471 78.958 -42.7629
3.384822 79.047 -43.3253
3.409350 79.136 -43.8872
3.434056 79.224 -44.4484
3.458940 79.311 -45.0085
3.484005 79.397 -45.5673
3.509252 79.483 -46.1242
3.534681 79.569 -46.6789
3.560295 79.654 -47.2309
3.586094 79.738 -47.7800
3.612081 79.822 -48.3258
3.638255 79.906 -48.8684
3.664620 79.989 -49.4080
3.691175 80.072 -49.9450
3.717923 80.154 -50.4797
3.744864 80.236 -51.0124
3.772001 80.317 -51.5435
3.799335 80.398 -52.0729
3.826866 80.478 -52.6007
3.854597 80.558 -53.1270
3.882529 80.637 -53.6514
3.910664 80.717 -54.1740
3.939002 80.796 -54.6946
3.967546 80.874 -55.2132
3.996296 80.953 -55.7296
4.025255 81.031 -56.2440
4.054423 81.110 -56.7564
4.083804 81.188 -57.2670
4.113396 81.265 -57.7761
4.143204 81.343 -58.2838
4.173227 81.420 -58.7904
4.203468 81.497 -59.2961
4.233928 81.574 -59.8010
4.264609 81.650 -60.3053
4.295512 81.727 -60.8092
4.326639 81.803 -61.3128
4.357992 81.880 -61.8162
4.389572 81.956 -62.3196
4.421380 82.032 -62.8230
4.453419 82.108 -63.3265
4.485691 82.183 -63.8301
4.518196 82.259 -64.3341
4.550936 82.334 -64.8384
4.583914 82.410 -65.3434
4.617131 82.484 -65.8490
4.650589 82.559 -66.3556
4.684289 82.634 -66.8634
4.718233 82.708 -67.3725
4.752424 82.782 -67.8831
4.786862 82.855 -68.3954
4.821549 82.929 -68.9095
4.856488 83.002 -69.4254
4.891680 83.074 -69.9430
4.927127 83.147 -70.4622
4.962831 83.219 -70.9830
4.998794 83.290 -71.5053
5.035017 83.361 -72.0291
5.071503 83.431 -72.5545
5.108253 83.501 -73.0816
5.145270 83.571 -73.6106
5.182555 83.639 -74.1416
5.220110 83.707 -74.6748
5.257937 83.775 -75.2098
5.296038 83.842 -75.7465
5.334415 83.908 -76.2844
5.373071 83.973 -76.8232
5.412006 84.038 -77.3626
5.451224 84.101 -77.9025
5.490725 84.164 -78.4428
5.530514 84.227 -78.9838
5.570590 84.288 -79.5256
5.610957 84.349 -80.0680
5.651616 84.408 -80.6108
5.692570 84.467 -81.1535
5.733821 84.525 -81.6955
5.775370 84.582 -82.2364
5.817221 84.639 -82.7758
5.859375 84.694 -83.3137
5.901834 84.749 -83.8500
5.944602 84.802 -84.3848
5.987679 84.855 -84.9182
6.031068 84.907 -85.4497
6.074771 84.958 -85.9790
6.118792 85.009 -86.5056
6.163131 85.059 -87.0292
6.207792 85.108 -87.5493
6.252776 85.156 -88.0661
6.298086 85.204 -88.5794
6.343725 85.251 -89.0893
6.389694 85.297 -89.5959
6.435996 85.343 -90.0988
6.482634 85.389 -90.5980
6.529610 85.434 -91.0932
6.576926 85.479 -91.5843
6.624585 85.523 -92.0711
6.672590 85.567 -92.5539
6.720942 85.610 -93.0326
6.769645 85.654 -93.5075
6.818700 85.697 -93.9786
6.868111 85.740 -94.4460
6.917881 85.783 -94.9098
6.968010 85.826 -95.3701
7.018504 85.868 -95.8269
7.069362 85.911 -96.2804
7.120590 85.954 -96.7308
7.172189 85.997 -97.1785
7.224161 86.040 -97.6236
7.276511 86.083 -98.0666
7.329239 86.126 -98.5075
7.382350 86.169 -98.9466
7.435845 86.212 -99.3840
7.489729 86.255 -99.8201
7.544002 86.299 -100.2550
7.598669 86.342 -100.6891
7.653732 86.386 -101.1228
7.709194 86.430 -101.5562
7.765058 86.474 -101.9896
7.821327 86.517 -102.4230
7.878004 86.561 -102.8567
7.935091 86.605 -103.2908
7.992592 86.649 -103.7256
8.050510 86.693 -104.1613
8.108847 86.736 -104.5979
8.167607 86.780 -105.0355
8.226793 86.823 -105.4742
8.286408 86.866 -105.9139
8.346454 86.909 -106.3546
8.406936 86.951 -106.7964
8.467856 86.993 -107.2392
8.529218 87.035 -107.6829
8.591024 87.077 -108.1275
8.653278 87.118 -108.5727
8.715983 87.158 -109.0182
8.779143 87.198 -109.4640
8.842760 87.237 -109.9098
8.906839 87.276 -110.3555
8.971381 87.315 -110.8008
9.036392 87.353 -111.2453
9.101873 87.390 -111.6888
9.167829 87.427 -112.1310
9.234263 87.463 -112.5716
9.301178 87.499 -113.0106
9.368578 87.534 -113.4477
9.436467 87.569 -113.8826
9.504847 87.604 -114.3153
9.573723 87.638 -114.7455
9.643099 87.672 -115.1733
9.712976 87.705 -115.5988
9.783361 87.739 -116.0221
9.854255 87.772 -116.4433
9.925663 87.806 -116.8627
9.997588 87.839 -117.2804
10.070035 87.872 -117.6970
10.143007 87.906 -118.1129
10.216507 87.939 -118.5286
10.290540 87.973 -118.9446
10.365109 88.006 -119.3614
10.440219 88.040 -119.7796
10.515873 88.073 -120.1996
10.592076 88.107 -120.6221
10.668830 88.140 -121.0474
10.746141 88.173 -121.4758
10.824012 88.205 -121.9076
10.902447 88.237 -122.3426
10.981451 88.268 -122.7810
11.061027 88.298 -123.2224
11.141180 88.327 -123.6665
11.221913 88.355 -124.1125
11.303232 88.382 -124.5595
11.385140 88.407 -125.0066
11.467641 88.431 -125.4528
11.550741 88.453 -125.8967
11.634442 88.474 -126.3370
11.718750 88.493 -126.7721
11.803669 88.511 -127.2007
11.889203 88.528 -127.6217
11.975357 88.544 -128.0337
12.062136 88.559 -128.4357
12.149543 88.573 -128.8268
12.237583 88.587 -129.2068
12.326262 88.602 -129.5756
12.415583 88.616 -129.9335
12.505552 88.631 -130.2812
12.596172 88.648 -130.6198
12.687449 88.665 -130.9510
12.779387 88.684 -131.2768
12.871992 88.705 -131.5993
12.965268 88.727 -131.9211
13.059220 88.751 -132.2445
13.153852 88.777 -132.5722
13.249170 88.803 -132.9066
13.345179 88.831 -133.2495
13.441884 88.860 -133.6028
13.539289 88.889 -133.9675
13.637401 88.918 -134.3442
13.736223 88.946 -134.7328
13.835761 88.973 -135.1325
13.936021 88.998 -135.5418
14.037007 89.022 -135.9590
14.138725 89.043 -136.3814
14.241180 89.063 -136.8062
14.344377 89.079 -137.2301
14.448323 89.094 -137.6502
14.553021 89.106 -138.0634
14.658478 89.116 -138.4666
14.764700 89.125 -138.8577
14.871691 89.133 -139.2350
14.979457 89.140 -139.5973
15.088005 89.147 -139.9445
15.197339 89.155 -140.2771
15.307465 89.163 -140.5966
15.418389 89.173 -140.9052
15.530117 89.185 -141.2054
15.642655 89.199 -141.5005
15.756008 89.214 -141.7935
15.870182 89.232 -142.0878
15.985184 89.251 -142.3861
16.101019 89.271 -142.6907
16.217694 89.292 -143.0034
16.335214 89.313 -143.3250
16.453586 89.335 -143.6555
16.572815 89.355 -143.9943
16.692909 89.375 -144.3401
16.813872 89.394 -144.6910
16.935713 89.411 -145.0448
17.058436 89.427 -145.3994
17.182048 89.441 -145.7526
17.306556 89.454 -146.1026
17.431967 89.466 -146.4480
17.558286 89.478 -146.7881
17.685521 89.489 -147.1225
17.813677 89.499 -147.4516
17.942762 89.510 -147.7761
18.072783 89.520 -148.0969
18.203746 89.530 -148.4152
18.335658 89.540 -148.7320
18.468526 89.550 -149.0480
18.602356 89.559 -149.3634
18.737156 89.568 -149.6783
18.872934 89.575 -149.9920
19.009695 89.582 -150.3035
19.147447 89.588 -150.6113
19.286197 89.592 -150.9141
19.425953 89.595 -151.2103
19.566721 89.598 -151.4986
19.708510 89.600 -151.7782
19.851326 89.602 -152.0484
19.995177 89.603 -152.3093
20.140070 89.605 -152.5614
20.286013 89.607 -152.8056
20.433014 89.611 -153.0432
20.581080 89.615 -153.2757
20.730219 89.619 -153.5048
20.880439 89.625 -153.7321
21.031747 89.632 -153.9595
21.184152 89.640 -154.1887
21.337661 89.649 -154.4212
21.492282 89.659 -154.6590
21.648024 89.670 -154.9036
21.804895 89.682 -155.1567
21.962902 89.693 -155.4197
22.122054 89.705 -155.6940
22.282360 89.717 -155.9802
22.443827 89.728 -156.2786
22.606464 89.738 -156.5884
22.770280 89.747 -156.9082
22.935283 89.753 -157.2358
23.101481 89.758 -157.5683
23.268884 89.761 -157.9025
23.437500 89.762 -158.2351
23.607338 89.761 -158.5631
23.778406 89.759 -158.8844
23.950714 89.756 -159.1976
24.124271 89.753 -159.5027
24.299086 89.750 -159.8006
24.475167 89.747 -160.0930
24.652524 89.746 -160.3819
24.831166 89.745 -160.6696
25.011103 89.745 -160.9575
25.192344 89.745 -161.2465
25.374898 89.745 -161.5364
25.558775 89.745 -161.8264
25.743984 89.744 -162.1149
25.930536 89.744 -162.4005
26.118439 89.743 -162.6818
26.307704 89.743 -162.9581
26.498341 89.743 -163.2296
26.690359 89.743 -163.4971
26.883768 89.745 -163.7617
27.078579 89.747 -164.0247
27.274801 89.749 -164.2867
27.472446 89.752 -164.5477
27.671522 89.755 -164.8069
27.872042 89.757 -165.0631
28.074014 89.760 -165.3151
28.277450 89.763 -165.5626
28.482360 89.767 -165.8065
28.688755 89.772 -166.0492
28.896645 89.778 -166.2944
29.106042 89.785 -166.5464
29.316957 89.792 -166.8084
29.529400 89.798 -167.0822
29.743382 89.802 -167.3662
29.958915 89.804 -167.6559
30.176009 89.802 -167.9437
30.394677 89.796 -168.2210
30.614929 89.788 -168.4795
30.836778 89.779 -168.7140
31.060234 89.771 -168.9237
31.285309 89.765 -169.1138
31.512015 89.763 -169.2943
31.740364 89.764 -169.4782
31.970368 89.770 -169.6788
32.202039 89.777 -169.9060
32.435388 89.783 -170.1638
32.670428 89.787 -170.4491
32.907171 89.787 -170.7527
33.145630 89.781 -171.0611
33.385817 89.771 -171.3606
33.627745 89.757 -171.6401
33.871425 89.742 -171.8945
34.116871 89.728 -172.1252
34.364096 89.715 -172.3394
34.613113 89.706 -172.5477
34.863934 89.699 -172.7604
35.116572 89.694 -172.9846
35.371041 89.688 -173.2224
35.627354 89.681 -173.4707
35.885525 89.672 -173.7229
36.145566 89.661 -173.9708
36.407492 89.647 -174.2077
36.671316 89.633 -174.4292
36.937051 89.620 -174.6346
37.204712 89.607 -174.8257
37.474313 89.596 -175.0062
37.745867 89.586 -175.1808
38.019389 89.579 -175.3545
38.294893 89.574 -175.5321
38.572394 89.570 -175.7180
38.851905 89.567 -175.9158
39.133442 89.564 -176.1273
39.417019 89.561 -176.3520
39.702651 89.555 -176.5863
39.990353 89.547 -176.8241
40.280140 89.537 -177.0589
40.572026 89.525 -177.2846
40.866028 89.513 -177.4984
41.162160 89.502 -177.7010
41.460438 89.492 -177.8968
41.760877 89.484 -178.0920
42.063494 89.478 -178.2935
42.368303 89.474 -178.5067
42.675322 89.470 -178.7355
42.984565 89.466 -178.9814
43.296048 89.461 -179.2431
43.609789 89.453 -179.5166
43.925804 89.443 -179.7945
44.244108 89.428 179.9338
44.564719 89.411 179.6798
44.887654 89.393 179.4526
45.212928 89.375 179.2553
45.540560 89.360 179.0822
45.870565 89.350 178.9192
46.202962 89.343 178.7485
46.537768 89.340 178.5551
46.875000 89.336 178.3331
47.214676 89.329 178.0889
47.556813 89.317 177.8387
47.901429 89.300 177.6022
48.248542 89.279 177.3944
48.598171 89.258 177.2192
48.950334 89.240 177.0687
49.305048 89.225 176.9270
49.662333 89.212 176.7781
50.022206 89.201 176.6127
50.384688 89.188 176.4321
50.749796 89.172 176.2462
51.117550 89.154 176.0681
51.487969 89.135 175.9070
51.861072 89.116 175.7648
52.236879 89.100 175.6349
52.615409 89.087 175.5066
52.996681 89.076 175.3696
53.380717 89.067 175.2178
53.767536 89.058 175.0498
54.157158 89.048 174.8678
54.549603 89.037 174.6754
54.944892 89.024 174.4772
55.343045 89.009 174.2787
55.744084 88.992 174.0860
56.148028 88.974 173.9037
56.554900 88.955 173.7329
56.964720 88.937 173.5694
57.377510 88.921 173.4058
57.793291 88.904 173.2361
58.212085 88.888 173.0587
58.633914 88.870 172.8765
59.058799 88.851 172.6934
59.486764 88.831 172.5114
59.917829 88.811 172.3296
60.352019 88.790 172.1475
60.789354 88.768 171.9677
61.229859 88.745 171.7960
61.673556 88.722 171.6371
62.120468 88.699 171.4918
62.570618 88.678 171.3554
63.024031 88.658 171.2215
63.480729 88.640 171.0860
63.940736 88.621 170.9488
64.404077 88.603 170.8126
64.870776 88.584 170.6795
65.340856 88.565 170.5493
65.814343 88.547 170.4195
66.291261 88.528 170.2870
66.771635 88.510 170.1489
67.255489 88.491 170.0032
67.742850 88.471 169.8492
68.233743 88.450 169.6886
68.728193 88.427 169.5256
69.226226 88.403 169.3651
69.727867 88.378 169.2100
70.233144 88.354 169.0583
70.742083 88.331 168.9056
71.254709 88.307 168.7499
71.771050 88.283 168.5943
72.291132 88.259 168.4450
72.814984 88.235 168.3051
73.342631 88.212 168.1714
73.874102 88.189 168.0387
74.409424 88.166 167.9059
74.948626 88.142 167.7784
75.491734 88.116 167.6635
76.038779 88.091 167.5636
76.589787 88.066 167.4746
77.144788 88.044 167.3877
77.703811 88.022 167.2941
78.266885 88.001 167.1875
78.834039 87.979 167.0659
79.405303 87.956 166.9315
79.980706 87.929 166.7906
80.560280 87.900 166.6517
81.144053 87.869 166.5233
81.732056 87.837 166.4106
82.324320 87.805 166.3138
82.920876 87.774 166.2280
83.521755 87.745 166.1443
84.126988 87.716 166.0548
84.736607 87.687 165.9571
85.350643 87.657 165.8547
85.969129 87.625 165.7534
86.592097 87.592 165.6579
87.219579 87.558 165.5714
87.851608 87.524 165.4950
88.488217 87.489 165.4272
89.129439 87.455 165.3649
89.775308 87.421 165.3077
90.425856 87.387 165.2563
91.081119 87.353 165.2103
91.741131 87.317 165.1706
92.405925 87.279 165.1421
93.075536 87.240 165.1298
93.750000 87.199 165.1358
94.429351 87.157 165.1646
95.113625 87.114 165.2239
95.802858 87.072 165.3162
96.497085 87.033 165.4372
97.196342 86.997 165.5846
97.900667 86.967 165.7551
98.610096 86.944 165.9349
99.324665 86.927 166.1048
100.044413 86.917 166.2537
100.769376 86.910 166.3771
101.499592 86.906 166.4745
102.235100 86.904 166.5558
102.975938 86.903 166.6366
103.722144 86.906 166.7188
104.473757 86.915 166.7892
105.230817 86.930 166.8337
105.993363 86.950 166.8363
106.761435 86.971 166.7766
107.535072 86.990 166.6458
108.314315 87.001 166.4585
109.099206 87.002 166.2395
109.889783 86.991 166.0168
110.686090 86.969 165.8256
111.488167 86.940 165.6962
112.296056 86.911 165.6310
113.109800 86.887 165.6058
113.929440 86.869 165.5924
114.755020 86.856 165.5735
115.586582 86.846 165.5406
116.424170 86.837 165.4927
117.267827 86.826 165.4375
118.117598 86.813 165.3874
118.973527 86.797 165.3492
119.835658 86.779 165.3206
120.704037 86.758 165.2950
121.578708 86.736 165.2641
122.459718 86.712 165.2185
123.347111 86.686 165.1516
124.240935 86.657 165.0674
125.141236 86.627 164.9780
126.048061 86.597 164.8923
126.961458 86.569 164.8099
127.881473 86.543 164.7234
128.808154 86.520 164.6204
129.741551 86.498 164.4894
130.681712 86.474 164.3281
131.628686 86.445 164.1472
132.582521 86.413 163.9622
133.543269 86.377 163.7858
134.510979 86.341 163.6277
135.485701 86.306 163.4927
136.467486 86.273 163.3825
137.456386 86.241 163.2977
138.452451 86.211 163.2401
139.455735 86.182 163.2106
140.466288 86.152 163.2065
141.484165 86.122 163.2217
142.509418 86.091 163.2496
143.542100 86.059 163.2862
144.582265 86.027 163.3291
145.629968 85.996 163.3752
146.685262 85.967 163.4195
147.748204 85.941 163.4577
148.818849 85.916 163.4887
149.897251 85.893 163.5147
150.983469 85.871 163.5378
152.077557 85.851 163.5571
153.179574 85.830 163.5685
154.289576 85.810 163.5690
155.407622 85.788 163.5582
156.533770 85.765 163.5391
157.668078 85.741 163.5171
158.810606 85.716 163.4987
159.961413 85.690 163.4892
161.120559 85.663 163.4900
162.288105 85.636 163.4980
163.464112 85.609 163.5091
164.648640 85.580 163.5214
165.841752 85.552 163.5347
167.043510 85.525 163.5481
168.253976 85.500 163.5590
169.473213 85.477 163.5663
170.701286 85.454 163.5730
171.938258 85.430 163.5886
173.184194 85.404 163.6259
174.439158 85.374 163.6949
175.703216 85.343 163.7971
176.976434 85.312 163.9224
178.258878 85.282 164.0580
179.550615 85.256 164.1942
180.851713 85.234 164.3244
182.162239 85.216 164.4431
183.482262 85.202 164.5443
184.811850 85.189 164.6242
186.151073 85.176 164.6813
187.500000 85.163 164.7168
188.858702 85.148 164.7346
190.227250 85.130 164.7402
191.605715 85.111 164.7395
192.994169 85.091 164.7378
194.392685 85.069 164.7388
195.801334 85.046 164.7451
197.220191 85.022 164.7577
198.649330 84.996 164.7762
200.088825 84.970 164.7993
201.538751 84.944 164.8253
202.999184 84.917 164.8527
204.470200 84.891 164.8818
205.951875 84.864 164.9150
207.444287 84.839 164.9554
208.947514 84.814 165.0045
210.461634 84.790 165.0617
211.986726 84.765 165.1254
213.522869 84.740 165.1931
215.070144 84.715 165.2618
216.628631 84.690 165.3298
218.198411 84.665 165.3969
219.779567 84.640 165.4644
221.372180 84.615 165.5333
222.976334 84.591 165.6044
224.592112 84.567 165.6779
226.219600 84.543 165.7543
227.858880 84.520 165.8337
229.510039 84.497 165.9162
231.173164 84.474 166.0010
232.848340 84.450 166.0870
234.535655 84.427 166.1732
236.235197 84.403 166.2587
237.947054 84.379 166.3438
239.671317 84.355 166.4300
241.408074 84.332 166.5190
243.157416 84.308 166.6113
244.919435 84.285 166.7072
246.694223 84.262 166.8062
248.481871 84.239 166.9076
250.282473 84.216 167.0104
252.096123 84.193 167.1133
253.922915 84.171 167.2149
255.762945 84.149 167.3159
257.616309 84.128 167.4182
259.483103 84.106 167.5243
261.363424 84.085 167.6350
263.257372 84.064 167.7491
265.165043 84.043 167.8642
267.086538 84.021 167.9784
269.021957 84.000 168.0915
270.971401 83.979 168.2045
272.934972 83.959 168.3184
274.912771 83.939 168.4334
276.904902 83.919 168.5498
278.911469 83.899 168.6675
280.932577 83.879 168.7868
282.968330 83.860 168.9080
285.018835 83.840 169.0311
287.084199 83.821 169.1557
289.164530 83.801 169.2812
291.259935 83.782 169.4073
293.370525 83.763 169.5338
295.496408 83.743 169.6608
297.637697 83.724 169.7885
299.794503 83.706 169.9171
301.966937 83.687 170.0470
304.155114 83.668 170.1780
306.359147 83.650 170.3107
308.579152 83.632 170.4451
310.815244 83.613 170.5815
313.067539 83.595 170.7198
315.336156 83.577 170.8596
317.621211 83.559 171.0005
319.922826 83.541 171.1420
322.241118 83.524 171.2839
324.576210 83.506 171.4264
326.928223 83.489 171.5696
329.297280 83.472 171.7139
331.683504 83.455 171.8595
334.087019 83.438 172.0060
336.507952 83.422 172.1527
338.946427 83.405 172.2995
341.402572 83.389 172.4469
343.876516 83.372 172.5964
346.368387 83.356 172.7488
348.878315 83.340 172.9043
351.406431 83.324 173.0616
353.952867 83.309 173.2202
356.517756 83.294 173.3796
359.101230 83.280 173.5400
361.703426 83.265 173.7007
364.324478 83.251 173.8615
366.964523 83.236 174.0219
369.623699 83.222 174.1822
372.302145 83.208 174.3430
375.000000 83.193 174.5051
377.717405 83.179 174.6692
380.454501 83.165 174.8354
383.211431 83.151 175.0040
385.988339 83.137 175.1743
388.785369 83.123 175.3462
391.602668 83.109 175.5193
394.440383 83.096 175.6935
397.298660 83.083 175.8687
400.177650 83.070 176.0447
403.077502 83.057 176.2216
405.998368 83.045 176.3987
408.940400 83.032 176.5761
411.903750 83.020 176.7534
414.888575 83.007 176.9306
417.895028 82.994 177.1082
420.923268 82.981 177.2869
423.973452 82.969 177.4673
427.045738 82.957 177.6494
430.140287 82.945 177.8333
433.257261 82.933 178.0190
436.396822 82.921 178.2070
439.559133 82.910 178.3972
442.744360 82.899 178.5891
445.952668 82.888 178.7823
449.184225 82.877 178.9764
452.439199 82.867 179.1714
455.717760 82.857 179.3672
459.020079 82.847 179.5640
462.346327 82.837 179.7620
465.696680 82.827 179.9615
469.071310 82.818 -179.8372
472.470394 82.809 -179.6339
475.894109 82.800 -179.4287
479.342634 82.791 -179.2217
482.816148 82.782 -179.0135
486.314833 82.774 -178.8045
489.838871 82.766 -178.5948
493.388445 82.757 -178.3845
496.963741 82.749 -178.1731
500.564945 82.742 -177.9601
504.192245 82.734 -177.7453
507.845830 82.727 -177.5286
511.525890 82.720 -177.3102
515.232618 82.713 -177.0903
518.966206 82.706 -176.8689
522.726849 82.699 -176.6458
526.514743 82.692 -176.4208
530.330086 82.686 -176.1938
534.173076 82.679 -175.9648
538.043915 82.673 -175.7345
541.942803 82.667 -175.5030
545.869944 82.662 -175.2706
549.825542 82.656 -175.0368
553.809805 82.650 -174.8015
557.822939 82.645 -174.5646
561.865154 82.640 -174.3262
565.936660 82.635 -174.0865
570.037671 82.631 -173.8454
574.168399 82.626 -173.6022
578.329060 82.623 -173.3565
582.519870 82.619 -173.1082
586.741049 82.615 -172.8571
590.992817 82.612 -172.6032
595.275394 82.609 -172.3466
599.589005 82.606 -172.0875
603.933874 82.604 -171.8260
608.310228 82.601 -171.5622
612.718295 82.599 -171.2963
617.158304 82.597 -171.0285
621.630488 82.596 -170.7587
626.135079 82.595 -170.4868
630.672311 82.595 -170.2128
635.242423 82.595 -169.9367
639.845651 82.596 -169.6583
644.482237 82.597 -169.3775
649.152421 82.598 -169.0942
653.856447 82.600 -168.8081
658.594560 82.602 -168.5191
663.367008 82.604 -168.2271
668.174039 82.607 -167.9324
673.015903 82.610 -167.6351
677.892854 82.613 -167.3351
682.805145 82.617 -167.0324
687.753032 82.622 -166.7269
692.736774 82.627 -166.4189
697.756631 82.632 -166.1083
702.812863 82.639 -165.7952
707.905735 82.645 -165.4794
713.035511 82.653 -165.1610
718.202461 82.660 -164.8400
723.406852 82.669 -164.5168
728.648956 82.678 -164.1912
733.929047 82.687 -163.8624
739.247399 82.698 -163.5300
744.604290 82.708 -163.1938
750.000000 82.720 -162.8540
755.434809 82.733 -162.5108
760.909001 82.746 -162.1647
766.422861 82.760 -161.8160
771.976677 82.775 -161.4650
777.570739 82.791 -161.1119
783.205337 82.808 -160.7568
788.880766 82.826 -160.3999
794.597321 82.845 -160.0411
800.355301 82.865 -159.6804
806.155005 82.886 -159.3176
811.996736 82.909 -158.9527
817.880799 82.932 -158.5860
823.807501 82.956 -158.2176
829.777150 82.982 -157.8480
835.790057 83.008 -157.4776
841.846536 83.036 -157.1065
847.946903 83.066 -156.7353
854.091476 83.097 -156.3645
860.280575 83.129 -155.9943
866.514523 83.163 -155.6244
872.793644 83.198 -155.2547
879.118267 83.234 -154.8856
885.488720 83.271 -154.5178
891.905336 83.310 -154.1521
898.368450 83.351 -153.7890
904.878398 83.392 -153.4288
911.435520 83.435 -153.0717
918.040157 83.480 -152.7180
924.692655 83.525 -152.3680
931.393359 83.573 -152.0225
938.142619 83.621 -151.6820
944.940787 83.671 -151.3470
951.788218 83.723 -151.0178
958.685268 83.775 -150.6945
965.632296 83.829 -150.3773
972.629666 83.885 -150.0666
979.677741 83.941 -149.7630
986.776890 83.999 -149.4669
993.927482 84.058 -149.1783
1001.129891 84.117 -148.8976
1008.384491 84.178 -148.6249
1015.691660 84.239 -148.3607
1023.051781 84.302 -148.1054
1030.465236 84.365 -147.8593
1037.932411 84.429 -147.6226
1045.453698 84.493 -147.3957
1053.029486 84.559 -147.1787
1060.660172 84.625 -146.9714
1068.346153 84.691 -146.7739
1076.087829 84.758 -146.5859
1083.885605 84.826 -146.4073
1091.739887 84.893 -146.2378
1099.651084 84.960 -146.0775
1107.619609 85.028 -145.9264
1115.645878 85.096 -145.7843
1123.730308 85.164 -145.6512
1131.873321 85.232 -145.5270
1140.075341 85.299 -145.4115
1148.336797 85.367 -145.3045
1156.658119 85.434 -145.2055
1165.039741 85.502 -145.1142
1173.482099 85.569 -145.0302
1181.985634 85.635 -144.9531
1190.550789 85.702 -144.8826
1199.178011 85.768 -144.8187
1207.867749 85.833 -144.7612
1216.620457 85.899 -144.7097
1225.436590 85.963 -144.6640
1234.316609 86.028 -144.6236
1243.260976 86.092 -144.5883
1252.270157 86.156 -144.5576
1261.344623 86.219 -144.5314
1270.484846 86.282 -144.5094
1279.691303 86.345 -144.4915
1288.964474 86.408 -144.4776
1298.304842 86.470 -144.4678
1307.712894 86.532 -144.4619
1317.189120 86.593 -144.4600
1326.734016 86.654 -144.4619
1336.348077 86.715 -144.4673
1346.031806 86.776 -144.4757
1355.785708 86.836 -144.4868
1365.610290 86.897 -144.5006
1375.506065 86.957 -144.5171
1385.473549 87.016 -144.5366
1395.513261 87.076 -144.5589
1405.625726 87.135 -144.5840
1415.811469 87.195 -144.6114
1426.071023 87.254 -144.6412
1436.404921 87.312 -144.6730
1446.813703 87.371 -144.7069
1457.297912 87.430 -144.7428
1467.858093 87.488 -144.7803
1478.494798 87.546 -144.8194
1489.208581 87.605 -144.8600
1500.000000 87.663 -144.9020
1510.869618 87.721 -144.9455
1521.818002 87.780 -144.9902
1532.845723 87.838 -145.0362
1543.953355 87.896 -145.0835
1555.141477 87.955 -145.1322
1566.410674 88.014 -145.1826
1577.761531 88.073 -145.2349
1589.194642 88.132 -145.2891
1600.710601 88.192 -145.3456
1612.310010 88.252 -145.4042
1623.993473 88.312 -145.4653
1635.761599 88.373 -145.5291
1647.615002 88.434 -145.5956
1659.554299 88.495 -145.6651
1671.580114 88.557 -145.7376
1683.693072 88.620 -145.8132
1695.893807 88.683 -145.8925
1708.182952 88.746 -145.9757
1720.561150 88.811 -146.0634
1733.029045 88.875 -146.1560
1745.587288 88.940 -146.2535
1758.236533 89.006 -146.3564
1770.977440 89.073 -146.4648
1783.810673 89.139 -146.5790
1796.736900 89.207 -146.6994
1809.756796 89.274 -146.8264
1822.871040 89.343 -146.9601
1836.080315 89.411 -147.1007
1849.385310 89.480 -147.2486
1862.786718 89.550 -147.4039
1876.285239 89.620 -147.5671
1889.881575 89.690 -147.7382
1903.576436 89.760 -147.9174
1917.370535 89.831 -148.1052
1931.264593 89.903 -148.3020
1945.259332 89.974 -148.5083
1959.355483 90.046 -148.7244
1973.553781 90.119 -148.9505
1987.854965 90.191 -149.1870
2002.259781 90.264 -149.4343
2016.768981 90.336 -149.6930
2031.383320 90.409 -149.9636
2046.103561 90.482 -150.2466
2060.930471 90.555 -150.5424
2075.864823 90.627 -150.8514
2090.907395 90.700 -151.1735
2106.058972 90.771 -151.5090
2121.320344 90.843 -151.8576
2136.692305 90.913 -152.2193
2152.175658 90.983 -152.5942
2167.771210 91.052 -152.9821
2183.479774 91.121 -153.3831
2199.302169 91.188 -153.7971
2215.239219 91.254 -154.2241
2231.291755 91.319 -154.6639
2247.460615 91.383 -155.1164
2263.746641 91.445 -155.5813
2280.150683 91.506 -156.0588
2296.673595 91.566 -156.5486
2313.316238 91.624 -157.0509
2330.079481 91.680 -157.5654
2346.964198 91.735 -158.0918
2363.971268 91.787 -158.6297
2381.101578 91.838 -159.1789
2398.356022 91.887 -159.7391
2415.735498 91.934 -160.3099
2433.240913 91.978 -160.8908
2450.873180 92.020 -161.4810
2468.633217 92.059 -162.0800
2486.521951 92.096 -162.6870
2504.540314 92.130 -163.3011
2522.689246 92.161 -163.9216
2540.969692 92.189 -164.5475
2559.382606 92.215 -165.1780
2577.928947 92.237 -165.8120
2596.609683 92.257 -166.4487
2615.425787 92.274 -167.0870
2634.378241 92.287 -167.7258
2653.468031 92.298 -168.3642
2672.696154 92.305 -169.0009
2692.063613 92.310 -169.6351
2711.571415 92.311 -170.2655
2731.220579 92.309 -170.8909
2751.012130 92.304 -171.5098
2770.947098 92.296 -172.1209
2791.026522 92.285 -172.7228
2811.251451 92.271 -173.3142
2831.622938 92.255 -173.8936
2852.142045 92.236 -174.4592
2872.809842 92.215 -175.0094
2893.627406 92.192 -175.5422
2914.595823 92.167 -176.0561
2935.716186 92.141 -176.5497
2956.989596 92.114 -177.0224
2978.417161 92.087 -177.4743
3000.000000 92.061 -177.9064
3021.739237 92.035 -178.3214
3043.636005 92.011 -178.7233
3065.691446 91.989 -179.1174
3087.906710 91.969 -179.5093
3110.282955 91.951 -179.9051
3132.821347 91.934 179.6904
3155.523062 91.917 179.2739
3178.389283 91.900 178.8444
3201.421202 91.882 178.4033
3224.620020 91.862 177.9534
3247.986946 91.839 177.4990
3271.523198 91.814 177.0444
3295.230004 91.786 176.5936
3319.108599 91.755 176.1499
3343.160228 91.723 175.7158
3367.386145 91.689 175.2927
3391.787613 91.653 174.8816
3416.365904 91.617 174.4825
3441.122300 91.580 174.0953
3466.058091 91.543 173.7193
3491.174576 91.506 173.3537
3516.473066 91.470 172.9973
3541.954880 91.433 172.6490
3567.621345 91.397 172.3075
3593.473800 91.361 171.9716
3619.513592 91.325 171.6404
3645.742080 91.289 171.3128
3672.160630 91.254 170.9884
3698.770620 91.218 170.6671
3725.573436 91.183 170.3489
3752.570477 91.147 170.0343
3779.763150 91.111 169.7237
3807.152872 91.076 169.4176
3834.741071 91.041 169.1162
3862.529185 91.006 168.8192
3890.518664 90.972 168.5257
3918.710966 90.938 168.2340
3947.107561 90.906 167.9423
3975.709929 90.875 167.6482
4004.519563 90.845 167.3494
4033.537962 90.815 167.0437
4062.766641 90.786 166.7291
4092.207123 90.758 166.4043
4121.860942 90.730 166.0680
4151.729646 90.702 165.7194
4181.814790 90.674 165.3578
4212.117944 90.645 164.9827
4242.640687 90.616 164.5934
4273.384610 90.586 164.1897
4304.351317 90.554 163.7711
4335.542421 90.521 163.3374
4366.959549 90.487 162.8882
4398.604338 90.450 162.4236
4430.478438 90.412 161.9432
4462.583511 90.370 161.4470
4494.921231 90.326 160.9355
4527.493283 90.278 160.4094
4560.301365 90.227 159.8698
4593.347189 90.171 159.3178
4626.632476 90.112 158.7550
4660.158962 90.048 158.1829
4693.928395 89.979 157.6033
4727.942535 89.904 157.0184
4762.203156 89.825 156.4305
4796.712043 89.739 155.8422
4831.470996 89.647 155.2570
4866.481826 89.549 154.6786
4901.746360 89.444 154.1111
4937.266434 89.333 153.5590
4973.043902 89.214 153.0267
5009.080628 89.089 152.5194
5045.378492 88.956 152.0423
5081.939384 88.817 151.6010
5118.765212 88.672 151.2012
5155.857894 88.521 150.8490
5193.219366 88.365 150.5502
5230.851574 88.204 150.3100
5268.756481 88.040 150.1331
5306.936062 87.873 150.0233
5345.392309 87.705 149.9835
5384.127225 87.536 150.0149
5423.142830 87.369 150.1173
5462.441159 87.205 150.2886
5502.024259 87.044 150.5256
5541.894195 86.888 150.8237
5582.053045 86.737 151.1773
5622.502902 86.592 151.5807
5663.245876 86.453 152.0278
5704.284090 86.321 152.5134
5745.619684 86.195 153.0330
5787.254813 86.076 153.5833
5829.191647 85.963 154.1623
5871.432373 85.856 154.7689
5913.979192 85.755 155.4027
5956.834323 85.660 156.0642
6000.000000 85.571 156.7538
6043.478473 85.490 157.4718
6087.272010 85.416 158.2174
6131.382892 85.350 158.9889
6175.813420 85.293 159.7830
6220.565910 85.245 160.5959
6265.642695 85.208 161.4225
6311.046124 85.180 162.2578
6356.778566 85.164 163.0965
6402.842404 85.158 163.9335
6449.240040 85.163 164.7640
6495.973891 85.179 165.5841
6543.046396 85.206 166.3906
6590.460007 85.245 167.1806
6638.217197 85.296 167.9511
6686.320456 85.359 168.6982
6734.772290 85.436 169.4167
6783.575226 85.527 170.1003
6832.731809 85.633 170.7404
6882.244600 85.754 171.3265
6932.116181 85.892 171.8458
6982.349153 86.047 172.2825
7032.946133 86.219 172.6188
7083.909760 86.408 172.8356
7135.242690 86.612 172.9127
7186.947600 86.831 172.8292
7239.027185 87.063 172.5641
7291.484160 87.304 172.0973
7344.321260 87.553 171.4089
7397.541239 87.805 170.4811
7451.146872 88.055 169.2985
7505.140954 88.299 167.8490
7559.526299 88.531 166.1263
7614.305743 88.745 164.1302
7669.482141 88.934 161.8672
7725.058371 89.094 159.3494
7781.037328 89.217 156.5933
7837.421932 89.299 153.6198
7894.215122 89.333 150.4557
7951.419859 89.313 147.1360
8009.039125 89.234 143.7054
8067.075924 89.091 140.2191
8125.533282 88.879 136.7422
8184.414245 88.598 133.3477
8243.721885 88.248 130.1129
8303.459292 87.832 127.1140
8363.629581 87.357 124.4204
8424.235888 86.831 122.0885
8485.281374 86.267 120.1563
8546.769221 85.674 118.6410
8608.702634 85.066 117.5400
8671.084842 84.452 116.8355
8733.919097 83.841 116.4997
8797.208675 83.240 116.4995
8860.956876 82.655 116.7987
8925.167022 82.089 117.3596
8989.842461 81.545 118.1455
9054.986566 81.023 119.1237
9120.602731 80.525 120.2661
9186.694378 80.048 121.5495
9253.264952 79.593 122.9545
9320.317925 79.158 124.4652
9387.856790 78.743 126.0692
9455.885071 78.345 127.7571
9524.406312 77.964 129.5222
9593.424086 77.600 131.3579
9662.941992 77.252 133.2580
9732.963653 76.920 135.2152
9803.492719 76.605 137.2222
9874.532869 76.306 139.2715
9946.087805 76.024 141.3557
10018.161257 75.758 143.4668
10090.756983 75.507 145.5968
10163.878768 75.272 147.7377
10237.530423 75.052 149.8824
10311.715789 74.846 152.0241
10386.438732 74.654 154.1567
10461.703149 74.474 156.2742
10537.512962 74.306 158.3713
10613.872125 74.150 160.4432
10690.784618 74.005 162.4852
10768.254450 73.869 164.4921
10846.285661 73.742 166.4583
10924.882318 73.623 168.3787
11004.048518 73.509 170.2497
11083.788390 73.400 172.0695
11164.106090 73.293 173.8379
11245.005805 73.187 175.5565
11326.491752 73.081 177.2292
11408.568180 72.973 178.8633
11491.239368 72.862 -179.5304
11574.509626 72.746 -177.9382
11658.383294 72.626 -176.3439
11742.864745 72.501 -174.7294
11827.958384 72.371 -173.0764
11913.668646 72.237 -171.3670
12000.000000 72.103 -169.5855
12086.956947 71.970 -167.7185
12174.544019 71.842 -165.7555
12262.765784 71.721 -163.6901
12351.626840 71.610 -161.5207
12441.131819 71.513 -159.2504
12531.285389 71.432 -156.8857
12622.092249 71.372 -154.4356
12713.557132 71.333 -151.9103
12805.684808 71.318 -149.3210
12898.480079 71.330 -146.6785
12991.947783 71.370 -143.9936
13086.092792 71.441 -141.2782
13180.920015 71.547 -138.5461
13276.434395 71.689 -135.8144
13372.640911 71.872 -133.1050
13469.544580 72.098 -130.4461
13567.150452 72.372 -127.8747
13665.463617 72.694 -125.4371
13764.489200 73.066 -123.1882
13864.232362 73.486 -121.1893
13964.698305 73.951 -119.5050
14065.892266 74.455 -118.1995
14167.819519 74.988 -117.3326
14270.485380 75.540 -116.9550
14373.895200 76.097 -117.1039
14478.054370 76.644 -117.7978
14582.968320 77.165 -119.0325
14688.642520 77.643 -120.7792
14795.082478 78.065 -122.9828
14902.293745 78.416 -125.5640
15010.281908 78.687 -128.4218
15119.052599 78.870 -131.4395
15228.611486 78.965 -134.4927
15338.964283 78.974 -137.4589
15450.116741 78.905 -140.2266
15562.074656 78.770 -142.7037
15674.843864 78.583 -144.8239
15788.430244 78.361 -146.5504
15902.839718 78.118 -147.8764
16018.078250 77.870 -148.8233
16134.151848 77.630 -149.4370
16251.066563 77.408 -149.7826
16368.828491 77.212 -149.9379
16487.443769 77.045 -149.9886
16606.918584 76.908 -150.0227
16727.259161 76.798 -150.1257
16848.471777 76.709 -150.3765
16970.562748 76.633 -150.8422
17093.538442 76.559 -151.5733
17217.405268 76.472 -152.5983
17342.169684 76.359 -153.9195
17467.838194 76.204 -155.5102
17594.417350 75.994 -157.3141
17721.913751 75.716 -159.2487
17850.334044 75.363 -161.2108
17979.684923 74.931 -163.0865
18109.973131 74.421 -164.7616
18241.205462 73.840 -166.1330
18373.388756 73.197 -167.1182
18506.529905 72.506 -167.6624
18640.635849 71.782 -167.7433
18775.713581 71.042 -167.3730
18911.770141 70.299 -166.5952
19048.812624 69.565 -165.4785
19186.848172 68.851 -164.1084
19325.883983 68.166 -162.5803
19465.927305 67.520 -160.9962
19606.985439 66.931 -159.4657
19749.065738 66.428 -158.1121
19892.175609 66.053 -157.0776
20036.322514 65.851 -156.5089
