* Measurement data measured by REW V5.31
* Source: Headset (CX31993 HIFI AUDIO), MICROPHONE (Master Volume), R, volume: 0.600
* Format: 256k Log Swept Sine, 1 sweep at -12.0 dBFS with no timing reference
* Dated: May 7, 2024 12:40:13 PM
* REW Settings:
*  C-weighting compensation: Off
*  Target level: 75.0 dB
* Note: ; 
* Measurement: Moondrop DUSK  M1 R
* Smoothing: 1/24 octave
* Frequency Step: 96 ppo
* Start Frequency: 20.141602 Hz
*
* Freq(Hz) SPL(dB) Phase(degrees)
20.141602 91.961 10.4801
20.287556 91.821 12.0862
20.434568 91.659 15.0532
20.582645 91.586 19.3374
20.731796 91.699 24.5984
20.882027 92.052 30.0968
21.033346 92.643 35.0387
21.185763 93.389 38.8172
21.339284 94.191 41.1623
21.493917 94.982 42.1607
21.649671 95.697 42.0012
21.806553 96.303 40.9108
21.964572 96.780 39.1339
22.123737 97.119 36.8536
22.284054 97.316 34.2423
22.445534 97.371 31.4652
22.608183 97.286 28.6357
22.772012 97.067 25.9095
22.937027 96.719 23.3989
23.103238 96.255 21.2399
23.270654 95.694 19.5600
23.439282 95.061 18.4437
23.609133 94.394 17.9505
23.780215 93.736 18.0250
23.952536 93.136 18.4933
24.126106 92.629 19.0809
24.300934 92.238 19.4125
24.477028 91.958 19.1896
24.654399 91.769 18.1970
24.833055 91.649 16.3976
25.013005 91.577 13.9059
25.194260 91.546 10.9272
25.376828 91.561 7.7619
25.560719 91.634 4.6817
25.745942 91.778 1.9400
25.932508 92.002 -0.3267
26.120426 92.303 -2.0898
26.309705 92.662 -3.4167
26.500356 93.044 -4.4378
26.692388 93.408 -5.2608
26.885812 93.708 -5.9571
27.080638 93.907 -6.5132
27.276876 93.973 -6.8479
27.474535 93.891 -6.8151
27.673627 93.659 -6.2250
27.874161 93.299 -4.8882
28.076149 92.853 -2.6723
28.279600 92.395 0.3482
28.484526 91.998 3.8313
28.690937 91.723 7.0833
28.898843 91.583 9.3703
29.108256 91.543 10.1139
29.319186 91.547 9.1508
29.531645 91.548 6.6427
29.745644 91.522 3.0664
29.961193 91.471 -0.9734
30.178304 91.422 -4.7361
30.396989 91.417 -7.6124
30.617258 91.505 -9.1902
30.839123 91.729 -9.4638
31.062596 92.092 -8.7765
31.287688 92.547 -7.7213
31.514412 93.015 -6.7846
31.742778 93.403 -6.2258
31.972800 93.637 -6.0091
32.204488 93.675 -5.9115
32.437855 93.504 -5.5777
32.672913 93.155 -4.6416
32.909674 92.698 -2.8319
33.148151 92.247 -0.1691
33.388356 91.920 2.8628
33.630302 91.789 5.4149
33.874001 91.835 6.6457
34.119466 91.971 6.2238
34.366710 92.100 4.3166
34.615745 92.153 1.4593
34.866585 92.109 -1.7242
35.119243 91.984 -4.6464
35.373731 91.829 -6.8462
35.630064 91.709 -8.1624
35.888254 91.679 -8.7540
36.148315 91.758 -8.9080
36.410261 91.911 -8.9590
36.674104 92.084 -9.0651
36.939860 92.228 -9.1688
37.207542 92.324 -9.0640
37.477163 92.388 -8.5927
37.748738 92.451 -7.7696
38.022281 92.536 -6.8279
38.297806 92.628 -6.1325
38.575327 92.681 -5.9432
38.854860 92.634 -6.2934
39.136419 92.443 -6.9685
39.420017 92.107 -7.5637
39.705671 91.687 -7.6824
39.993395 91.301 -7.1518
40.283203 91.094 -6.2360
40.575112 91.150 -5.6379
40.869136 91.416 -6.0134
41.165290 91.753 -7.4822
41.463591 92.018 -9.6394
41.764053 92.127 -11.8002
42.066693 92.060 -13.2239
42.371525 91.873 -13.3499
42.678567 91.673 -12.0565
42.987834 91.571 -9.8296
43.299341 91.617 -7.6363
43.613106 91.768 -6.3965
43.929145 91.927 -6.4724
44.247473 92.015 -7.6125
44.568109 92.008 -9.2417
44.891068 91.939 -10.7721
45.216367 91.868 -11.8186
45.544023 91.854 -12.3162
45.874054 91.912 -12.4891
46.206476 92.007 -12.6533
46.541307 92.076 -12.9864
46.878565 92.062 -13.4339
47.218266 91.947 -13.7805
47.560429 91.761 -13.8085
47.905072 91.568 -13.4608
48.252212 91.438 -12.9271
48.601867 91.409 -12.5691
48.954056 91.466 -12.6998
49.308798 91.557 -13.3910
49.666109 91.630 -14.4554
50.026010 91.653 -15.5757
50.388520 91.628 -16.4684
50.753656 91.579 -17.0070
51.121437 91.534 -17.2581
51.491884 91.504 -17.4108
51.865016 91.482 -17.6382
52.240851 91.451 -17.9919
52.619410 91.400 -18.3996
53.000712 91.333 -18.7521
53.384777 91.258 -18.9989
53.771625 91.176 -19.1748
54.161276 91.076 -19.3387
54.553751 90.934 -19.4826
54.949070 90.740 -19.4971
55.347254 90.511 -19.2293
55.748323 90.292 -18.6036
56.152298 90.140 -17.7200
56.559201 90.098 -16.8386
56.969052 90.169 -16.2483
57.381873 90.323 -16.1334
57.797686 90.511 -16.5350
58.216512 90.681 -17.3724
58.638373 90.783 -18.4509
59.063291 90.784 -19.4596
59.491288 90.687 -20.0216
59.922386 90.536 -19.8538
60.356608 90.406 -18.9885
60.793977 90.351 -17.8524
61.234515 90.370 -17.0156
61.678246 90.417 -16.8148
62.125192 90.452 -17.2364
62.575377 90.470 -18.0994
63.028824 90.484 -19.2495
63.485557 90.491 -20.5506
63.945599 90.455 -21.7457
64.408975 90.347 -22.4210
64.875709 90.178 -22.2054
65.345825 90.000 -21.0888
65.819348 89.873 -19.5695
66.296302 89.821 -18.3946
66.776713 89.836 -18.0993
67.260604 89.906 -18.8053
67.748002 90.011 -20.2988
68.238932 90.116 -22.1452
68.733420 90.172 -23.7762
69.231490 90.160 -24.6669
69.733170 90.111 -24.6474
70.238485 90.081 -24.1215
70.747463 90.082 -23.8368
71.260128 90.073 -24.2529
71.776508 90.007 -25.1967
72.296630 89.892 -26.1177
72.820521 89.788 -26.6051
73.348209 89.750 -26.7100
73.879720 89.777 -26.8194
74.415083 89.811 -27.2422
74.954326 89.779 -27.8993
75.497475 89.643 -28.3317
76.044561 89.428 -27.9833
76.595612 89.230 -26.6483
77.150655 89.151 -24.8120
77.709720 89.215 -23.3608
78.272837 89.353 -22.7938
78.840034 89.473 -22.9177
79.411342 89.511 -23.1941
79.986789 89.446 -23.1448
80.566406 89.316 -22.6250
81.150224 89.216 -22.0572
81.738272 89.235 -22.3662
82.330581 89.348 -24.1409
82.927182 89.426 -26.7809
83.528107 89.361 -28.7758
84.133386 89.159 -28.8499
84.743051 88.929 -27.0518
85.357134 88.763 -24.8246
85.975667 88.677 -23.6539
86.598682 88.660 -23.8051
87.226212 88.703 -24.5851
87.858289 88.763 -25.1939
88.494946 88.756 -25.1701
89.136217 88.654 -24.5140
89.782135 88.527 -23.8280
90.432733 88.458 -23.9878
91.088046 88.446 -25.1476
91.748108 88.445 -26.4232
92.412952 88.445 -26.9336
93.082615 88.456 -26.7634
93.757130 88.467 -26.6390
94.436533 88.445 -26.8855
95.120859 88.393 -27.1225
95.810144 88.342 -26.9056
96.504423 88.308 -26.3032
97.203734 88.282 -25.7838
97.908112 88.263 -25.7788
98.617595 88.256 -26.3659
99.332219 88.247 -27.1121
100.052021 88.225 -27.3563
100.777039 88.217 -26.9742
101.507311 88.247 -26.6382
102.242875 88.290 -26.9212
102.983769 88.298 -27.4857
103.730032 88.252 -27.5258
104.481702 88.166 -26.8437
105.238820 88.071 -26.2091
106.001424 87.999 -26.2770
106.769554 88.022 -26.4976
107.543250 88.183 -25.6859
108.322553 88.400 -23.1287
109.107503 88.590 -19.3651
109.898141 88.735 -16.7888
110.694508 88.752 -17.4201
111.496646 88.595 -20.0996
112.304596 88.397 -22.2582
113.118402 88.269 -23.4174
113.938104 88.092 -24.8379
114.763747 87.740 -26.7118
115.595372 87.327 -27.7558
116.433024 87.109 -27.2095
117.276746 87.144 -26.0716
118.126581 87.252 -25.5041
118.982575 87.284 -25.7289
119.844772 87.180 -26.0844
120.713217 86.989 -25.8456
121.587954 86.768 -25.7751
122.469031 86.462 -26.8149
123.356492 86.142 -28.1471
124.250384 86.090 -28.6056
125.150753 86.422 -28.1106
126.057647 86.912 -27.5960
126.971113 87.216 -27.8833
127.891198 87.177 -28.3015
128.817950 86.949 -28.1256
129.751418 86.721 -27.8176
130.691651 86.573 -27.4005
131.638696 86.587 -27.0948
132.592604 86.707 -27.1319
133.553425 86.870 -26.0180
134.521208 87.084 -23.3532
135.496004 87.230 -20.3237
136.477864 87.214 -17.9811
137.466839 87.031 -17.5591
138.462981 86.714 -19.1018
139.466340 86.404 -21.5077
140.476971 86.208 -23.8251
141.494925 86.131 -25.2421
142.520256 86.155 -25.8041
143.553016 86.204 -26.2437
144.593260 86.219 -26.5602
145.641043 86.219 -26.5088
146.696418 86.195 -26.3555
147.759441 86.122 -26.1744
148.830166 86.056 -25.9877
149.908651 86.046 -26.1733
150.994951 86.067 -26.8257
152.089123 86.096 -27.4802
153.191223 86.107 -27.6272
154.301310 86.058 -26.9648
155.419441 85.984 -25.9702
156.545674 85.909 -25.5548
157.680069 85.818 -25.4167
158.822683 85.739 -25.2108
159.973578 85.719 -25.0745
161.132813 85.759 -25.0616
162.300447 85.805 -24.9317
163.476543 85.853 -24.5403
164.661162 85.878 -23.7118
165.854364 85.815 -22.4264
167.056213 85.661 -21.6717
168.266772 85.550 -21.7667
169.486102 85.596 -21.8819
170.714268 85.694 -21.5938
171.951334 85.728 -21.1954
173.197364 85.710 -21.0472
174.452424 85.673 -21.1112
175.716578 85.618 -21.3180
176.989893 85.555 -21.5217
178.272434 85.523 -21.5598
179.564270 85.529 -21.5716
180.865467 85.534 -21.6490
182.176092 85.519 -21.7244
183.496216 85.491 -21.7302
184.825905 85.451 -21.6223
186.165229 85.395 -21.4853
187.514259 85.348 -21.4262
188.873065 85.337 -21.4243
190.241717 85.344 -21.3388
191.620287 85.323 -20.9802
193.008847 85.261 -20.4191
194.407468 85.173 -20.0357
195.816225 85.077 -19.9568
197.235190 84.998 -20.0730
198.664438 84.966 -20.2054
200.104042 84.979 -20.2119
201.554078 85.007 -20.1152
203.014622 85.023 -20.0373
204.485750 85.032 -20.0125
205.967538 85.045 -19.9346
207.460064 85.053 -19.7016
208.963405 85.030 -19.4476
210.477640 84.983 -19.4130
212.002848 84.948 -19.5792
213.539108 84.940 -19.6757
215.086500 84.934 -19.5862
216.645105 84.907 -19.4720
218.215005 84.873 -19.4244
219.796281 84.849 -19.3440
221.389015 84.840 -19.1811
222.993292 84.837 -19.0437
224.609193 84.831 -18.9589
226.236804 84.817 -18.8778
227.876209 84.797 -18.7854
229.527494 84.776 -18.6755
231.190745 84.753 -18.4937
232.866048 84.725 -18.2274
234.553491 84.693 -17.9116
236.253163 84.659 -17.5984
237.965150 84.620 -17.2966
239.689544 84.579 -17.0279
241.426433 84.535 -16.8249
243.175909 84.488 -16.7159
244.938062 84.443 -16.7249
246.712984 84.409 -16.8422
248.500768 84.398 -16.9569
250.301507 84.405 -16.9137
252.115295 84.418 -16.6618
253.942226 84.419 -16.2704
255.782396 84.399 -15.8350
257.635901 84.361 -15.4500
259.502837 84.312 -15.2012
261.383301 84.267 -15.0976
263.277392 84.242 -15.1228
265.185209 84.240 -15.1658
267.106850 84.248 -15.0647
269.042417 84.249 -14.7659
270.992009 84.236 -14.3921
272.955729 84.217 -14.1435
274.933678 84.201 -14.1382
276.925961 84.181 -14.2470
278.932681 84.152 -14.1447
280.953942 84.125 -13.7125
282.989850 84.111 -13.2438
285.040511 84.106 -13.0341
287.106032 84.099 -12.9780
289.186521 84.092 -12.7748
291.282086 84.090 -12.4027
293.392836 84.091 -12.1221
295.518881 84.091 -12.0458
297.660333 84.085 -12.0152
299.817302 84.073 -11.8839
301.989902 84.059 -11.6464
304.178245 84.050 -11.3446
306.382446 84.043 -11.0144
308.602620 84.036 -10.6765
310.838882 84.024 -10.3561
313.091348 84.006 -10.0963
315.360137 83.984 -9.9492
317.645367 83.970 -9.9281
319.947156 83.972 -9.9621
322.265625 83.992 -9.9281
324.600895 84.019 -9.7487
326.953086 84.038 -9.4695
329.322323 84.043 -9.2327
331.708729 84.041 -9.1292
334.112427 84.045 -9.1066
336.533543 84.055 -9.0421
338.972204 84.062 -8.9242
341.428536 84.062 -8.8541
343.902668 84.060 -8.8557
346.394729 84.055 -8.8449
348.904848 84.048 -8.7707
351.433156 84.045 -8.6385
353.979786 84.050 -8.5005
356.544869 84.054 -8.4415
359.128540 84.046 -8.4703
361.730934 84.022 -8.4653
364.352185 83.992 -8.3063
366.992431 83.972 -7.9992
369.651810 83.975 -7.6259
372.330459 84.002 -7.3698
375.028519 84.032 -7.3329
377.746130 84.036 -7.5155
380.483434 83.996 -7.7595
383.240574 83.926 -7.7406
386.017693 83.867 -7.4343
388.814937 83.844 -7.1004
391.632450 83.848 -6.8665
394.470380 83.863 -6.6906
397.328875 83.874 -6.5152
400.208084 83.877 -6.3458
403.108157 83.873 -6.2145
406.029245 83.867 -6.1081
408.971500 83.860 -5.9929
411.935076 83.855 -5.8698
414.920127 83.849 -5.7549
417.926810 83.843 -5.6516
420.955280 83.835 -5.5503
424.005695 83.828 -5.4417
427.078215 83.824 -5.3135
430.173000 83.820 -5.1769
433.290211 83.816 -5.0334
436.430010 83.811 -4.8803
439.592562 83.805 -4.7235
442.778031 83.798 -4.5624
445.986583 83.790 -4.4131
449.218386 83.782 -4.2703
452.473607 83.774 -4.1147
455.752418 83.767 -3.9633
459.054987 83.760 -3.8309
462.381489 83.753 -3.6856
465.732096 83.749 -3.5130
469.106983 83.750 -3.3540
472.506325 83.750 -3.2481
475.930301 83.742 -3.1721
479.379088 83.730 -3.0659
482.852867 83.719 -2.9194
486.351817 83.716 -2.7819
489.876123 83.722 -2.6755
493.425968 83.733 -2.5795
497.001536 83.745 -2.4392
500.603014 83.749 -2.2256
504.230589 83.739 -1.9841
507.884452 83.721 -1.7882
511.564792 83.708 -1.6357
515.271802 83.700 -1.4395
519.005673 83.691 -1.2390
522.766602 83.682 -1.0645
526.554785 83.676 -0.8876
530.370418 83.672 -0.7414
534.213700 83.667 -0.6162
538.084833 83.663 -0.4806
541.984018 83.660 -0.3597
545.911457 83.657 -0.2045
549.867357 83.657 -0.0143
553.851922 83.655 0.1872
557.865362 83.650 0.4086
561.907884 83.642 0.6144
565.979700 83.632 0.7862
570.081022 83.624 0.9290
574.212064 83.619 1.0596
578.373042 83.617 1.2027
582.564171 83.615 1.3638
586.785671 83.613 1.5399
591.037762 83.611 1.7361
595.320665 83.608 1.9518
599.634604 83.603 2.1761
603.979804 83.599 2.4015
608.356491 83.596 2.6131
612.764893 83.595 2.8034
617.205240 83.595 2.9785
621.677763 83.595 3.1507
626.182696 83.594 3.3152
630.720274 83.590 3.4646
635.290733 83.579 3.6205
639.894312 83.564 3.8400
644.531250 83.552 4.1530
649.201789 83.550 4.4896
653.906173 83.556 4.7590
658.644647 83.565 4.9499
663.417457 83.574 5.0971
668.224854 83.584 5.2305
673.067086 83.594 5.3700
677.944408 83.603 5.5333
682.857073 83.611 5.7345
687.805336 83.618 5.9729
692.789457 83.624 6.2369
697.809695 83.631 6.5091
702.866312 83.637 6.7732
707.959571 83.643 7.0189
713.089738 83.646 7.2447
718.257080 83.648 7.4781
723.461867 83.652 7.7609
728.704370 83.667 8.0746
733.984862 83.690 8.3382
739.303619 83.710 8.5692
744.660918 83.718 8.8263
750.057038 83.712 9.0892
755.492260 83.706 9.3106
760.966869 83.706 9.5222
766.481148 83.712 9.7582
772.035387 83.722 10.0150
777.629873 83.736 10.2770
783.264900 83.751 10.5328
788.940760 83.766 10.7882
794.657750 83.782 11.0563
800.416168 83.798 11.3401
806.216313 83.815 11.6392
812.058489 83.833 11.9548
817.943000 83.853 12.2823
823.870152 83.872 12.6097
829.840255 83.890 12.9118
835.853619 83.911 13.1719
841.910559 83.937 13.4152
848.011390 83.964 13.6658
854.156430 83.991 13.9220
860.346000 84.017 14.1948
866.580422 84.044 14.4922
872.860020 84.073 14.8118
879.185124 84.104 15.1425
885.556062 84.135 15.4619
891.973166 84.169 15.7531
898.436771 84.204 16.0204
904.947215 84.241 16.2756
911.504835 84.280 16.5256
918.109975 84.320 16.7779
924.762978 84.360 17.0411
931.464192 84.401 17.3223
938.213966 84.442 17.6202
945.012651 84.484 17.9201
951.860602 84.527 18.2037
958.758176 84.573 18.4602
965.705733 84.621 18.6842
972.703635 84.672 18.8832
979.752246 84.725 19.0739
986.851935 84.779 19.2718
994.003071 84.833 19.4816
1001.206027 84.886 19.6949
1008.461179 84.939 19.9035
1015.768904 84.991 20.1008
1023.129584 85.045 20.2801
1030.543603 85.101 20.4409
1038.011347 85.159 20.5830
1045.533205 85.219 20.7085
1053.109569 85.281 20.8213
1060.740836 85.344 20.9234
1068.427401 85.406 21.0185
1076.169666 85.467 21.1090
1083.968035 85.527 21.1928
1091.822915 85.586 21.2698
1099.734713 85.646 21.3396
1107.703844 85.704 21.4006
1115.730723 85.763 21.4510
1123.815768 85.823 21.4856
1131.959400 85.883 21.4973
1140.162045 85.944 21.4869
1148.424129 86.005 21.4625
1156.746083 86.066 21.4317
1165.128342 86.125 21.4020
1173.571343 86.181 21.3782
1182.075524 86.235 21.3600
1190.641331 86.287 21.3410
1199.269209 86.339 21.3122
1207.959608 86.391 21.2623
1216.712981 86.444 21.1842
1225.529785 86.498 21.0826
1234.410479 86.551 20.9702
1243.355526 86.604 20.8605
1252.365393 86.653 20.7619
1261.440549 86.700 20.6745
1270.581467 86.744 20.5944
1279.788624 86.787 20.5159
1289.062500 86.829 20.4299
1298.403578 86.871 20.3273
1307.812346 86.914 20.2059
1317.289293 86.956 20.0735
1326.834914 86.999 19.9421
1336.449707 87.041 19.8187
1346.134173 87.082 19.7041
1355.888816 87.120 19.5965
1365.714145 87.156 19.4945
1375.610673 87.190 19.3946
1385.578915 87.223 19.2900
1395.619391 87.256 19.1782
1405.732624 87.290 19.0619
1415.919142 87.324 18.9428
1426.179476 87.359 18.8210
1436.514160 87.393 18.7001
1446.923734 87.426 18.5838
1457.408740 87.458 18.4759
1467.969724 87.487 18.3774
1478.607238 87.516 18.2864
1489.321836 87.543 18.1997
1500.114076 87.570 18.1144
1510.984521 87.598 18.0273
1521.933737 87.627 17.9347
1532.962297 87.657 17.8366
1544.070773 87.689 17.7372
1555.259747 87.720 17.6402
1566.529800 87.750 17.5473
1577.881521 87.779 17.4612
1589.315501 87.806 17.3857
1600.832336 87.832 17.3199
1612.432627 87.858 17.2595
1624.116978 87.884 17.1994
1635.886000 87.911 17.1343
1647.740304 87.940 17.0601
1659.680509 87.971 16.9780
1671.707238 88.002 16.8945
1683.821118 88.034 16.8159
1696.022780 88.064 16.7471
1708.312860 88.092 16.6907
1720.692000 88.121 16.6409
1733.160843 88.151 16.5883
1745.720041 88.183 16.5255
1758.370248 88.217 16.4482
1771.112124 88.251 16.3614
1783.946332 88.285 16.2782
1796.873543 88.318 16.2087
1809.894429 88.349 16.1517
1823.009670 88.379 16.0980
1836.219950 88.407 16.0392
1849.525956 88.435 15.9729
1862.928384 88.465 15.9007
1876.427931 88.495 15.8280
1890.025301 88.527 15.7546
1903.721204 88.560 15.6766
1917.516352 88.594 15.5943
1931.411466 88.630 15.5086
1945.407270 88.667 15.4196
1959.504493 88.704 15.3273
1973.703870 88.741 15.2318
1988.006142 88.777 15.1335
2002.412054 88.813 15.0340
2016.922357 88.849 14.9341
2031.537808 88.884 14.8326
2046.259169 88.920 14.7263
2061.087206 88.958 14.6132
2076.022694 88.996 14.4910
2091.066410 89.035 14.3612
2106.219139 89.076 14.2275
2121.481671 89.119 14.0884
2136.854802 89.162 13.9383
2152.339333 89.204 13.7753
2167.936071 89.245 13.6045
2183.645829 89.283 13.4383
2199.469427 89.318 13.2841
2215.407689 89.352 13.1353
2231.461446 89.387 12.9750
2247.631536 89.425 12.7886
2263.918800 89.467 12.5759
2280.324089 89.510 12.3476
2296.848258 89.553 12.1182
2313.492167 89.593 11.8951
2330.256685 89.629 11.6748
2347.142685 89.662 11.4485
2364.151049 89.692 11.2136
2381.282662 89.722 10.9747
2398.538418 89.753 10.7279
2415.919216 89.787 10.4614
2433.425962 89.822 10.1704
2451.059570 89.857 9.8631
2468.820958 89.891 9.5556
2486.711052 89.922 9.2558
2504.730786 89.950 8.9563
2522.881098 89.975 8.6452
2541.162934 89.998 8.3175
2559.577248 90.020 7.9785
2578.125000 90.040 7.6357
2596.807157 90.058 7.2913
2615.624692 90.074 6.9408
2634.578586 90.089 6.5789
2653.669829 90.103 6.2057
2672.899414 90.116 5.8251
2692.268345 90.128 5.4398
2711.777632 90.139 5.0487
2731.428290 90.148 4.6531
2751.221345 90.154 4.2551
2771.157829 90.158 3.8549
2791.238781 90.160 3.4518
2811.465248 90.160 3.0451
2831.838284 90.158 2.6345
2852.358952 90.155 2.2221
2873.028321 90.151 1.8095
2893.847468 90.146 1.3927
2914.817480 90.140 0.9682
2935.939449 90.131 0.5420
2957.214476 90.118 0.1258
2978.643672 90.100 -0.2751
3000.228152 90.079 -0.6683
3021.969041 90.055 -1.0655
3043.867475 90.031 -1.4684
3065.924593 90.005 -1.8708
3088.141547 89.977 -2.2675
3110.519493 89.947 -2.6568
3133.059600 89.912 -3.0384
3155.763041 89.873 -3.4073
3178.631001 89.830 -3.7601
3201.664672 89.786 -4.1057
3224.865254 89.741 -4.4542
3248.233957 89.697 -4.8071
3271.771999 89.651 -5.1525
3295.480608 89.602 -5.4764
3319.361019 89.549 -5.7789
3343.414477 89.493 -6.0669
3367.642236 89.435 -6.3463
3392.045560 89.376 -6.6178
3416.625721 89.317 -6.8779
3441.383999 89.258 -7.1251
3466.321686 89.199 -7.3597
3491.440082 89.140 -7.5819
3516.740496 89.080 -7.7912
3542.224247 89.019 -7.9859
3567.892664 88.957 -8.1636
3593.747085 88.894 -8.3251
3619.788858 88.830 -8.4728
3646.019340 88.767 -8.6083
3672.439900 88.704 -8.7324
3699.051913 88.642 -8.8443
3725.856768 88.580 -8.9414
3752.855862 88.517 -9.0226
3780.050603 88.454 -9.0888
3807.442408 88.391 -9.1418
3835.032705 88.330 -9.1826
3862.822933 88.270 -9.2134
3890.814540 88.213 -9.2341
3919.008986 88.156 -9.2435
3947.407741 88.101 -9.2417
3976.012284 88.045 -9.2271
4004.824108 87.988 -9.1982
4033.844715 87.933 -9.1566
4063.075616 87.879 -9.1069
4092.518337 87.828 -9.0519
4122.174412 87.781 -8.9933
4152.045387 87.738 -8.9309
4182.132820 87.697 -8.8624
4212.438278 87.658 -8.7860
4242.963342 87.620 -8.7029
4273.709604 87.582 -8.6162
4304.678665 87.546 -8.5281
4335.872141 87.513 -8.4410
4367.291658 87.484 -8.3583
4398.938854 87.459 -8.2824
4430.815378 87.439 -8.2127
4462.922893 87.421 -8.1466
4495.263072 87.405 -8.0816
4527.837601 87.391 -8.0181
4560.648179 87.378 -7.9606
4593.696515 87.367 -7.9146
4626.984334 87.360 -7.8834
4660.513370 87.358 -7.8704
4694.285371 87.360 -7.8795
4728.302098 87.367 -7.9145
4762.565324 87.376 -7.9781
4797.076835 87.387 -8.0730
4831.838432 87.399 -8.2015
4866.851925 87.412 -8.3691
4902.119140 87.425 -8.5820
4937.641916 87.438 -8.8429
4973.422105 87.449 -9.1509
5009.461572 87.457 -9.5022
5045.762195 87.459 -9.8890
5082.325868 87.454 -10.3020
5119.154496 87.441 -10.7335
5156.250000 87.421 -11.1746
5193.614313 87.394 -11.6162
5231.249383 87.362 -12.0496
5269.157173 87.325 -12.4670
5307.339658 87.285 -12.8622
5345.798829 87.241 -13.2332
5384.536691 87.193 -13.5785
5423.555263 87.142 -13.8984
5462.856580 87.088 -14.1968
5502.442691 87.034 -14.4801
5542.315659 86.981 -14.7537
5582.477563 86.930 -15.0224
5622.930497 86.880 -15.2880
5663.676569 86.829 -15.5506
5704.717904 86.776 -15.8093
5746.056642 86.720 -16.0650
5787.694937 86.660 -16.3203
5829.634960 86.596 -16.5783
5871.878898 86.530 -16.8431
5914.428953 86.460 -17.1185
5957.287343 86.388 -17.4055
6000.456303 86.310 -17.7017
6043.938083 86.224 -18.0027
6087.734950 86.128 -18.3007
6131.849187 86.017 -18.5854
6176.283094 85.891 -18.8424
6221.038987 85.748 -19.0503
6266.119200 85.588 -19.1790
6311.526083 85.412 -19.1923
6357.262002 85.221 -19.0499
6403.329344 85.021 -18.7125
6449.730508 84.818 -18.1518
6496.467914 84.619 -17.3578
6543.543998 84.435 -16.3413
6590.961215 84.271 -15.1359
6638.722037 84.135 -13.7911
6686.828954 84.027 -12.3613
6735.284473 83.947 -10.8937
6784.091120 83.893 -9.4238
6833.251441 83.860 -7.9714
6882.767998 83.844 -6.5447
6932.643372 83.843 -5.1481
6982.880164 83.856 -3.7824
7033.480992 83.882 -2.4470
7084.448495 83.920 -1.1428
7135.785329 83.970 0.1316
7187.494171 84.030 1.3795
7239.577717 84.101 2.6009
7292.038681 84.180 3.7906
7344.879799 84.269 4.9434
7398.103826 84.367 6.0541
7451.713536 84.475 7.1198
7505.711724 84.592 8.1463
7560.101205 84.721 9.1462
7614.884815 84.864 10.1212
7670.065409 85.022 11.0539
7725.645865 85.197 11.9169
7781.629080 85.386 12.6759
7838.017972 85.588 13.3040
7894.815481 85.802 13.7857
7952.024569 86.025 14.1087
8009.648217 86.257 14.2586
8067.689429 86.495 14.2215
8126.151233 86.735 13.9842
8185.036674 86.970 13.5351
8244.348824 87.195 12.8701
8304.090774 87.404 11.9936
8364.265639 87.589 10.9197
8424.876556 87.745 9.6797
8485.926684 87.867 8.3284
8547.419207 87.952 6.9506
8609.357330 88.007 5.6574
8671.744282 88.051 4.5465
8734.583316 88.118 3.5881
8797.877707 88.226 2.5017
8861.630756 88.341 0.9392
8925.845785 88.400 -0.9955
8990.526143 88.403 -2.8591
9055.675202 88.406 -4.6335
9121.296357 88.404 -6.7197
9187.393031 88.330 -9.1657
9253.968668 88.147 -11.4883
9321.026740 87.893 -13.2886
9388.570742 87.627 -14.5332
9456.604196 87.385 -15.3874
9525.130648 87.180 -16.0314
9594.153671 87.011 -16.5958
9663.676863 86.872 -17.1622
9733.703850 86.754 -17.7791
9804.238280 86.650 -18.4752
9875.283832 86.554 -19.2684
9946.844210 86.460 -20.1672
10018.923143 86.362 -21.1728
10091.524390 86.259 -22.2800
10164.651736 86.147 -23.4756
10238.308993 86.024 -24.7433
10312.500000 85.888 -26.0679
10387.228626 85.735 -27.4382
10462.498767 85.563 -28.8459
10538.314345 85.368 -30.2825
10614.679315 85.148 -31.7349
10691.597657 84.902 -33.1819
10769.073381 84.627 -34.5964
10847.110526 84.322 -35.9469
10925.713161 83.987 -37.1978
11004.885382 83.622 -38.3158
11084.631318 83.226 -39.2675
11164.955126 82.798 -40.0090
11245.860993 82.342 -40.4838
11327.353138 81.864 -40.6467
11409.435808 81.375 -40.4831
11492.113283 80.885 -39.9984
11575.389873 80.400 -39.2052
11659.269920 79.927 -38.1190
11743.757796 79.468 -36.7578
11828.857906 79.027 -35.1462
11914.574686 78.607 -33.3109
12000.912606 78.211 -31.2745
12087.876166 77.838 -29.0597
12175.469900 77.491 -26.6911
12263.698373 77.169 -24.1937
12352.566187 76.874 -21.5896
12442.077974 76.605 -18.8990
12532.238400 76.363 -16.1414
12623.052165 76.145 -13.3354
12714.524005 75.953 -10.4954
12806.658687 75.785 -7.6346
12899.461015 75.642 -4.7663
12992.935827 75.522 -1.9063
13087.087996 75.423 0.9307
13181.922430 75.345 3.7337
13277.444074 75.286 6.4930
13373.657907 75.245 9.1948
13470.568945 75.223 11.8268
13568.182241 75.219 14.3838
13666.502883 75.232 16.8618
13765.535996 75.261 19.2511
13865.286744 75.307 21.5411
13965.760328 75.368 23.7228
14066.961984 75.442 25.7877
14168.896989 75.529 27.7322
14271.570658 75.627 29.5551
14374.988342 75.737 31.2523
14479.155433 75.857 32.8153
14584.077362 75.987 34.2362
14689.759598 76.124 35.5102
14796.207652 76.268 36.6370
14903.427072 76.415 37.6191
15011.423448 76.561 38.4648
15120.202410 76.703 39.1937
15229.769630 76.834 39.8312
15340.130819 76.954 40.4109
15451.291730 77.059 40.9836
15563.258160 77.148 41.6260
15676.035944 77.226 42.4452
15789.630962 77.304 43.5666
15904.049137 77.408 45.1026
16019.296433 77.573 47.1039
16135.378859 77.843 49.4971
16252.302465 78.256 52.0440
16370.073348 78.832 54.3765
16488.697648 79.566 56.0922
16608.181548 80.430 56.8340
16728.531278 81.385 56.3182
16849.753112 82.381 54.3275
16971.853368 83.357 50.7139
17094.838414 84.243 45.4217
17218.714660 84.961 38.5286
17343.488565 85.433 30.2968
17469.166632 85.595 21.2021
17595.755415 85.410 11.8967
17723.261512 84.882 3.0848
17851.691571 84.057 -4.6300
17981.052287 83.005 -10.8407
18111.350404 81.806 -15.3434
18242.592715 80.539 -18.0967
18374.786062 79.277 -19.1861
18507.937336 78.091 -18.8180
18642.053479 77.048 -17.3580
18777.141484 76.198 -15.3828
18913.208391 75.548 -13.6200
19050.261296 75.049 -12.7074
19188.307342 74.603 -12.9340
19327.353727 74.112 -14.1873
19467.407699 73.512 -16.1150
19608.476560 72.788 -18.3357
19750.567664 71.992 -20.5394
19893.688419 71.270 -22.4487
20037.846286 70.842 -23.6654
