* Measurement data measured by REW V5.31.3
* Source: Headset (CX31993 HIFI AUDIO), MICROPHONE (Master Volume), R, volume: 0.250
* Format: 256k Log Swept Sine, 1 sweep at -12.0 dBFS with no timing reference
* Dated: 02 3, 25 11:58:06 AM
* REW Settings:
*  C-weighting compensation: Off
*  Target level: 75.0 dB
* Note: ; 
* Measurement: Moondrop Starfield R
* Smoothing: 1/12 octave
* Frequency Step: 96 ppo
* Start Frequency: 0.36621094 Hz
*
* Freq(Hz) SPL(dB) Phase(degrees)
0.366211 40.283 -9.9049
0.368865 40.290 -9.8737
0.371538 40.299 -9.8275
0.374230 40.311 -9.7703
0.376942 40.325 -9.7058
0.379673 40.340 -9.6363
0.382424 40.355 -9.5637
0.385196 40.370 -9.4889
0.387987 40.386 -9.4126
0.390798 40.402 -9.3350
0.393630 40.418 -9.2562
0.396483 40.435 -9.1765
0.399356 40.451 -9.0957
0.402250 40.468 -9.0138
0.405165 40.485 -8.9309
0.408101 40.501 -8.8469
0.411058 40.518 -8.7618
0.414037 40.535 -8.6755
0.417037 40.553 -8.5879
0.420059 40.570 -8.4991
0.423103 40.587 -8.4090
0.426169 40.605 -8.3176
0.429257 40.623 -8.2248
0.432368 40.640 -8.1305
0.435501 40.658 -8.0348
0.438656 40.677 -7.9375
0.441835 40.695 -7.8387
0.445037 40.713 -7.7382
0.448262 40.732 -7.6361
0.451510 40.750 -7.5322
0.454782 40.769 -7.4266
0.458077 40.788 -7.3191
0.461397 40.807 -7.2098
0.464740 40.826 -7.0985
0.468108 40.845 -6.9852
0.471500 40.865 -6.8699
0.474917 40.884 -6.7524
0.478358 40.904 -6.6328
0.481825 40.924 -6.5110
0.485316 40.944 -6.3869
0.488833 40.964 -6.2605
0.492375 40.985 -6.1317
0.495943 41.005 -6.0005
0.499537 41.026 -5.8667
0.503157 41.046 -5.7304
0.506803 41.067 -5.5914
0.510475 41.088 -5.4498
0.514175 41.110 -5.3054
0.517900 41.131 -5.1582
0.521653 41.152 -5.0082
0.525434 41.174 -4.8552
0.529241 41.196 -4.6993
0.533076 41.218 -4.5404
0.536939 41.240 -4.3784
0.540830 41.262 -4.2132
0.544749 41.285 -4.0449
0.548696 41.308 -3.8733
0.552673 41.330 -3.6985
0.556677 41.353 -3.5203
0.560711 41.376 -3.3388
0.564774 41.400 -3.1539
0.568867 41.423 -2.9655
0.572989 41.447 -2.7736
0.577141 41.471 -2.5782
0.581324 41.495 -2.3793
0.585536 41.519 -2.1768
0.589779 41.543 -1.9707
0.594053 41.568 -1.7610
0.598358 41.592 -1.5477
0.602694 41.617 -1.3308
0.607061 41.642 -1.1102
0.611460 41.667 -0.8860
0.615891 41.693 -0.6582
0.620354 41.718 -0.4268
0.624849 41.744 -0.1918
0.629377 41.770 0.0467
0.633938 41.796 0.2888
0.638532 41.823 0.5343
0.643159 41.849 0.7833
0.647819 41.876 1.0357
0.652514 41.903 1.2914
0.657242 41.930 1.5503
0.662005 41.957 1.8124
0.666802 41.985 2.0776
0.671634 42.013 2.3458
0.676501 42.040 2.6168
0.681403 42.069 2.8907
0.686341 42.097 3.1673
0.691314 42.126 3.4464
0.696324 42.155 3.7279
0.701370 42.184 4.0117
0.706452 42.215 4.2978
0.711571 42.246 4.5860
0.716728 42.280 4.8764
0.721921 42.316 5.1689
0.727153 42.356 5.4639
0.732422 42.402 5.7614
0.737729 42.453 6.0620
0.743075 42.510 6.3658
0.748460 42.572 6.6733
0.753883 42.638 6.9843
0.759346 42.707 7.2989
0.764849 42.779 7.6168
0.770391 42.854 7.9378
0.775974 42.931 8.2616
0.781597 43.011 8.5879
0.787261 43.092 8.9163
0.792966 43.176 9.2463
0.798712 43.262 9.5777
0.804500 43.351 9.9101
0.810329 43.441 10.2430
0.816201 43.534 10.5760
0.822116 43.628 10.9087
0.828073 43.725 11.2408
0.834074 43.824 11.5718
0.840118 43.925 11.9014
0.846206 44.028 12.2290
0.852338 44.133 12.5542
0.858514 44.239 12.8768
0.864735 44.348 13.1962
0.871001 44.459 13.5120
0.877313 44.571 13.8239
0.883670 44.686 14.1314
0.890074 44.802 14.4342
0.896524 44.920 14.7318
0.903020 45.039 15.0238
0.909564 45.160 15.3100
0.916155 45.283 15.5898
0.922794 45.407 15.8629
0.929481 45.533 16.1291
0.936216 45.660 16.3878
0.943000 45.789 16.6389
0.949834 45.919 16.8819
0.956717 46.050 17.1165
0.963649 46.182 17.3424
0.970632 46.315 17.5594
0.977666 46.449 17.7670
0.984750 46.585 17.9652
0.991886 46.720 18.1535
0.999074 46.857 18.3317
1.006314 46.994 18.4997
1.013606 47.132 18.6571
1.020951 47.270 18.8037
1.028349 47.409 18.9394
1.035801 47.547 19.0640
1.043307 47.686 19.1774
1.050867 47.825 19.2795
1.058482 47.963 19.3703
1.066152 48.102 19.4499
1.073878 48.240 19.5188
1.081660 48.378 19.5775
1.089498 48.516 19.6271
1.097393 48.654 19.6690
1.105345 48.793 19.7050
1.113355 48.932 19.7366
1.121423 49.072 19.7653
1.129549 49.214 19.7919
1.137734 49.357 19.8167
1.145979 49.501 19.8399
1.154283 49.646 19.8612
1.162647 49.793 19.8805
1.171072 49.941 19.8974
1.179558 50.091 19.9114
1.188106 50.242 19.9223
1.196715 50.394 19.9296
1.205387 50.547 19.9329
1.214122 50.701 19.9320
1.222920 50.856 19.9264
1.231782 51.013 19.9158
1.240708 51.170 19.8998
1.249699 51.329 19.8781
1.258754 51.488 19.8505
1.267876 51.648 19.8166
1.277063 51.809 19.7761
1.286318 51.970 19.7288
1.295639 52.132 19.6743
1.305027 52.295 19.6124
1.314484 52.458 19.5429
1.324009 52.622 19.4654
1.333604 52.786 19.3798
1.343268 52.950 19.2857
1.353002 53.114 19.1830
1.362806 53.279 19.0715
1.372681 53.443 18.9508
1.382628 53.607 18.8208
1.392647 53.771 18.6814
1.402739 53.935 18.5324
1.412904 54.098 18.3737
1.423142 54.261 18.2054
1.433455 54.423 18.0277
1.443843 54.584 17.8411
1.454305 54.745 17.6464
1.464844 54.905 17.4449
1.475459 55.065 17.2378
1.486150 55.225 17.0266
1.496920 55.383 16.8122
1.507767 55.542 16.5955
1.518693 55.700 16.3767
1.529698 55.858 16.1559
1.540783 56.016 15.9331
1.551948 56.174 15.7080
1.563194 56.331 15.4804
1.574521 56.488 15.2501
1.585931 56.645 15.0167
1.597423 56.801 14.7800
1.608999 56.958 14.5396
1.620658 57.114 14.2953
1.632402 57.269 14.0467
1.644232 57.425 13.7936
1.656146 57.580 13.5356
1.668147 57.735 13.2725
1.680235 57.890 13.0040
1.692411 58.045 12.7297
1.704675 58.199 12.4494
1.717028 58.354 12.1628
1.729470 58.508 11.8696
1.742003 58.661 11.5695
1.754626 58.815 11.2623
1.767341 58.969 10.9478
1.780147 59.122 10.6258
1.793047 59.275 10.2962
1.806040 59.428 9.9593
1.819128 59.580 9.6152
1.832310 59.732 9.2644
1.845587 59.884 8.9078
1.858961 60.035 8.5460
1.872432 60.186 8.1797
1.886001 60.335 7.8095
1.899667 60.484 7.4358
1.913433 60.633 7.0589
1.927299 60.781 6.6790
1.941265 60.928 6.2964
1.955332 61.074 5.9111
1.969501 61.220 5.5231
1.983773 61.365 5.1327
1.998148 61.509 4.7397
2.012627 61.653 4.3443
2.027212 61.796 3.9464
2.041902 61.939 3.5459
2.056698 62.082 3.1428
2.071602 62.224 2.7370
2.086614 62.365 2.3285
2.101734 62.506 1.9170
2.116964 62.647 1.5025
2.132304 62.787 1.0848
2.147756 62.927 0.6637
2.163320 63.067 0.2391
2.178996 63.206 -0.1894
2.194786 63.345 -0.6218
2.210690 63.483 -1.0582
2.226710 63.621 -1.4987
2.242845 63.758 -1.9430
2.259098 63.894 -2.3911
2.275468 64.029 -2.8424
2.291957 64.163 -3.2968
2.308566 64.296 -3.7538
2.325295 64.428 -4.2131
2.342145 64.560 -4.6742
2.359117 64.691 -5.1370
2.376212 64.821 -5.6011
2.393431 64.950 -6.0662
2.410775 65.079 -6.5321
2.428244 65.207 -6.9985
2.445840 65.335 -7.4654
2.463564 65.462 -7.9325
2.481416 65.589 -8.3998
2.499397 65.715 -8.8673
2.517509 65.840 -9.3351
2.535752 65.966 -9.8036
2.554127 66.090 -10.2731
2.572635 66.214 -10.7440
2.591277 66.337 -11.2169
2.610055 66.460 -11.6921
2.628968 66.581 -12.1697
2.648019 66.702 -12.6495
2.667208 66.821 -13.1312
2.686535 66.940 -13.6144
2.706003 67.058 -14.0988
2.725612 67.175 -14.5837
2.745363 67.291 -15.0688
2.765257 67.406 -15.5535
2.785295 67.521 -16.0373
2.805478 67.636 -16.5199
2.825808 67.750 -17.0009
2.846285 67.863 -17.4800
2.866910 67.976 -17.9570
2.887685 68.088 -18.4318
2.908611 68.201 -18.9048
2.929688 68.312 -19.3763
2.950917 68.423 -19.8467
2.972301 68.533 -20.3167
2.993839 68.643 -20.7865
3.015534 68.751 -21.2563
3.037386 68.859 -21.7261
3.059396 68.966 -22.1956
3.081565 69.072 -22.6645
3.103896 69.178 -23.1325
3.126388 69.283 -23.5992
3.149043 69.388 -24.0642
3.171862 69.492 -24.5271
3.194847 69.596 -24.9874
3.217998 69.700 -25.4450
3.241317 69.804 -25.8996
3.264805 69.907 -26.3511
3.288463 70.011 -26.7996
3.312293 70.114 -27.2452
3.336295 70.216 -27.6884
3.360471 70.318 -28.1293
3.384822 70.420 -28.5684
3.409350 70.521 -29.0057
3.434056 70.622 -29.4414
3.458940 70.723 -29.8756
3.484005 70.823 -30.3083
3.509252 70.923 -30.7394
3.534681 71.023 -31.1689
3.560295 71.123 -31.5969
3.586094 71.223 -32.0230
3.612081 71.324 -32.4474
3.638255 71.424 -32.8698
3.664620 71.525 -33.2901
3.691175 71.625 -33.7083
3.717923 71.726 -34.1244
3.744864 71.827 -34.5387
3.772001 71.928 -34.9513
3.799335 72.029 -35.3628
3.826866 72.129 -35.7736
3.854597 72.230 -36.1842
3.882529 72.332 -36.5950
3.910664 72.433 -37.0064
3.939002 72.534 -37.4189
3.967546 72.636 -37.8326
3.996296 72.738 -38.2477
4.025255 72.841 -38.6639
4.054423 72.944 -39.0812
4.083804 73.047 -39.4994
4.113396 73.150 -39.9184
4.143204 73.253 -40.3384
4.173227 73.357 -40.7599
4.203468 73.461 -41.1834
4.233928 73.565 -41.6096
4.264609 73.669 -42.0389
4.295512 73.774 -42.4722
4.326639 73.878 -42.9098
4.357992 73.982 -43.3521
4.389572 74.087 -43.7991
4.421380 74.191 -44.2510
4.453419 74.296 -44.7073
4.485691 74.401 -45.1681
4.518196 74.505 -45.6332
4.550936 74.610 -46.1027
4.583914 74.714 -46.5767
4.617131 74.818 -47.0556
4.650589 74.922 -47.5396
4.684289 75.025 -48.0291
4.718233 75.128 -48.5245
4.752424 75.230 -49.0259
4.786862 75.331 -49.5337
4.821549 75.433 -50.0478
4.856488 75.533 -50.5679
4.891680 75.633 -51.0936
4.927127 75.732 -51.6245
4.962831 75.831 -52.1602
4.998794 75.928 -52.7002
5.035017 76.025 -53.2444
5.071503 76.120 -53.7926
5.108253 76.215 -54.3450
5.145270 76.308 -54.9018
5.182555 76.400 -55.4633
5.220110 76.491 -56.0294
5.257937 76.581 -56.5995
5.296038 76.669 -57.1729
5.334415 76.756 -57.7485
5.373071 76.842 -58.3255
5.412006 76.927 -58.9030
5.451224 77.010 -59.4807
5.490725 77.092 -60.0584
5.530514 77.172 -60.6363
5.570590 77.251 -61.2146
5.610957 77.328 -61.7930
5.651616 77.404 -62.3710
5.692570 77.479 -62.9476
5.733821 77.552 -63.5217
5.775370 77.625 -64.0923
5.817221 77.695 -64.6586
5.859375 77.765 -65.2203
5.901834 77.834 -65.7774
5.944602 77.901 -66.3300
5.987679 77.967 -66.8781
6.031068 78.032 -67.4214
6.074771 78.096 -67.9594
6.118792 78.160 -68.4914
6.163131 78.223 -69.0169
6.207792 78.285 -69.5353
6.252776 78.347 -70.0465
6.298086 78.408 -70.5506
6.343725 78.469 -71.0479
6.389694 78.529 -71.5387
6.435996 78.590 -72.0234
6.482634 78.650 -72.5021
6.529610 78.711 -72.9750
6.576926 78.771 -73.4422
6.624585 78.833 -73.9038
6.672590 78.894 -74.3600
6.720942 78.956 -74.8115
6.769645 79.018 -75.2590
6.818700 79.081 -75.7035
6.868111 79.144 -76.1459
6.917881 79.208 -76.5870
6.968010 79.272 -77.0273
7.018504 79.338 -77.4673
7.069362 79.403 -77.9073
7.120590 79.470 -78.3481
7.172189 79.537 -78.7905
7.224161 79.604 -79.2355
7.276511 79.672 -79.6840
7.329239 79.740 -80.1365
7.382350 79.808 -80.5936
7.435845 79.876 -81.0553
7.489729 79.945 -81.5219
7.544002 80.013 -81.9935
7.598669 80.081 -82.4703
7.653732 80.149 -82.9526
7.709194 80.216 -83.4405
7.765058 80.283 -83.9340
7.821327 80.348 -84.4328
7.878004 80.413 -84.9364
7.935091 80.477 -85.4439
7.992592 80.540 -85.9549
8.050510 80.602 -86.4688
8.108847 80.663 -86.9851
8.167607 80.722 -87.5035
8.226793 80.780 -88.0229
8.286408 80.836 -88.5424
8.346454 80.892 -89.0609
8.406936 80.946 -89.5774
8.467856 80.998 -90.0912
8.529218 81.050 -90.6018
8.591024 81.100 -91.1084
8.653278 81.149 -91.6104
8.715983 81.197 -92.1068
8.779143 81.244 -92.5968
8.842760 81.290 -93.0802
8.906839 81.336 -93.5565
8.971381 81.381 -94.0257
9.036392 81.426 -94.4878
9.101873 81.470 -94.9425
9.167829 81.514 -95.3900
9.234263 81.559 -95.8303
9.301178 81.603 -96.2638
9.368578 81.648 -96.6912
9.436467 81.693 -97.1129
9.504847 81.739 -97.5297
9.573723 81.785 -97.9422
9.643099 81.831 -98.3509
9.712976 81.878 -98.7565
9.783361 81.926 -99.1600
9.854255 81.974 -99.5620
9.925663 82.023 -99.9633
9.997588 82.072 -100.3643
10.070035 82.121 -100.7656
10.143007 82.171 -101.1676
10.216507 82.222 -101.5707
10.290540 82.272 -101.9753
10.365109 82.323 -102.3816
10.440219 82.373 -102.7895
10.515873 82.424 -103.1992
10.592076 82.474 -103.6106
10.668830 82.525 -104.0237
10.746141 82.575 -104.4384
10.824012 82.626 -104.8546
10.902447 82.676 -105.2722
10.981451 82.726 -105.6911
11.061027 82.775 -106.1113
11.141180 82.825 -106.5329
11.221913 82.875 -106.9559
11.303232 82.924 -107.3805
11.385140 82.973 -107.8070
11.467641 83.022 -108.2355
11.550741 83.071 -108.6665
11.634442 83.120 -109.1002
11.718750 83.168 -109.5370
11.803669 83.217 -109.9772
11.889203 83.264 -110.4211
11.975357 83.312 -110.8687
12.062136 83.358 -111.3203
12.149543 83.404 -111.7757
12.237583 83.449 -112.2348
12.326262 83.493 -112.6972
12.415583 83.536 -113.1623
12.505552 83.578 -113.6295
12.596172 83.619 -114.0980
12.687449 83.658 -114.5669
12.779387 83.696 -115.0352
12.871992 83.732 -115.5017
12.965268 83.767 -115.9654
13.059220 83.801 -116.4254
13.153852 83.833 -116.8806
13.249170 83.865 -117.3302
13.345179 83.896 -117.7737
13.441884 83.926 -118.2106
13.539289 83.955 -118.6407
13.637401 83.985 -119.0643
13.736223 84.014 -119.4815
13.835761 84.043 -119.8931
13.936021 84.073 -120.3000
14.037007 84.103 -120.7031
14.138725 84.133 -121.1035
14.241180 84.164 -121.5026
14.344377 84.195 -121.9015
14.448323 84.226 -122.3014
14.553021 84.258 -122.7031
14.658478 84.290 -123.1076
14.764700 84.321 -123.5153
14.871691 84.353 -123.9264
14.979457 84.383 -124.3409
15.088005 84.414 -124.7585
15.197339 84.443 -125.1785
15.307465 84.472 -125.6001
15.418389 84.499 -126.0223
15.530117 84.526 -126.4438
15.642655 84.551 -126.8637
15.756008 84.576 -127.2806
15.870182 84.599 -127.6936
15.985184 84.622 -128.1018
16.101019 84.645 -128.5045
16.217694 84.667 -128.9014
16.335214 84.689 -129.2923
16.453586 84.711 -129.6775
16.572815 84.734 -130.0575
16.692909 84.756 -130.4329
16.813872 84.780 -130.8048
16.935713 84.803 -131.1742
17.058436 84.828 -131.5424
17.182048 84.853 -131.9107
17.306556 84.879 -132.2804
17.431967 84.905 -132.6524
17.558286 84.932 -133.0280
17.685521 84.959 -133.4077
17.813677 84.986 -133.7921
17.942762 85.013 -134.1815
18.072783 85.039 -134.5756
18.203746 85.064 -134.9741
18.335658 85.089 -135.3761
18.468526 85.113 -135.7805
18.602356 85.136 -136.1862
18.737156 85.157 -136.5915
18.872934 85.177 -136.9950
19.009695 85.196 -137.3951
19.147447 85.214 -137.7904
19.286197 85.231 -138.1800
19.425953 85.247 -138.5629
19.566721 85.263 -138.9388
19.708510 85.279 -139.3078
19.851326 85.294 -139.6703
19.995177 85.310 -140.0273
20.140070 85.326 -140.3799
20.286013 85.342 -140.7293
20.433014 85.359 -141.0767
20.581080 85.376 -141.4233
20.730219 85.392 -141.7696
20.880439 85.409 -142.1162
21.031747 85.425 -142.4628
21.184152 85.440 -142.8092
21.337661 85.456 -143.1545
21.492282 85.470 -143.4980
21.648024 85.484 -143.8390
21.804895 85.498 -144.1770
21.962902 85.511 -144.5121
22.122054 85.525 -144.8445
22.282360 85.538 -145.1752
22.443827 85.552 -145.5052
22.606464 85.566 -145.8360
22.770280 85.580 -146.1688
22.935283 85.593 -146.5043
23.101481 85.607 -146.8431
23.268884 85.620 -147.1848
23.437500 85.632 -147.5287
23.607338 85.643 -147.8737
23.778406 85.654 -148.2185
23.950714 85.663 -148.5618
24.124271 85.673 -148.9030
24.299086 85.682 -149.2421
24.475167 85.691 -149.5798
24.652524 85.700 -149.9174
24.831166 85.710 -150.2567
25.011103 85.720 -150.5993
25.192344 85.729 -150.9465
25.374898 85.738 -151.2985
25.558775 85.747 -151.6546
25.743984 85.754 -152.0130
25.930536 85.759 -152.3713
26.118439 85.764 -152.7263
26.307704 85.767 -153.0754
26.498341 85.770 -153.4167
26.690359 85.773 -153.7493
26.883768 85.776 -154.0740
27.078579 85.781 -154.3928
27.274801 85.786 -154.7086
27.472446 85.792 -155.0248
27.671522 85.799 -155.3442
27.872042 85.807 -155.6690
28.074014 85.814 -155.9998
28.277450 85.821 -156.3363
28.482360 85.827 -156.6766
28.688755 85.831 -157.0181
28.896645 85.833 -157.3578
29.106042 85.834 -157.6927
29.316957 85.833 -158.0200
29.529400 85.831 -158.3371
29.743382 85.829 -158.6421
29.958915 85.825 -158.9337
30.176009 85.822 -159.2114
30.394677 85.820 -159.4759
30.614929 85.818 -159.7294
30.836778 85.818 -159.9756
31.060234 85.820 -160.2193
31.285309 85.824 -160.4658
31.512015 85.829 -160.7200
31.740364 85.835 -160.9845
31.970368 85.840 -161.2595
32.202039 85.844 -161.5419
32.435388 85.846 -161.8265
32.670428 85.846 -162.1069
32.907171 85.845 -162.3779
33.145630 85.845 -162.6374
33.385817 85.846 -162.8878
33.627745 85.850 -163.1356
33.871425 85.857 -163.3903
34.116871 85.866 -163.6617
34.364096 85.877 -163.9569
34.613113 85.886 -164.2784
34.863934 85.893 -164.6224
35.116572 85.897 -164.9802
35.371041 85.895 -165.3399
35.627354 85.890 -165.6895
35.885525 85.883 -166.0197
36.145566 85.874 -166.3260
36.407492 85.866 -166.6091
36.671316 85.860 -166.8745
36.937051 85.857 -167.1310
37.204712 85.856 -167.3880
37.474313 85.858 -167.6535
37.745867 85.861 -167.9330
38.019389 85.863 -168.2281
38.294893 85.864 -168.5362
38.572394 85.862 -168.8516
38.851905 85.857 -169.1661
39.133442 85.849 -169.4709
39.417019 85.838 -169.7592
39.702651 85.827 -170.0271
39.990353 85.816 -170.2757
40.280140 85.806 -170.5099
40.572026 85.799 -170.7375
40.866028 85.794 -170.9663
41.162160 85.790 -171.2020
41.460438 85.786 -171.4471
41.760877 85.782 -171.7014
42.063494 85.778 -171.9625
42.368303 85.773 -172.2279
42.675322 85.766 -172.4951
42.984565 85.760 -172.7624
43.296048 85.752 -173.0278
43.609789 85.744 -173.2889
43.925804 85.736 -173.5434
44.244108 85.728 -173.7896
44.564719 85.720 -174.0271
44.887654 85.714 -174.2566
45.212928 85.710 -174.4801
45.540560 85.707 -174.7004
45.870565 85.707 -174.9218
46.202962 85.709 -175.1506
46.537768 85.713 -175.3956
46.875000 85.718 -175.6659
47.214676 85.722 -175.9667
47.556813 85.721 -176.2946
47.901429 85.713 -176.6354
48.248542 85.697 -176.9671
48.598171 85.675 -177.2668
48.950334 85.648 -177.5200
49.305048 85.622 -177.7264
49.662333 85.599 -177.8996
50.022206 85.580 -178.0604
50.384688 85.565 -178.2264
50.749796 85.550 -178.4058
51.117550 85.535 -178.5958
51.487969 85.519 -178.7887
51.861072 85.503 -178.9783
52.236879 85.488 -179.1649
52.615409 85.475 -179.3543
52.996681 85.464 -179.5541
53.380717 85.454 -179.7691
53.767536 85.443 -179.9991
54.157158 85.432 179.7595
54.549603 85.420 179.5111
54.944892 85.407 179.2593
55.343045 85.393 179.0066
55.744084 85.378 178.7557
56.148028 85.362 178.5105
56.554900 85.344 178.2749
56.964720 85.326 178.0516
57.377510 85.308 177.8401
57.793291 85.291 177.6369
58.212085 85.274 177.4372
58.633914 85.258 177.2376
59.058799 85.240 177.0377
59.486764 85.222 176.8394
59.917829 85.203 176.6451
60.352019 85.184 176.4559
60.789354 85.165 176.2701
61.229859 85.146 176.0850
61.673556 85.127 175.8983
62.120468 85.109 175.7092
62.570618 85.090 175.5191
63.024031 85.071 175.3297
63.480729 85.053 175.1420
63.940736 85.035 174.9556
64.404077 85.018 174.7694
64.870776 85.002 174.5827
65.340856 84.986 174.3949
65.814343 84.970 174.2053
66.291261 84.954 174.0135
66.771635 84.938 173.8206
67.255489 84.922 173.6287
67.742850 84.904 173.4408
68.233743 84.887 173.2570
68.728193 84.869 173.0742
69.226226 84.851 172.8879
69.727867 84.832 172.6972
70.233144 84.811 172.5068
70.742083 84.787 172.3247
71.254709 84.763 172.1560
71.771050 84.739 172.0000
72.291132 84.716 171.8510
72.814984 84.694 171.7029
73.342631 84.673 171.5526
73.874102 84.652 171.3991
74.409424 84.631 171.2419
74.948626 84.610 171.0800
75.491734 84.589 170.9128
76.038779 84.566 170.7418
76.589787 84.543 170.5702
77.144788 84.519 170.4020
77.703811 84.495 170.2397
78.266885 84.471 170.0829
78.834039 84.447 169.9289
79.405303 84.424 169.7746
79.980706 84.401 169.6187
80.560280 84.378 169.4630
81.144053 84.353 169.3112
81.732056 84.328 169.1678
82.324320 84.303 169.0344
82.920876 84.279 168.9086
83.521755 84.255 168.7852
84.126988 84.232 168.6594
84.736607 84.209 168.5280
85.350643 84.185 168.3911
85.969129 84.160 168.2511
86.592097 84.134 168.1119
87.219579 84.107 167.9769
87.851608 84.080 167.8464
88.488217 84.054 167.7184
89.129439 84.028 167.5897
89.775308 84.004 167.4578
90.425856 83.980 167.3218
91.081119 83.956 167.1821
91.741131 83.931 167.0414
92.405925 83.906 166.9042
93.075536 83.880 166.7752
93.750000 83.853 166.6575
94.429351 83.826 166.5511
95.113625 83.800 166.4524
95.802858 83.773 166.3560
96.497085 83.747 166.2581
97.196342 83.720 166.1570
97.900667 83.693 166.0534
98.610096 83.663 165.9483
99.324665 83.633 165.8434
100.044413 83.602 165.7409
100.769376 83.569 165.6435
101.499592 83.536 165.5529
102.235100 83.504 165.4678
102.975938 83.473 165.3835
103.722144 83.442 165.2955
104.473757 83.412 165.2017
105.230817 83.382 165.1022
105.993363 83.352 164.9979
106.761435 83.322 164.8906
107.535072 83.291 164.7841
108.314315 83.259 164.6835
109.099206 83.227 164.5933
109.889783 83.194 164.5162
110.686090 83.160 164.4537
111.488167 83.126 164.4068
112.296056 83.091 164.3751
113.109800 83.055 164.3563
113.929440 83.018 164.3480
114.755020 82.981 164.3481
115.586582 82.945 164.3533
116.424170 82.910 164.3564
117.267827 82.877 164.3467
118.117598 82.845 164.3115
118.973527 82.814 164.2408
119.835658 82.781 164.1353
120.704037 82.741 164.0139
121.578708 82.695 163.9076
122.459718 82.645 163.8443
123.347111 82.593 163.8356
124.240935 82.543 163.8770
125.141236 82.496 163.9586
126.048061 82.453 164.0722
126.961458 82.414 164.2138
127.881473 82.379 164.3859
128.808154 82.350 164.6052
129.741551 82.331 164.8880
130.681712 82.328 165.2161
131.628686 82.342 165.5281
132.582521 82.370 165.7575
133.543269 82.401 165.8740
134.510979 82.425 165.8953
135.485701 82.437 165.8633
136.467486 82.436 165.8088
137.456386 82.422 165.7447
138.452451 82.397 165.6779
139.455735 82.364 165.6126
140.466288 82.326 165.5507
141.484165 82.287 165.4944
142.509418 82.251 165.4457
143.542100 82.221 165.4056
144.582265 82.199 165.3735
145.629968 82.187 165.3446
146.685262 82.183 165.3113
147.748204 82.185 165.2665
148.818849 82.188 165.2053
149.897251 82.189 165.1267
150.983469 82.186 165.0323
152.077557 82.177 164.9254
153.179574 82.162 164.8115
154.289576 82.141 164.6967
155.407622 82.115 164.5867
156.533770 82.087 164.4854
157.668078 82.056 164.3948
158.810606 82.023 164.3148
159.961413 81.990 164.2439
161.120559 81.957 164.1805
162.288105 81.924 164.1235
163.464112 81.891 164.0734
164.648640 81.860 164.0322
165.841752 81.828 164.0025
167.043510 81.798 163.9860
168.253976 81.767 163.9817
169.473213 81.737 163.9860
170.701286 81.706 163.9946
171.938258 81.677 164.0049
173.184194 81.648 164.0171
174.439158 81.621 164.0334
175.703216 81.596 164.0546
176.976434 81.573 164.0795
178.258878 81.550 164.1065
179.550615 81.525 164.1327
180.851713 81.497 164.1540
182.162239 81.465 164.1723
183.482262 81.429 164.1950
184.811850 81.390 164.2266
186.151073 81.351 164.2652
187.500000 81.314 164.3058
188.858702 81.279 164.3458
190.227250 81.246 164.3861
191.605715 81.214 164.4293
192.994169 81.183 164.4774
194.392685 81.152 164.5302
195.801334 81.121 164.5864
197.220191 81.090 164.6443
198.649330 81.059 164.7032
200.088825 81.028 164.7634
201.538751 80.997 164.8260
202.999184 80.966 164.8926
204.470200 80.934 164.9643
205.951875 80.903 165.0406
207.444287 80.871 165.1199
208.947514 80.840 165.2011
210.461634 80.810 165.2857
211.986726 80.781 165.3764
213.522869 80.752 165.4754
215.070144 80.723 165.5837
216.628631 80.694 165.7010
218.198411 80.666 165.8272
219.779567 80.638 165.9631
221.372180 80.610 166.1118
222.976334 80.583 166.2766
224.592112 80.557 166.4583
226.219600 80.533 166.6533
227.858880 80.511 166.8550
229.510039 80.492 167.0554
231.173164 80.475 167.2453
232.848340 80.461 167.4132
234.535655 80.449 167.5490
236.235197 80.439 167.6483
237.947054 80.430 167.7144
239.671317 80.422 167.7598
241.408074 80.414 167.8030
243.157416 80.405 167.8615
244.919435 80.396 167.9446
246.694223 80.385 168.0471
248.481871 80.374 168.1531
250.282473 80.361 168.2477
252.096123 80.344 168.3242
253.922915 80.325 168.3840
255.762945 80.302 168.4350
257.616309 80.279 168.4886
259.483103 80.258 168.5535
261.363424 80.242 168.6307
263.257372 80.229 168.7135
265.165043 80.217 168.7919
267.086538 80.203 168.8619
269.021957 80.185 168.9302
270.971401 80.163 169.0078
272.934972 80.139 169.0987
274.912771 80.113 169.1984
276.904902 80.087 169.3001
278.911469 80.060 169.4011
280.932577 80.034 169.5032
282.968330 80.008 169.6088
285.018835 79.983 169.7179
287.084199 79.958 169.8293
289.164530 79.934 169.9431
291.259935 79.910 170.0600
293.370525 79.888 170.1818
295.496408 79.866 170.3087
297.637697 79.844 170.4396
299.794503 79.823 170.5735
301.966937 79.803 170.7089
304.155114 79.782 170.8450
306.359147 79.762 170.9808
308.579152 79.742 171.1157
310.815244 79.722 171.2505
313.067539 79.702 171.3871
315.336156 79.682 171.5276
317.621211 79.663 171.6727
319.922826 79.644 171.8216
322.241118 79.624 171.9729
324.576210 79.605 172.1251
326.928223 79.587 172.2773
329.297280 79.568 172.4296
331.683504 79.550 172.5824
334.087019 79.532 172.7364
336.507952 79.514 172.8925
338.946427 79.497 173.0513
341.402572 79.479 173.2130
343.876516 79.462 173.3770
346.368387 79.446 173.5424
348.878315 79.429 173.7087
351.406431 79.412 173.8755
353.952867 79.395 174.0428
356.517756 79.378 174.2104
359.101230 79.361 174.3777
361.703426 79.345 174.5449
364.324478 79.329 174.7122
366.964523 79.314 174.8802
369.623699 79.299 175.0499
372.302145 79.283 175.2220
375.000000 79.268 175.3972
377.717405 79.253 175.5754
380.454501 79.238 175.7560
383.211431 79.224 175.9383
385.988339 79.209 176.1213
388.785369 79.195 176.3050
391.602668 79.181 176.4894
394.440383 79.167 176.6749
397.298660 79.154 176.8614
400.177650 79.140 177.0487
403.077502 79.127 177.2370
405.998368 79.114 177.4268
408.940400 79.102 177.6185
411.903750 79.089 177.8121
414.888575 79.077 178.0073
417.895028 79.065 178.2039
420.923268 79.053 178.4016
423.973452 79.042 178.6006
427.045738 79.030 178.8012
430.140287 79.018 179.0035
433.257261 79.007 179.2070
436.396822 78.996 179.4117
439.559133 78.985 179.6176
442.744360 78.974 179.8252
445.952668 78.963 -179.9653
449.184225 78.953 -179.7543
452.439199 78.943 -179.5421
455.717760 78.933 -179.3289
459.020079 78.923 -179.1149
462.346327 78.914 -178.8999
465.696680 78.904 -178.6838
469.071310 78.895 -178.4661
472.470394 78.886 -178.2466
475.894109 78.877 -178.0251
479.342634 78.869 -177.8017
482.816148 78.860 -177.5763
486.314833 78.852 -177.3491
489.838871 78.844 -177.1200
493.388445 78.836 -176.8890
496.963741 78.828 -176.6558
500.564945 78.820 -176.4205
504.192245 78.813 -176.1838
507.845830 78.807 -175.9462
511.525890 78.800 -175.7079
515.232618 78.794 -175.4689
518.966206 78.789 -175.2287
522.726849 78.783 -174.9871
526.514743 78.778 -174.7439
530.330086 78.773 -174.4994
534.173076 78.768 -174.2535
538.043915 78.764 -174.0057
541.942803 78.759 -173.7550
545.869944 78.755 -173.5009
549.825542 78.752 -173.2436
553.809805 78.748 -172.9836
557.822939 78.745 -172.7217
561.865154 78.742 -172.4586
565.936660 78.739 -172.1945
570.037671 78.736 -171.9293
574.168399 78.734 -171.6627
578.329060 78.732 -171.3938
582.519870 78.730 -171.1222
586.741049 78.729 -170.8475
590.992817 78.728 -170.5700
595.275394 78.728 -170.2904
599.589005 78.727 -170.0092
603.933874 78.728 -169.7267
608.310228 78.728 -169.4426
612.718295 78.729 -169.1565
617.158304 78.730 -168.8682
621.630488 78.732 -168.5776
626.135079 78.734 -168.2846
630.672311 78.737 -167.9891
635.242423 78.739 -167.6908
639.845651 78.743 -167.3892
644.482237 78.746 -167.0835
649.152421 78.749 -166.7731
653.856447 78.753 -166.4578
658.594560 78.756 -166.1373
663.367008 78.760 -165.8110
668.174039 78.764 -165.4775
673.015903 78.768 -165.1353
677.892854 78.773 -164.7824
682.805145 78.778 -164.4167
687.753032 78.783 -164.0353
692.736774 78.791 -163.6348
697.756631 78.800 -163.2119
702.812863 78.814 -162.7651
707.905735 78.833 -162.2959
713.035511 78.860 -161.8120
718.202461 78.895 -161.3297
723.406852 78.941 -160.8745
728.648956 78.995 -160.4773
733.929047 79.053 -160.1644
739.247399 79.109 -159.9445
744.604290 79.160 -159.8027
750.000000 79.200 -159.7059
755.434809 79.229 -159.6166
760.909001 79.249 -159.5059
766.422861 79.264 -159.3580
771.976677 79.275 -159.1688
777.570739 79.286 -158.9419
783.205337 79.299 -158.6844
788.880766 79.313 -158.4043
794.597321 79.329 -158.1090
800.355301 79.349 -157.8048
806.155005 79.370 -157.4963
811.996736 79.394 -157.1867
817.880799 79.419 -156.8785
823.807501 79.447 -156.5739
829.777150 79.476 -156.2753
835.790057 79.506 -155.9850
841.846536 79.537 -155.7053
847.946903 79.568 -155.4373
854.091476 79.599 -155.1805
860.280575 79.629 -154.9332
866.514523 79.657 -154.6921
872.793644 79.682 -154.4522
879.118267 79.706 -154.2064
885.488720 79.727 -153.9473
891.905336 79.746 -153.6674
898.368450 79.765 -153.3614
904.878398 79.785 -153.0270
911.435520 79.808 -152.6654
918.040157 79.833 -152.2814
924.692655 79.863 -151.8820
931.393359 79.897 -151.4756
938.142619 79.935 -151.0696
944.940787 79.978 -150.6698
951.788218 80.025 -150.2797
958.685268 80.075 -149.9007
965.632296 80.129 -149.5335
972.629666 80.184 -149.1789
979.677741 80.241 -148.8379
986.776890 80.300 -148.5110
993.927482 80.360 -148.1980
1001.129891 80.421 -147.8986
1008.384491 80.483 -147.6119
1015.691660 80.546 -147.3371
1023.051781 80.610 -147.0736
1030.465236 80.675 -146.8212
1037.932411 80.740 -146.5800
1045.453698 80.805 -146.3506
1053.029486 80.871 -146.1329
1060.660172 80.938 -145.9264
1068.346153 81.004 -145.7308
1076.087829 81.071 -145.5450
1083.885605 81.138 -145.3687
1091.739887 81.205 -145.2015
1099.651084 81.273 -145.0439
1107.619609 81.340 -144.8960
1115.645878 81.407 -144.7576
1123.730308 81.474 -144.6284
1131.873321 81.541 -144.5081
1140.075341 81.607 -144.3966
1148.336797 81.674 -144.2940
1156.658119 81.740 -144.1997
1165.039741 81.805 -144.1131
1173.482099 81.870 -144.0336
1181.985634 81.935 -143.9606
1190.550789 82.000 -143.8938
1199.178011 82.064 -143.8330
1207.867749 82.127 -143.7782
1216.620457 82.191 -143.7289
1225.436590 82.253 -143.6848
1234.316609 82.316 -143.6451
1243.260976 82.377 -143.6093
1252.270157 82.439 -143.5769
1261.344623 82.500 -143.5479
1270.484846 82.560 -143.5224
1279.691303 82.620 -143.5002
1288.964474 82.679 -143.4812
1298.304842 82.739 -143.4651
1307.712894 82.797 -143.4514
1317.189120 82.856 -143.4396
1326.734016 82.914 -143.4294
1336.348077 82.972 -143.4206
1346.031806 83.030 -143.4134
1355.785708 83.088 -143.4075
1365.610290 83.145 -143.4029
1375.506065 83.202 -143.3994
1385.473549 83.259 -143.3967
1395.513261 83.317 -143.3946
1405.625726 83.374 -143.3930
1415.811469 83.431 -143.3919
1426.071023 83.488 -143.3916
1436.404921 83.545 -143.3925
1446.813703 83.602 -143.3947
1457.297912 83.660 -143.3983
1467.858093 83.718 -143.4030
1478.494798 83.775 -143.4089
1489.208581 83.834 -143.4162
1500.000000 83.892 -143.4249
1510.869618 83.951 -143.4352
1521.818002 84.010 -143.4473
1532.845723 84.069 -143.4614
1543.953355 84.129 -143.4777
1555.141477 84.189 -143.4965
1566.410674 84.250 -143.5179
1577.761531 84.311 -143.5420
1589.194642 84.373 -143.5685
1600.710601 84.435 -143.5977
1612.310010 84.497 -143.6297
1623.993473 84.560 -143.6648
1635.761599 84.624 -143.7033
1647.615002 84.688 -143.7454
1659.554299 84.753 -143.7912
1671.580114 84.818 -143.8412
1683.693072 84.884 -143.8956
1695.893807 84.950 -143.9550
1708.182952 85.017 -144.0195
1720.561150 85.084 -144.0894
1733.029045 85.152 -144.1649
1745.587288 85.220 -144.2464
1758.236533 85.289 -144.3342
1770.977440 85.359 -144.4284
1783.810673 85.429 -144.5293
1796.736900 85.500 -144.6372
1809.756796 85.571 -144.7523
1822.871040 85.643 -144.8751
1836.080315 85.715 -145.0060
1849.385310 85.788 -145.1452
1862.786718 85.861 -145.2932
1876.285239 85.934 -145.4501
1889.881575 86.008 -145.6163
1903.576436 86.083 -145.7923
1917.370535 86.157 -145.9785
1931.264593 86.232 -146.1751
1945.259332 86.307 -146.3823
1959.355483 86.382 -146.6003
1973.553781 86.457 -146.8291
1987.854965 86.532 -147.0691
2002.259781 86.607 -147.3208
2016.768981 86.683 -147.5846
2031.383320 86.757 -147.8605
2046.103561 86.832 -148.1489
2060.930471 86.907 -148.4498
2075.864823 86.981 -148.7633
2090.907395 87.054 -149.0894
2106.058972 87.128 -149.4281
2121.320344 87.200 -149.7795
2136.692305 87.272 -150.1438
2152.175658 87.343 -150.5210
2167.771210 87.413 -150.9111
2183.479774 87.483 -151.3140
2199.302169 87.551 -151.7294
2215.239219 87.618 -152.1572
2231.291755 87.685 -152.5973
2247.460615 87.750 -153.0500
2263.746641 87.814 -153.5154
2280.150683 87.877 -153.9941
2296.673595 87.938 -154.4862
2313.316238 87.998 -154.9922
2330.079481 88.057 -155.5123
2346.964198 88.113 -156.0468
2363.971268 88.167 -156.5954
2381.101578 88.220 -157.1578
2398.356022 88.269 -157.7331
2415.735498 88.316 -158.3203
2433.240913 88.361 -158.9180
2450.873180 88.402 -159.5251
2468.633217 88.440 -160.1404
2486.521951 88.476 -160.7623
2504.540314 88.508 -161.3898
2522.689246 88.537 -162.0215
2540.969692 88.563 -162.6565
2559.382606 88.586 -163.2939
2577.928947 88.605 -163.9328
2596.609683 88.622 -164.5721
2615.425787 88.635 -165.2108
2634.378241 88.645 -165.8479
2653.468031 88.652 -166.4822
2672.696154 88.656 -167.1127
2692.063613 88.657 -167.7384
2711.571415 88.655 -168.3583
2731.220579 88.650 -168.9715
2751.012130 88.643 -169.5769
2770.947098 88.633 -170.1738
2791.026522 88.620 -170.7612
2811.251451 88.605 -171.3384
2831.622938 88.588 -171.9050
2852.142045 88.569 -172.4608
2872.809842 88.548 -173.0057
2893.627406 88.526 -173.5400
2914.595823 88.501 -174.0639
2935.716186 88.475 -174.5775
2956.989596 88.448 -175.0809
2978.417161 88.418 -175.5739
3000.000000 88.388 -176.0562
3021.739237 88.355 -176.5272
3043.636005 88.321 -176.9861
3065.691446 88.285 -177.4318
3087.906710 88.248 -177.8636
3110.282955 88.210 -178.2807
3132.821347 88.170 -178.6829
3155.523062 88.130 -179.0702
3178.389283 88.089 -179.4424
3201.421202 88.048 -179.7999
3224.620020 88.006 179.8575
3247.986946 87.964 179.5294
3271.523198 87.922 179.2155
3295.230004 87.880 178.9155
3319.108599 87.839 178.6287
3343.160228 87.797 178.3547
3367.386145 87.756 178.0931
3391.787613 87.716 177.8433
3416.365904 87.676 177.6046
3441.122300 87.637 177.3765
3466.058091 87.599 177.1581
3491.174576 87.561 176.9488
3516.473066 87.525 176.7480
3541.954880 87.489 176.5549
3567.621345 87.455 176.3688
3593.473800 87.422 176.1888
3619.513592 87.390 176.0142
3645.742080 87.359 175.8442
3672.160630 87.329 175.6783
3698.770620 87.300 175.5156
3725.573436 87.273 175.3555
3752.570477 87.246 175.1970
3779.763150 87.221 175.0392
3807.152872 87.197 174.8813
3834.741071 87.175 174.7225
3862.529185 87.153 174.5621
3890.518664 87.133 174.3995
3918.710966 87.114 174.2341
3947.107561 87.096 174.0653
3975.709929 87.079 173.8925
4004.519563 87.064 173.7147
4033.537962 87.049 173.5314
4062.766641 87.035 173.3414
4092.207123 87.021 173.1439
4121.860942 87.009 172.9380
4151.729646 86.998 172.7227
4181.814790 86.987 172.4967
4212.117944 86.977 172.2585
4242.640687 86.968 172.0067
4273.384610 86.959 171.7397
4304.351317 86.950 171.4562
4335.542421 86.942 171.1548
4366.959549 86.933 170.8339
4398.604338 86.923 170.4924
4430.478438 86.913 170.1292
4462.583511 86.901 169.7437
4494.921231 86.887 169.3358
4527.493283 86.871 168.9061
4560.301365 86.851 168.4551
4593.347189 86.829 167.9843
4626.632476 86.803 167.4957
4660.158962 86.772 166.9916
4693.928395 86.737 166.4750
4727.942535 86.697 165.9492
4762.203156 86.651 165.4177
4796.712043 86.600 164.8846
4831.470996 86.544 164.3541
4866.481826 86.482 163.8308
4901.746360 86.415 163.3182
4937.266434 86.343 162.8188
4973.043902 86.267 162.3340
5009.080628 86.187 161.8652
5045.378492 86.103 161.4136
5081.939384 86.015 160.9807
5118.765212 85.923 160.5684
5155.857894 85.827 160.1788
5193.219366 85.728 159.8147
5230.851574 85.624 159.4797
5268.756481 85.517 159.1782
5306.936062 85.405 158.9160
5345.392309 85.291 158.7004
5384.127225 85.174 158.5403
5423.142830 85.055 158.4449
5462.441159 84.937 158.4223
5502.024259 84.823 158.4752
5541.894195 84.717 158.5965
5582.053045 84.623 158.7649
5622.502902 84.541 158.9454
5663.245876 84.472 159.0977
5704.284090 84.410 159.1914
5745.619684 84.349 159.2185
5787.254813 84.285 159.1947
5829.191647 84.214 159.1494
5871.432373 84.135 159.1132
5913.979192 84.050 159.1094
5956.834323 83.961 159.1523
6000.000000 83.870 159.2481
6043.478473 83.780 159.3973
6087.272010 83.692 159.5979
6131.382892 83.607 159.8463
6175.813420 83.527 160.1390
6220.565910 83.451 160.4726
6265.642695 83.382 160.8438
6311.046124 83.320 161.2492
6356.778566 83.266 161.6848
6402.842404 83.220 162.1461
6449.240040 83.183 162.6280
6495.973891 83.155 163.1253
6543.046396 83.138 163.6329
6590.460007 83.132 164.1456
6638.217197 83.138 164.6575
6686.320456 83.156 165.1625
6734.772290 83.186 165.6537
6783.575226 83.229 166.1242
6832.731809 83.286 166.5667
6882.244600 83.358 166.9726
6932.116181 83.445 167.3317
6982.349153 83.547 167.6317
7032.946133 83.666 167.8582
7083.909760 83.802 167.9946
7135.242690 83.953 168.0228
7186.947600 84.121 167.9236
7239.027185 84.305 167.6772
7291.484160 84.502 167.2629
7344.321260 84.713 166.6591
7397.541239 84.934 165.8428
7451.146872 85.164 164.7885
7505.140954 85.400 163.4682
7559.526299 85.638 161.8524
7614.305743 85.872 159.9109
7669.482141 86.093 157.6169
7725.058371 86.292 154.9507
7781.037328 86.457 151.9061
7837.421932 86.574 148.4958
7894.215122 86.629 144.7570
7951.419859 86.607 140.7549
8009.039125 86.497 136.5820
8067.075924 86.289 132.3539
8125.533282 85.981 128.2000
8184.414245 85.575 124.2511
8243.721885 85.077 120.6274
8303.459292 84.500 117.4273
8363.629581 83.858 114.7207
8424.235888 83.168 112.5468
8485.281374 82.447 110.9149
8546.769221 81.710 109.8093
8608.702634 80.972 109.1950
8671.084842 80.243 109.0247
8733.919097 79.531 109.2453
8797.208675 78.842 109.8035
8860.956876 78.179 110.6499
8925.167022 77.543 111.7409
8989.842461 76.934 113.0399
9054.986566 76.351 114.5168
9120.602731 75.794 116.1470
9186.694378 75.261 117.9111
9253.264952 74.750 119.7934
9320.317925 74.261 121.7819
9387.856790 73.792 123.8670
9455.885071 73.341 126.0415
9524.406312 72.908 128.2994
9593.424086 72.490 130.6356
9662.941992 72.088 133.0460
9732.963653 71.700 135.5270
9803.492719 71.326 138.0762
9874.532869 70.965 140.6916
9946.087805 70.616 143.3722
10018.161257 70.279 146.1185
10090.756983 69.953 148.9320
10163.878768 69.639 151.8152
10237.530423 69.335 154.7717
10311.715789 69.041 157.8075
10386.438732 68.758 160.9305
10461.703149 68.484 164.1512
10537.512962 68.221 167.4820
10613.872125 67.968 170.9393
10690.784618 67.728 174.5441
10768.254450 67.503 178.3222
10846.285661 67.296 -177.6949
10924.882318 67.114 -173.4729
11004.048518 66.963 -168.9787
11083.788390 66.856 -164.1897
11164.106090 66.807 -159.1059
11245.005805 66.829 -153.7660
11326.491752 66.939 -148.2634
11408.568180 67.145 -142.7537
11491.239368 67.450 -137.4422
11574.509626 67.844 -132.5478
11658.383294 68.306 -128.2542
11742.864745 68.812 -124.6688
11827.958384 69.332 -121.8079
11913.668646 69.843 -119.6063
12000.000000 70.327 -117.9422
12086.956947 70.772 -116.6667
12174.544019 71.176 -115.6283
12262.765784 71.544 -114.6915
12351.626840 71.884 -113.7482
12441.131819 72.208 -112.7225
12531.285389 72.529 -111.5700
12622.092249 72.863 -110.2752
12713.557132 73.221 -108.8466
12805.684808 73.618 -107.3128
12898.480079 74.065 -105.7192
12991.947783 74.574 -104.1276
13086.092792 75.155 -102.6165
13180.920015 75.816 -101.2828
13276.434395 76.562 -100.2435
13372.640911 77.391 -99.6349
13469.544580 78.296 -99.6078
13567.150452 79.260 -100.3182
13665.463617 80.258 -101.9133
13764.489200 81.256 -104.5149
13864.232362 82.216 -108.2023
13964.698305 83.095 -112.9958
14065.892266 83.848 -118.8407
14167.819519 84.432 -125.5926
14270.485380 84.813 -133.0116
14373.895200 84.965 -140.7708
14478.054370 84.883 -148.4933
14582.968320 84.579 -155.8087
14688.642520 84.084 -162.4068
14795.082478 83.436 -168.0674
14902.293745 82.684 -172.6696
15010.281908 81.876 -176.1862
15119.052599 81.058 -178.6718
15228.611486 80.271 179.7543
15338.964283 79.547 178.9275
15450.116741 78.908 178.6588
15562.074656 78.367 178.7540
15674.843864 77.923 179.0286
15788.430244 77.571 179.3169
15902.839718 77.299 179.4777
16018.078250 77.090 179.3970
16134.151848 76.925 178.9895
16251.066563 76.784 178.2010
16368.828491 76.644 177.0097
16487.443769 76.483 175.4266
16606.918584 76.282 173.4958
16727.259161 76.023 171.2913
16848.471777 75.692 168.9118
16970.562748 75.280 166.4729
17093.538442 74.784 164.0957
17217.405268 74.205 161.8956
17342.169684 73.549 159.9695
17467.838194 72.828 158.3857
17594.417350 72.053 157.1763
17721.913751 71.237 156.3376
17850.334044 70.389 155.8457
17979.684923 69.511 155.6955
18109.973131 68.599 155.9613
18241.205462 67.647 156.8344
18373.388756 66.665 158.5401
18506.529905 65.686 161.1024
18640.635849 64.751 164.2336
18775.713581 63.886 167.5287
18911.770141 63.089 170.7150
19048.812624 62.343 173.7487
19186.848172 61.631 176.7526
19325.883983 60.951 179.8680
19465.927305 60.320 -176.8834
19606.985439 59.765 -173.6525
19749.065738 59.318 -170.7487
19892.175609 59.007 -168.5448
20036.322514 58.848 -167.3550
