* Measurement data measured by REW V5.31.3
* Source: Headset (2- CX31993 HIFI AUDIO), MICROPHONE (Master Volume), R, volume: 0.250
* Format: 256k Log Swept Sine, 1 sweep at -12.0 dBFS with no timing reference
* Dated: 11 9, 24 11:50:59 AM
* REW Settings:
*  C-weighting compensation: Off
*  Target level: 75.0 dB
* Note: ; 
* Measurement: Moondrop Kadenz Origin R
* Smoothing: 1/12 octave
* Frequency Step: 96 ppo
* Start Frequency: 0.36621094 Hz
*
* Freq(Hz) SPL(dB) Phase(degrees)
0.366211 40.168 26.9644
0.368865 40.201 26.9950
0.371538 40.248 27.0408
0.374230 40.307 27.0984
0.376942 40.373 27.1648
0.379673 40.443 27.2377
0.382424 40.517 27.3158
0.385196 40.592 27.3981
0.387987 40.668 27.4841
0.390798 40.746 27.5734
0.393630 40.824 27.6658
0.396483 40.903 27.7611
0.399356 40.982 27.8592
0.402250 41.062 27.9600
0.405165 41.143 28.0633
0.408101 41.224 28.1691
0.411058 41.306 28.2773
0.414037 41.388 28.3877
0.417037 41.471 28.5003
0.420059 41.555 28.6149
0.423103 41.639 28.7313
0.426169 41.724 28.8496
0.429257 41.809 28.9695
0.432368 41.895 29.0910
0.435501 41.982 29.2139
0.438656 42.069 29.3381
0.441835 42.157 29.4635
0.445037 42.246 29.5899
0.448262 42.335 29.7172
0.451510 42.425 29.8453
0.454782 42.516 29.9740
0.458077 42.607 30.1031
0.461397 42.699 30.2326
0.464740 42.791 30.3623
0.468108 42.884 30.4921
0.471500 42.978 30.6218
0.474917 43.073 30.7512
0.478358 43.168 30.8803
0.481825 43.264 31.0088
0.485316 43.361 31.1366
0.488833 43.458 31.2636
0.492375 43.556 31.3896
0.495943 43.655 31.5145
0.499537 43.754 31.6380
0.503157 43.854 31.7602
0.506803 43.955 31.8807
0.510475 44.057 31.9994
0.514175 44.159 32.1163
0.517900 44.262 32.2311
0.521653 44.366 32.3437
0.525434 44.471 32.4539
0.529241 44.576 32.5616
0.533076 44.682 32.6667
0.536939 44.789 32.7689
0.540830 44.897 32.8682
0.544749 45.005 32.9644
0.548696 45.115 33.0574
0.552673 45.225 33.1470
0.556677 45.336 33.2330
0.560711 45.447 33.3154
0.564774 45.560 33.3941
0.568867 45.673 33.4688
0.572989 45.787 33.5394
0.577141 45.902 33.6059
0.581324 46.018 33.6680
0.585536 46.134 33.7258
0.589779 46.252 33.7790
0.594053 46.370 33.8275
0.598358 46.489 33.8713
0.602694 46.609 33.9102
0.607061 46.730 33.9441
0.611460 46.852 33.9730
0.615891 46.975 33.9967
0.620354 47.098 34.0151
0.624849 47.223 34.0281
0.629377 47.348 34.0358
0.633938 47.474 34.0378
0.638532 47.602 34.0344
0.643159 47.730 34.0252
0.647819 47.859 34.0103
0.652514 47.989 33.9896
0.657242 48.120 33.9630
0.662005 48.251 33.9306
0.666802 48.384 33.8921
0.671634 48.518 33.8477
0.676501 48.653 33.7972
0.681403 48.788 33.7407
0.686341 48.925 33.6780
0.691314 49.063 33.6093
0.696324 49.201 33.5345
0.701370 49.341 33.4538
0.706452 49.481 33.3672
0.711571 49.621 33.2750
0.716728 49.762 33.1777
0.721921 49.903 33.0761
0.727153 50.043 32.9713
0.732422 50.182 32.8645
0.737729 50.320 32.7576
0.743075 50.457 32.6519
0.748460 50.593 32.5488
0.753883 50.729 32.4489
0.759346 50.865 32.3525
0.764849 51.001 32.2597
0.770391 51.138 32.1703
0.775974 51.275 32.0840
0.781597 51.412 32.0006
0.787261 51.550 31.9197
0.792966 51.689 31.8409
0.798712 51.828 31.7639
0.804500 51.968 31.6882
0.810329 52.109 31.6135
0.816201 52.249 31.5394
0.822116 52.391 31.4657
0.828073 52.533 31.3919
0.834074 52.675 31.3177
0.840118 52.819 31.2427
0.846206 52.962 31.1668
0.852338 53.106 31.0894
0.858514 53.251 31.0104
0.864735 53.396 30.9294
0.871001 53.541 30.8462
0.877313 53.687 30.7604
0.883670 53.834 30.6719
0.890074 53.981 30.5802
0.896524 54.128 30.4851
0.903020 54.276 30.3865
0.909564 54.425 30.2839
0.916155 54.573 30.1773
0.922794 54.723 30.0663
0.929481 54.872 29.9507
0.936216 55.022 29.8303
0.943000 55.172 29.7049
0.949834 55.323 29.5742
0.956717 55.474 29.4381
0.963649 55.626 29.2963
0.970632 55.778 29.1487
0.977666 55.930 28.9949
0.984750 56.082 28.8350
0.991886 56.235 28.6686
0.999074 56.388 28.4955
1.006314 56.541 28.3158
1.013606 56.695 28.1290
1.020951 56.848 27.9351
1.028349 57.002 27.7340
1.035801 57.157 27.5255
1.043307 57.311 27.3095
1.050867 57.466 27.0859
1.058482 57.620 26.8547
1.066152 57.775 26.6161
1.073878 57.930 26.3704
1.081660 58.085 26.1180
1.089498 58.240 25.8600
1.097393 58.395 25.5974
1.105345 58.550 25.3319
1.113355 58.705 25.0649
1.121423 58.860 24.7978
1.129549 59.015 24.5312
1.137734 59.169 24.2658
1.145979 59.324 24.0016
1.154283 59.478 23.7386
1.162647 59.632 23.4768
1.171072 59.786 23.2159
1.179558 59.940 22.9557
1.188106 60.094 22.6960
1.196715 60.248 22.4364
1.205387 60.401 22.1767
1.214122 60.555 21.9165
1.222920 60.708 21.6558
1.231782 60.861 21.3940
1.240708 61.014 21.1311
1.249699 61.167 20.8667
1.258754 61.320 20.6005
1.267876 61.473 20.3323
1.277063 61.626 20.0617
1.286318 61.779 19.7887
1.295639 61.932 19.5127
1.305027 62.084 19.2337
1.314484 62.237 18.9513
1.324009 62.390 18.6653
1.333604 62.543 18.3754
1.343268 62.695 18.0814
1.353002 62.848 17.7829
1.362806 63.001 17.4798
1.372681 63.154 17.1718
1.382628 63.307 16.8586
1.392647 63.460 16.5400
1.402739 63.614 16.2159
1.412904 63.767 15.8861
1.423142 63.921 15.5505
1.433455 64.075 15.2094
1.443843 64.229 14.8629
1.454305 64.383 14.5117
1.464844 64.537 14.1569
1.475459 64.691 13.7993
1.486150 64.844 13.4403
1.496920 64.998 13.0806
1.507767 65.151 12.7208
1.518693 65.303 12.3611
1.529698 65.455 12.0016
1.540783 65.607 11.6422
1.551948 65.758 11.2827
1.563194 65.909 10.9227
1.574521 66.059 10.5621
1.585931 66.209 10.2005
1.597423 66.359 9.8375
1.608999 66.508 9.4729
1.620658 66.657 9.1063
1.632402 66.806 8.7373
1.644232 66.954 8.3656
1.656146 67.102 7.9909
1.668147 67.250 7.6128
1.680235 67.397 7.2309
1.692411 67.544 6.8450
1.704675 67.691 6.4546
1.717028 67.838 6.0593
1.729470 67.984 5.6589
1.742003 68.131 5.2530
1.754626 68.277 4.8412
1.767341 68.424 4.4233
1.780147 68.570 3.9990
1.793047 68.716 3.5682
1.806040 68.862 3.1309
1.819128 69.008 2.6872
1.832310 69.153 2.2377
1.845587 69.299 1.7829
1.858961 69.443 1.3236
1.872432 69.588 0.8603
1.886001 69.731 0.3938
1.899667 69.874 -0.0757
1.913433 70.017 -0.5478
1.927299 70.159 -1.0222
1.941265 70.300 -1.4988
1.955332 70.440 -1.9774
1.969501 70.580 -2.4580
1.983773 70.720 -2.9405
1.998148 70.858 -3.4249
2.012627 70.997 -3.9112
2.027212 71.135 -4.3995
2.041902 71.272 -4.8898
2.056698 71.409 -5.3822
2.071602 71.545 -5.8768
2.086614 71.681 -6.3739
2.101734 71.817 -6.8735
2.116964 71.952 -7.3758
2.132304 72.087 -7.8812
2.147756 72.222 -8.3899
2.163320 72.356 -8.9021
2.178996 72.490 -9.4181
2.194786 72.624 -9.9382
2.210690 72.757 -10.4625
2.226710 72.889 -10.9910
2.242845 73.021 -11.5236
2.259098 73.151 -12.0600
2.275468 73.281 -12.6000
2.291957 73.411 -13.1432
2.308566 73.539 -13.6892
2.325295 73.667 -14.2376
2.342145 73.793 -14.7881
2.359117 73.920 -15.3403
2.376212 74.045 -15.8941
2.393431 74.170 -16.4491
2.410775 74.294 -17.0052
2.428244 74.417 -17.5622
2.445840 74.540 -18.1199
2.463564 74.662 -18.6784
2.481416 74.784 -19.2376
2.499397 74.905 -19.7978
2.517509 75.025 -20.3590
2.535752 75.145 -20.9218
2.554127 75.265 -21.4866
2.572635 75.384 -22.0540
2.591277 75.501 -22.6246
2.610055 75.619 -23.1989
2.628968 75.735 -23.7767
2.648019 75.850 -24.3580
2.667208 75.964 -24.9424
2.686535 76.077 -25.5294
2.706003 76.190 -26.1184
2.725612 76.301 -26.7090
2.745363 76.412 -27.3005
2.765257 76.522 -27.8925
2.785295 76.631 -28.4844
2.805478 76.739 -29.0759
2.825808 76.846 -29.6665
2.846285 76.953 -30.2560
2.866910 77.060 -30.8444
2.887685 77.165 -31.4319
2.908611 77.270 -32.0188
2.929688 77.374 -32.6059
2.950917 77.477 -33.1939
2.972301 77.580 -33.7835
2.993839 77.681 -34.3753
3.015534 77.781 -34.9693
3.037386 77.880 -35.5652
3.059396 77.979 -36.1625
3.081565 78.076 -36.7609
3.103896 78.172 -37.3594
3.126388 78.268 -37.9576
3.149043 78.362 -38.5546
3.171862 78.456 -39.1500
3.194847 78.550 -39.7430
3.217998 78.642 -40.3334
3.241317 78.734 -40.9210
3.264805 78.825 -41.5058
3.288463 78.915 -42.0884
3.312293 79.005 -42.6693
3.336295 79.093 -43.2495
3.360471 79.181 -43.8294
3.384822 79.268 -44.4093
3.409350 79.354 -44.9891
3.434056 79.439 -45.5686
3.458940 79.523 -46.1474
3.484005 79.606 -46.7247
3.509252 79.688 -47.3000
3.534681 79.770 -47.8727
3.560295 79.851 -48.4422
3.586094 79.931 -49.0082
3.612081 80.011 -49.5702
3.638255 80.091 -50.1285
3.664620 80.170 -50.6832
3.691175 80.248 -51.2349
3.717923 80.325 -51.7841
3.744864 80.402 -52.3312
3.772001 80.478 -52.8764
3.799335 80.553 -53.4196
3.826866 80.628 -53.9606
3.854597 80.701 -54.4991
3.882529 80.775 -55.0348
3.910664 80.848 -55.5672
3.939002 80.920 -56.0960
3.967546 80.993 -56.6209
3.996296 81.065 -57.1418
4.025255 81.136 -57.6586
4.054423 81.208 -58.1717
4.083804 81.279 -58.6814
4.113396 81.349 -59.1878
4.143204 81.419 -59.6913
4.173227 81.489 -60.1920
4.203468 81.558 -60.6899
4.233928 81.627 -61.1852
4.264609 81.696 -61.6776
4.295512 81.764 -62.1673
4.326639 81.833 -62.6542
4.357992 81.902 -63.1381
4.389572 81.970 -63.6192
4.421380 82.038 -64.0974
4.453419 82.107 -64.5728
4.485691 82.175 -65.0457
4.518196 82.243 -65.5162
4.550936 82.311 -65.9846
4.583914 82.379 -66.4512
4.617131 82.446 -66.9163
4.650589 82.514 -67.3799
4.684289 82.582 -67.8424
4.718233 82.650 -68.3039
4.752424 82.718 -68.7643
4.786862 82.786 -69.2239
4.821549 82.854 -69.6825
4.856488 82.922 -70.1403
4.891680 82.990 -70.5975
4.927127 83.058 -71.0544
4.962831 83.127 -71.5111
4.998794 83.195 -71.9681
5.035017 83.263 -72.4256
5.071503 83.331 -72.8839
5.108253 83.399 -73.3431
5.145270 83.467 -73.8034
5.182555 83.535 -74.2648
5.220110 83.603 -74.7274
5.257937 83.671 -75.1912
5.296038 83.739 -75.6564
5.334415 83.807 -76.1231
5.373071 83.874 -76.5914
5.412006 83.942 -77.0615
5.451224 84.009 -77.5337
5.490725 84.076 -78.0081
5.530514 84.143 -78.4848
5.570590 84.209 -78.9639
5.610957 84.275 -79.4454
5.651616 84.341 -79.9291
5.692570 84.407 -80.4151
5.733821 84.472 -80.9033
5.775370 84.536 -81.3937
5.817221 84.601 -81.8862
5.859375 84.664 -82.3812
5.901834 84.728 -82.8785
5.944602 84.790 -83.3783
5.987679 84.853 -83.8805
6.031068 84.914 -84.3849
6.074771 84.975 -84.8913
6.118792 85.036 -85.3995
6.163131 85.095 -85.9092
6.207792 85.154 -86.4206
6.252776 85.213 -86.9335
6.298086 85.270 -87.4480
6.343725 85.327 -87.9641
6.389694 85.384 -88.4816
6.435996 85.439 -89.0002
6.482634 85.494 -89.5195
6.529610 85.547 -90.0393
6.576926 85.601 -90.5593
6.624585 85.653 -91.0797
6.672590 85.704 -91.6004
6.720942 85.755 -92.1212
6.769645 85.805 -92.6421
6.818700 85.854 -93.1626
6.868111 85.902 -93.6824
6.917881 85.950 -94.2014
6.968010 85.997 -94.7193
7.018504 86.043 -95.2360
7.069362 86.088 -95.7517
7.120590 86.132 -96.2661
7.172189 86.176 -96.7791
7.224161 86.219 -97.2903
7.276511 86.262 -97.7996
7.329239 86.303 -98.3068
7.382350 86.344 -98.8118
7.435845 86.385 -99.3147
7.489729 86.425 -99.8154
7.544002 86.464 -100.3139
7.598669 86.503 -100.8099
7.653732 86.541 -101.3034
7.709194 86.579 -101.7943
7.765058 86.616 -102.2826
7.821327 86.653 -102.7684
7.878004 86.689 -103.2517
7.935091 86.725 -103.7325
7.992592 86.761 -104.2108
8.050510 86.796 -104.6866
8.108847 86.831 -105.1600
8.167607 86.866 -105.6310
8.226793 86.900 -106.0997
8.286408 86.935 -106.5663
8.346454 86.969 -107.0306
8.406936 87.002 -107.4930
8.467856 87.036 -107.9533
8.529218 87.069 -108.4117
8.591024 87.102 -108.8683
8.653278 87.135 -109.3230
8.715983 87.168 -109.7761
8.779143 87.200 -110.2274
8.842760 87.233 -110.6770
8.906839 87.265 -111.1251
8.971381 87.297 -111.5715
9.036392 87.328 -112.0163
9.101873 87.360 -112.4594
9.167829 87.391 -112.9009
9.234263 87.422 -113.3408
9.301178 87.453 -113.7789
9.368578 87.484 -114.2154
9.436467 87.515 -114.6500
9.504847 87.545 -115.0829
9.573723 87.576 -115.5140
9.643099 87.606 -115.9433
9.712976 87.636 -116.3708
9.783361 87.666 -116.7966
9.854255 87.696 -117.2206
9.925663 87.727 -117.6430
9.997588 87.757 -118.0638
10.070035 87.787 -118.4832
10.143007 87.817 -118.9013
10.216507 87.847 -119.3182
10.290540 87.877 -119.7341
10.365109 87.907 -120.1493
10.440219 87.938 -120.5637
10.515873 87.968 -120.9778
10.592076 87.998 -121.3916
10.668830 88.028 -121.8053
10.746141 88.059 -122.2191
10.824012 88.089 -122.6330
10.902447 88.119 -123.0471
10.981451 88.149 -123.4614
11.061027 88.178 -123.8759
11.141180 88.208 -124.2905
11.221913 88.237 -124.7051
11.303232 88.266 -125.1195
11.385140 88.294 -125.5334
11.467641 88.322 -125.9465
11.550741 88.349 -126.3587
11.634442 88.377 -126.7695
11.718750 88.403 -127.1785
11.803669 88.430 -127.5855
11.889203 88.456 -127.9902
11.975357 88.481 -128.3923
12.062136 88.506 -128.7916
12.149543 88.531 -129.1879
12.237583 88.556 -129.5811
12.326262 88.581 -129.9713
12.415583 88.605 -130.3587
12.505552 88.630 -130.7433
12.596172 88.654 -131.1254
12.687449 88.679 -131.5053
12.779387 88.703 -131.8835
12.871992 88.728 -132.2604
12.965268 88.752 -132.6363
13.059220 88.776 -133.0116
13.153852 88.801 -133.3866
13.249170 88.825 -133.7618
13.345179 88.849 -134.1371
13.441884 88.873 -134.5128
13.539289 88.896 -134.8887
13.637401 88.919 -135.2649
13.736223 88.941 -135.6410
13.835761 88.963 -136.0167
13.936021 88.984 -136.3917
14.037007 89.004 -136.7656
14.138725 89.024 -137.1379
14.241180 89.043 -137.5083
14.344377 89.061 -137.8763
14.448323 89.079 -138.2419
14.553021 89.096 -138.6048
14.658478 89.113 -138.9649
14.764700 89.129 -139.3224
14.871691 89.145 -139.6775
14.979457 89.161 -140.0304
15.088005 89.176 -140.3814
15.197339 89.191 -140.7308
15.307465 89.205 -141.0789
15.418389 89.219 -141.4258
15.530117 89.232 -141.7717
15.642655 89.245 -142.1164
15.756008 89.257 -142.4597
15.870182 89.268 -142.8011
15.985184 89.279 -143.1400
16.101019 89.289 -143.4759
16.217694 89.298 -143.8079
16.335214 89.306 -144.1354
16.453586 89.314 -144.4579
16.572815 89.321 -144.7751
16.692909 89.328 -145.0867
16.813872 89.336 -145.3932
16.935713 89.343 -145.6949
17.058436 89.351 -145.9930
17.182048 89.359 -146.2885
17.306556 89.368 -146.5829
17.431967 89.378 -146.8777
17.558286 89.388 -147.1744
17.685521 89.398 -147.4743
17.813677 89.409 -147.7786
17.942762 89.419 -148.0878
18.072783 89.430 -148.4022
18.203746 89.439 -148.7212
18.335658 89.448 -149.0440
18.468526 89.456 -149.3693
18.602356 89.463 -149.6956
18.737156 89.468 -150.0209
18.872934 89.473 -150.3434
19.009695 89.476 -150.6617
19.147447 89.480 -150.9743
19.286197 89.482 -151.2806
19.425953 89.485 -151.5803
19.566721 89.488 -151.8737
19.708510 89.492 -152.1617
19.851326 89.497 -152.4455
19.995177 89.502 -152.7268
20.140070 89.509 -153.0072
20.286013 89.516 -153.2883
20.433014 89.524 -153.5717
20.581080 89.533 -153.8585
20.730219 89.543 -154.1494
20.880439 89.553 -154.4451
21.031747 89.563 -154.7457
21.184152 89.573 -155.0511
21.337661 89.583 -155.3613
21.492282 89.593 -155.6760
21.648024 89.603 -155.9950
21.804895 89.612 -156.3179
21.962902 89.620 -156.6445
22.122054 89.628 -156.9742
22.282360 89.635 -157.3062
22.443827 89.640 -157.6392
22.606464 89.645 -157.9718
22.770280 89.648 -158.3020
22.935283 89.650 -158.6277
23.101481 89.651 -158.9468
23.268884 89.651 -159.2573
23.437500 89.650 -159.5577
23.607338 89.649 -159.8474
23.778406 89.649 -160.1267
23.950714 89.649 -160.3969
24.124271 89.650 -160.6602
24.299086 89.653 -160.9196
24.475167 89.657 -161.1785
24.652524 89.662 -161.4401
24.831166 89.668 -161.7072
25.011103 89.674 -161.9814
25.192344 89.680 -162.2634
25.374898 89.686 -162.5525
25.558775 89.690 -162.8468
25.743984 89.692 -163.1436
25.930536 89.693 -163.4397
26.118439 89.693 -163.7319
26.307704 89.691 -164.0176
26.498341 89.689 -164.2953
26.690359 89.686 -164.5646
26.883768 89.684 -164.8263
27.078579 89.682 -165.0826
27.274801 89.682 -165.3361
27.472446 89.682 -165.5899
27.671522 89.682 -165.8469
27.872042 89.683 -166.1089
28.074014 89.684 -166.3770
28.277450 89.684 -166.6505
28.482360 89.683 -166.9277
28.688755 89.680 -167.2060
28.896645 89.677 -167.4821
29.106042 89.672 -167.7529
29.316957 89.666 -168.0158
29.529400 89.660 -168.2695
29.743382 89.654 -168.5141
29.958915 89.648 -168.7512
30.176009 89.644 -168.9833
30.394677 89.641 -169.2137
30.614929 89.639 -169.4455
30.836778 89.638 -169.6814
31.060234 89.637 -169.9227
31.285309 89.636 -170.1696
31.512015 89.634 -170.4207
31.740364 89.632 -170.6743
31.970368 89.628 -170.9281
32.202039 89.624 -171.1801
32.435388 89.619 -171.4289
32.670428 89.614 -171.6742
32.907171 89.609 -171.9163
33.145630 89.604 -172.1560
33.385817 89.598 -172.3942
33.627745 89.592 -172.6314
33.871425 89.586 -172.8677
34.116871 89.580 -173.1028
34.364096 89.573 -173.3364
34.613113 89.566 -173.5681
34.863934 89.559 -173.7984
35.116572 89.552 -174.0280
35.371041 89.545 -174.2582
35.627354 89.538 -174.4900
35.885525 89.531 -174.7236
36.145566 89.523 -174.9586
36.407492 89.514 -175.1933
36.671316 89.505 -175.4257
36.937051 89.496 -175.6542
37.204712 89.486 -175.8782
37.474313 89.478 -176.0991
37.745867 89.470 -176.3200
38.019389 89.464 -176.5450
38.294893 89.458 -176.7782
38.572394 89.452 -177.0217
38.851905 89.446 -177.2753
39.133442 89.438 -177.5356
39.417019 89.429 -177.7975
39.702651 89.417 -178.0554
39.990353 89.405 -178.3050
40.280140 89.391 -178.5444
40.572026 89.378 -178.7738
40.866028 89.366 -178.9949
41.162160 89.353 -179.2092
41.460438 89.341 -179.4171
41.760877 89.330 -179.6184
42.063494 89.319 -179.8133
42.368303 89.309 179.9966
42.675322 89.301 179.8073
42.984565 89.293 179.6136
43.296048 89.286 179.4113
43.609789 89.278 179.1997
43.925804 89.268 178.9830
44.244108 89.256 178.7690
44.564719 89.241 178.5658
44.887654 89.225 178.3786
45.212928 89.210 178.2074
45.540560 89.195 178.0471
45.870565 89.182 177.8905
46.202962 89.170 177.7319
46.537768 89.159 177.5692
46.875000 89.148 177.4028
47.214676 89.138 177.2336
47.556813 89.128 177.0600
47.901429 89.119 176.8770
48.248542 89.111 176.6783
48.598171 89.102 176.4603
48.950334 89.091 176.2247
49.305048 89.077 175.9787
49.662333 89.060 175.7325
50.022206 89.040 175.4952
50.384688 89.018 175.2715
50.749796 88.997 175.0612
51.117550 88.975 174.8606
51.487969 88.955 174.6650
51.861072 88.935 174.4717
52.236879 88.916 174.2799
52.615409 88.896 174.0903
52.996681 88.878 173.9033
53.380717 88.860 173.7177
53.767536 88.843 173.5313
54.157158 88.826 173.3417
54.549603 88.810 173.1479
54.944892 88.793 172.9514
55.343045 88.776 172.7551
55.744084 88.759 172.5623
56.148028 88.741 172.3750
56.554900 88.724 172.1929
56.964720 88.707 172.0146
57.377510 88.690 171.8382
57.793291 88.674 171.6637
58.212085 88.657 171.4927
58.633914 88.639 171.3277
59.058799 88.622 171.1700
59.486764 88.605 171.0178
59.917829 88.589 170.8660
60.352019 88.573 170.7086
60.789354 88.557 170.5418
61.229859 88.538 170.3672
61.673556 88.517 170.1905
62.120468 88.494 170.0186
62.570618 88.469 169.8558
63.024031 88.443 169.7022
63.480729 88.418 169.5544
63.940736 88.394 169.4083
64.404077 88.371 169.2604
64.870776 88.349 169.1084
65.340856 88.328 168.9512
65.814343 88.307 168.7896
66.291261 88.287 168.6260
66.771635 88.266 168.4646
67.255489 88.246 168.3095
67.742850 88.226 168.1628
68.233743 88.208 168.0236
68.728193 88.190 167.8882
69.226226 88.174 167.7508
69.727867 88.157 167.6061
70.233144 88.139 167.4509
70.742083 88.118 167.2844
71.254709 88.093 167.1080
71.771050 88.065 166.9253
72.291132 88.031 166.7425
72.814984 87.992 166.5698
73.342631 87.949 166.4178
73.874102 87.905 166.2927
74.409424 87.863 166.1918
74.948626 87.823 166.1063
75.491734 87.788 166.0280
76.038779 87.757 165.9527
76.589787 87.730 165.8764
77.144788 87.709 165.7922
77.703811 87.692 165.6913
78.266885 87.677 165.5699
78.834039 87.661 165.4323
79.405303 87.644 165.2876
79.980706 87.624 165.1436
80.560280 87.602 165.0048
81.144053 87.576 164.8742
81.732056 87.546 164.7556
82.324320 87.513 164.6522
82.920876 87.478 164.5649
83.521755 87.442 164.4909
84.126988 87.405 164.4256
84.736607 87.368 164.3648
85.350643 87.331 164.3065
85.969129 87.294 164.2501
86.592097 87.258 164.1956
87.219579 87.223 164.1430
87.851608 87.188 164.0931
88.488217 87.152 164.0482
89.129439 87.116 164.0121
89.775308 87.079 163.9887
90.425856 87.041 163.9813
91.081119 87.000 163.9929
91.741131 86.959 164.0280
92.405925 86.916 164.0910
93.075536 86.873 164.1851
93.750000 86.832 164.3089
94.429351 86.795 164.4550
95.113625 86.764 164.6099
95.802858 86.739 164.7572
96.497085 86.719 164.8851
97.196342 86.702 164.9934
97.900667 86.687 165.0930
98.610096 86.674 165.1951
99.324665 86.665 165.2984
100.044413 86.659 165.3923
100.769376 86.654 165.4711
101.499592 86.647 165.5464
102.235100 86.638 165.6447
102.975938 86.631 165.7805
103.722144 86.632 165.9250
104.473757 86.644 166.0120
105.230817 86.659 165.9883
105.993363 86.672 165.8506
106.761435 86.678 165.6305
107.535072 86.677 165.3619
108.314315 86.673 165.0663
109.099206 86.665 164.7569
109.889783 86.656 164.4473
110.686090 86.646 164.1569
111.488167 86.634 163.9083
112.296056 86.625 163.7156
113.109800 86.618 163.5764
113.929440 86.615 163.4739
114.755020 86.614 163.3874
115.586582 86.614 163.2986
116.424170 86.610 163.1957
117.267827 86.600 163.0749
118.117598 86.583 162.9364
118.973527 86.557 162.7815
119.835658 86.522 162.6158
120.704037 86.477 162.4579
121.578708 86.426 162.3383
122.459718 86.373 162.2773
123.347111 86.325 162.2650
124.240935 86.288 162.2659
125.141236 86.260 162.2459
126.048061 86.239 162.1883
126.961458 86.222 162.0928
127.881473 86.205 161.9683
128.808154 86.187 161.8286
129.741551 86.165 161.6893
130.681712 86.138 161.5652
131.628686 86.107 161.4677
132.582521 86.073 161.4002
133.543269 86.038 161.3570
134.510979 86.002 161.3280
135.485701 85.966 161.3064
136.467486 85.929 161.2914
137.456386 85.893 161.2841
138.452451 85.856 161.2836
139.455735 85.820 161.2880
140.466288 85.785 161.2951
141.484165 85.749 161.3032
142.509418 85.714 161.3110
143.542100 85.678 161.3188
144.582265 85.642 161.3293
145.629968 85.606 161.3461
146.685262 85.571 161.3727
147.748204 85.536 161.4118
148.818849 85.502 161.4657
149.897251 85.470 161.5342
150.983469 85.440 161.6147
152.077557 85.411 161.7031
153.179574 85.383 161.7956
154.289576 85.356 161.8914
155.407622 85.330 161.9899
156.533770 85.305 162.0884
157.668078 85.283 162.1816
158.810606 85.262 162.2640
159.961413 85.244 162.3334
161.120559 85.227 162.3889
162.288105 85.212 162.4293
163.464112 85.198 162.4547
164.648640 85.184 162.4683
165.841752 85.170 162.4773
167.043510 85.156 162.4885
168.253976 85.141 162.5035
169.473213 85.125 162.5171
170.701286 85.106 162.5225
171.938258 85.084 162.5160
173.184194 85.058 162.4983
174.439158 85.029 162.4742
175.703216 84.999 162.4507
176.976434 84.970 162.4341
178.258878 84.941 162.4326
179.550615 84.914 162.4567
180.851713 84.888 162.5126
182.162239 84.864 162.5954
183.482262 84.841 162.6927
184.811850 84.819 162.7909
186.151073 84.798 162.8804
187.500000 84.779 162.9558
188.858702 84.760 163.0145
190.227250 84.743 163.0550
191.605715 84.726 163.0778
192.994169 84.708 163.0856
194.392685 84.690 163.0834
195.801334 84.670 163.0770
197.220191 84.649 163.0706
198.649330 84.626 163.0661
200.088825 84.602 163.0641
201.538751 84.578 163.0648
202.999184 84.554 163.0689
204.470200 84.529 163.0795
205.951875 84.503 163.1024
207.444287 84.477 163.1431
208.947514 84.450 163.2005
210.461634 84.423 163.2665
211.986726 84.395 163.3318
213.522869 84.367 163.3918
215.070144 84.338 163.4469
216.628631 84.310 163.4991
218.198411 84.283 163.5510
219.779567 84.257 163.6043
221.372180 84.230 163.6599
222.976334 84.205 163.7170
224.592112 84.179 163.7748
226.219600 84.154 163.8332
227.858880 84.128 163.8933
229.510039 84.102 163.9571
231.173164 84.076 164.0275
232.848340 84.049 164.1069
234.535655 84.023 164.1949
236.235197 83.998 164.2881
237.947054 83.975 164.3827
239.671317 83.952 164.4771
241.408074 83.930 164.5712
243.157416 83.907 164.6651
244.919435 83.884 164.7586
246.694223 83.861 164.8513
248.481871 83.839 164.9430
250.282473 83.816 165.0340
252.096123 83.793 165.1249
253.922915 83.771 165.2168
255.762945 83.748 165.3109
257.616309 83.725 165.4081
259.483103 83.702 165.5084
261.363424 83.680 165.6113
263.257372 83.657 165.7171
265.165043 83.635 165.8271
267.086538 83.613 165.9428
269.021957 83.591 166.0645
270.971401 83.569 166.1909
272.934972 83.548 166.3180
274.912771 83.526 166.4402
276.904902 83.505 166.5526
278.911469 83.485 166.6528
280.932577 83.464 166.7441
282.968330 83.443 166.8333
285.018835 83.421 166.9263
287.084199 83.400 167.0261
289.164530 83.379 167.1328
291.259935 83.358 167.2457
293.370525 83.337 167.3628
295.496408 83.317 167.4816
297.637697 83.297 167.6005
299.794503 83.277 167.7189
301.966937 83.258 167.8372
304.155114 83.239 167.9561
306.359147 83.221 168.0768
308.579152 83.203 168.2004
310.815244 83.185 168.3272
313.067539 83.166 168.4568
315.336156 83.147 168.5883
317.621211 83.127 168.7213
319.922826 83.107 168.8554
322.241118 83.088 168.9906
324.576210 83.069 169.1266
326.928223 83.050 169.2629
329.297280 83.032 169.3992
331.683504 83.014 169.5355
334.087019 82.996 169.6722
336.507952 82.978 169.8100
338.946427 82.960 169.9495
341.402572 82.943 170.0909
343.876516 82.926 170.2341
346.368387 82.909 170.3790
348.878315 82.892 170.5255
351.406431 82.875 170.6741
353.952867 82.859 170.8249
356.517756 82.842 170.9779
359.101230 82.826 171.1330
361.703426 82.810 171.2896
364.324478 82.794 171.4465
366.964523 82.778 171.6013
369.623699 82.763 171.7523
372.302145 82.747 171.8992
375.000000 82.731 172.0439
377.717405 82.715 172.1890
380.454501 82.699 172.3364
383.211431 82.684 172.4866
385.988339 82.669 172.6397
388.785369 82.655 172.7955
391.602668 82.640 172.9536
394.440383 82.626 173.1138
397.298660 82.611 173.2758
400.177650 82.597 173.4391
403.077502 82.583 173.6034
405.998368 82.569 173.7683
408.940400 82.556 173.9340
411.903750 82.542 174.1005
414.888575 82.528 174.2682
417.895028 82.515 174.4372
420.923268 82.501 174.6072
423.973452 82.488 174.7778
427.045738 82.474 174.9491
430.140287 82.461 175.1211
433.257261 82.448 175.2938
436.396822 82.435 175.4674
439.559133 82.423 175.6422
442.744360 82.411 175.8186
445.952668 82.399 175.9972
449.184225 82.387 176.1780
452.439199 82.375 176.3608
455.717760 82.363 176.5449
459.020079 82.351 176.7296
462.346327 82.339 176.9147
465.696680 82.328 177.1003
469.071310 82.316 177.2867
472.470394 82.305 177.4743
475.894109 82.294 177.6630
479.342634 82.283 177.8527
482.816148 82.272 178.0434
486.314833 82.261 178.2356
489.838871 82.250 178.4296
493.388445 82.240 178.6257
496.963741 82.229 178.8241
500.564945 82.219 179.0243
504.192245 82.209 179.2258
507.845830 82.199 179.4284
511.525890 82.189 179.6320
515.232618 82.180 179.8367
518.966206 82.170 -179.9574
522.726849 82.161 -179.7502
526.514743 82.152 -179.5414
530.330086 82.144 -179.3310
534.173076 82.135 -179.1187
538.043915 82.127 -178.9041
541.942803 82.119 -178.6872
545.869944 82.111 -178.4681
549.825542 82.104 -178.2474
553.809805 82.096 -178.0255
557.822939 82.089 -177.8026
561.865154 82.082 -177.5783
565.936660 82.075 -177.3521
570.037671 82.068 -177.1236
574.168399 82.061 -176.8929
578.329060 82.055 -176.6599
582.519870 82.049 -176.4247
586.741049 82.043 -176.1876
590.992817 82.037 -175.9486
595.275394 82.032 -175.7081
599.589005 82.027 -175.4663
603.933874 82.022 -175.2231
608.310228 82.017 -174.9784
612.718295 82.014 -174.7320
617.158304 82.010 -174.4835
621.630488 82.007 -174.2329
626.135079 82.005 -173.9800
630.672311 82.003 -173.7247
635.242423 82.001 -173.4666
639.845651 81.999 -173.2060
644.482237 81.997 -172.9428
649.152421 81.995 -172.6770
653.856447 81.994 -172.4085
658.594560 81.993 -172.1373
663.367008 81.992 -171.8635
668.174039 81.992 -171.5872
673.015903 81.992 -171.3084
677.892854 81.992 -171.0271
682.805145 81.993 -170.7434
687.753032 81.994 -170.4575
692.736774 81.996 -170.1693
697.756631 81.998 -169.8782
702.812863 82.000 -169.5839
707.905735 82.003 -169.2859
713.035511 82.007 -168.9842
718.202461 82.011 -168.6790
723.406852 82.016 -168.3708
728.648956 82.021 -168.0601
733.929047 82.027 -167.7472
739.247399 82.034 -167.4322
744.604290 82.042 -167.1149
750.000000 82.050 -166.7953
755.434809 82.059 -166.4734
760.909001 82.069 -166.1492
766.422861 82.079 -165.8223
771.976677 82.091 -165.4923
777.570739 82.103 -165.1591
783.205337 82.116 -164.8227
788.880766 82.129 -164.4834
794.597321 82.144 -164.1419
800.355301 82.160 -163.7984
806.155005 82.176 -163.4533
811.996736 82.194 -163.1068
817.880799 82.213 -162.7590
823.807501 82.232 -162.4101
829.777150 82.253 -162.0600
835.790057 82.275 -161.7088
841.846536 82.298 -161.3563
847.946903 82.323 -161.0029
854.091476 82.349 -160.6490
860.280575 82.376 -160.2951
866.514523 82.405 -159.9412
872.793644 82.434 -159.5877
879.118267 82.466 -159.2349
885.488720 82.498 -158.8833
891.905336 82.532 -158.5337
898.368450 82.567 -158.1866
904.878398 82.604 -157.8427
911.435520 82.642 -157.5020
918.040157 82.681 -157.1646
924.692655 82.721 -156.8307
931.393359 82.763 -156.5005
938.142619 82.806 -156.1745
944.940787 82.850 -155.8534
951.788218 82.896 -155.5380
958.685268 82.943 -155.2288
965.632296 82.990 -154.9264
972.629666 83.039 -154.6309
979.677741 83.090 -154.3423
986.776890 83.141 -154.0608
993.927482 83.193 -153.7865
1001.129891 83.247 -153.5199
1008.384491 83.302 -153.2613
1015.691660 83.357 -153.0112
1023.051781 83.414 -152.7700
1030.465236 83.471 -152.5378
1037.932411 83.530 -152.3147
1045.453698 83.588 -152.1008
1053.029486 83.648 -151.8960
1060.660172 83.708 -151.7004
1068.346153 83.768 -151.5141
1076.087829 83.829 -151.3375
1083.885605 83.889 -151.1708
1091.739887 83.950 -151.0138
1099.651084 84.011 -150.8663
1107.619609 84.072 -150.7278
1115.645878 84.133 -150.5981
1123.730308 84.194 -150.4772
1131.873321 84.255 -150.3649
1140.075341 84.316 -150.2611
1148.336797 84.376 -150.1652
1156.658119 84.436 -150.0769
1165.039741 84.495 -149.9957
1173.482099 84.554 -149.9213
1181.985634 84.613 -149.8536
1190.550789 84.671 -149.7924
1199.178011 84.729 -149.7376
1207.867749 84.786 -149.6887
1216.620457 84.843 -149.6455
1225.436590 84.900 -149.6077
1234.316609 84.956 -149.5749
1243.260976 85.011 -149.5469
1252.270157 85.066 -149.5229
1261.344623 85.121 -149.5025
1270.484846 85.175 -149.4855
1279.691303 85.228 -149.4720
1288.964474 85.282 -149.4619
1298.304842 85.334 -149.4552
1307.712894 85.387 -149.4520
1317.189120 85.439 -149.4518
1326.734016 85.490 -149.4543
1336.348077 85.541 -149.4591
1346.031806 85.592 -149.4658
1355.785708 85.643 -149.4744
1365.610290 85.693 -149.4849
1375.506065 85.742 -149.4974
1385.473549 85.792 -149.5116
1395.513261 85.841 -149.5275
1405.625726 85.889 -149.5447
1415.811469 85.938 -149.5632
1426.071023 85.986 -149.5826
1436.404921 86.034 -149.6027
1446.813703 86.081 -149.6234
1457.297912 86.129 -149.6449
1467.858093 86.176 -149.6670
1478.494798 86.224 -149.6898
1489.208581 86.271 -149.7130
1500.000000 86.318 -149.7365
1510.869618 86.364 -149.7600
1521.818002 86.411 -149.7833
1532.845723 86.457 -149.8063
1543.953355 86.503 -149.8288
1555.141477 86.550 -149.8508
1566.410674 86.596 -149.8721
1577.761531 86.642 -149.8929
1589.194642 86.688 -149.9133
1600.710601 86.735 -149.9337
1612.310010 86.782 -149.9539
1623.993473 86.829 -149.9742
1635.761599 86.877 -149.9949
1647.615002 86.925 -150.0162
1659.554299 86.974 -150.0383
1671.580114 87.023 -150.0613
1683.693072 87.072 -150.0849
1695.893807 87.122 -150.1092
1708.182952 87.172 -150.1343
1720.561150 87.223 -150.1605
1733.029045 87.274 -150.1882
1745.587288 87.326 -150.2175
1758.236533 87.379 -150.2487
1770.977440 87.431 -150.2820
1783.810673 87.485 -150.3175
1796.736900 87.539 -150.3555
1809.756796 87.594 -150.3964
1822.871040 87.649 -150.4404
1836.080315 87.705 -150.4876
1849.385310 87.762 -150.5384
1862.786718 87.819 -150.5929
1876.285239 87.877 -150.6513
1889.881575 87.936 -150.7139
1903.576436 87.995 -150.7812
1917.370535 88.055 -150.8534
1931.264593 88.116 -150.9310
1945.259332 88.177 -151.0143
1959.355483 88.240 -151.1036
1973.553781 88.303 -151.1992
1987.854965 88.366 -151.3012
2002.259781 88.430 -151.4097
2016.768981 88.495 -151.5249
2031.383320 88.560 -151.6471
2046.103561 88.626 -151.7767
2060.930471 88.692 -151.9140
2075.864823 88.759 -152.0594
2090.907395 88.826 -152.2130
2106.058972 88.894 -152.3751
2121.320344 88.963 -152.5460
2136.692305 89.032 -152.7262
2152.175658 89.101 -152.9158
2167.771210 89.171 -153.1154
2183.479774 89.241 -153.3250
2199.302169 89.311 -153.5451
2215.239219 89.382 -153.7758
2231.291755 89.453 -154.0175
2247.460615 89.524 -154.2704
2263.746641 89.595 -154.5350
2280.150683 89.667 -154.8114
2296.673595 89.738 -155.1000
2313.316238 89.810 -155.4014
2330.079481 89.882 -155.7157
2346.964198 89.953 -156.0435
2363.971268 90.025 -156.3847
2381.101578 90.096 -156.7400
2398.356022 90.167 -157.1096
2415.735498 90.238 -157.4942
2433.240913 90.308 -157.8940
2450.873180 90.377 -158.3091
2468.633217 90.446 -158.7396
2486.521951 90.514 -159.1853
2504.540314 90.582 -159.6464
2522.689246 90.648 -160.1231
2540.969692 90.713 -160.6158
2559.382606 90.777 -161.1245
2577.928947 90.840 -161.6492
2596.609683 90.902 -162.1899
2615.425787 90.962 -162.7465
2634.378241 91.020 -163.3190
2653.468031 91.077 -163.9076
2672.696154 91.131 -164.5120
2692.063613 91.184 -165.1321
2711.571415 91.234 -165.7676
2731.220579 91.283 -166.4183
2751.012130 91.328 -167.0837
2770.947098 91.371 -167.7635
2791.026522 91.412 -168.4572
2811.251451 91.449 -169.1641
2831.622938 91.484 -169.8836
2852.142045 91.515 -170.6149
2872.809842 91.543 -171.3575
2893.627406 91.568 -172.1103
2914.595823 91.589 -172.8725
2935.716186 91.607 -173.6430
2956.989596 91.621 -174.4209
2978.417161 91.631 -175.2050
3000.000000 91.638 -175.9939
3021.739237 91.641 -176.7861
3043.636005 91.640 -177.5798
3065.691446 91.635 -178.3732
3087.906710 91.626 -179.1644
3110.282955 91.612 -179.9515
3132.821347 91.596 179.2673
3155.523062 91.575 178.4937
3178.389283 91.551 177.7294
3201.421202 91.524 176.9754
3224.620020 91.495 176.2322
3247.986946 91.464 175.4995
3271.523198 91.431 174.7756
3295.230004 91.396 174.0581
3319.108599 91.361 173.3436
3343.160228 91.324 172.6284
3367.386145 91.286 171.9091
3391.787613 91.246 171.1828
3416.365904 91.204 170.4483
3441.122300 91.158 169.7062
3466.058091 91.108 168.9584
3491.174576 91.053 168.2079
3516.473066 90.994 167.4587
3541.954880 90.930 166.7151
3567.621345 90.860 165.9811
3593.473800 90.786 165.2606
3619.513592 90.706 164.5566
3645.742080 90.623 163.8718
3672.160630 90.535 163.2083
3698.770620 90.444 162.5674
3725.573436 90.349 161.9503
3752.570477 90.251 161.3575
3779.763150 90.151 160.7889
3807.152872 90.049 160.2444
3834.741071 89.944 159.7235
3862.529185 89.838 159.2256
3890.518664 89.729 158.7503
3918.710966 89.620 158.2973
3947.107561 89.508 157.8665
3975.709929 89.395 157.4578
4004.519563 89.280 157.0716
4033.537962 89.164 156.7085
4062.766641 89.046 156.3694
4092.207123 88.927 156.0551
4121.860942 88.807 155.7664
4151.729646 88.686 155.5036
4181.814790 88.565 155.2666
4212.117944 88.443 155.0547
4242.640687 88.322 154.8670
4273.384610 88.201 154.7021
4304.351317 88.080 154.5584
4335.542421 87.960 154.4346
4366.959549 87.840 154.3289
4398.604338 87.721 154.2402
4430.478438 87.602 154.1675
4462.583511 87.483 154.1101
4494.921231 87.365 154.0676
4527.493283 87.246 154.0399
4560.301365 87.128 154.0275
4593.347189 87.009 154.0305
4626.632476 86.890 154.0497
4660.158962 86.771 154.0858
4693.928395 86.652 154.1400
4727.942535 86.533 154.2137
4762.203156 86.414 154.3083
4796.712043 86.295 154.4252
4831.470996 86.177 154.5649
4866.481826 86.059 154.7275
4901.746360 85.943 154.9125
4937.266434 85.827 155.1190
4973.043902 85.714 155.3459
5009.080628 85.602 155.5923
5045.378492 85.492 155.8568
5081.939384 85.383 156.1384
5118.765212 85.277 156.4362
5155.857894 85.172 156.7495
5193.219366 85.069 157.0780
5230.851574 84.968 157.4216
5268.756481 84.868 157.7805
5306.936062 84.770 158.1554
5345.392309 84.674 158.5474
5384.127225 84.579 158.9574
5423.142830 84.486 159.3864
5462.441159 84.396 159.8351
5502.024259 84.307 160.3035
5541.894195 84.221 160.7914
5582.053045 84.138 161.2982
5622.502902 84.057 161.8234
5663.245876 83.979 162.3666
5704.284090 83.904 162.9280
5745.619684 83.831 163.5081
5787.254813 83.762 164.1074
5829.191647 83.697 164.7270
5871.432373 83.635 165.3673
5913.979192 83.577 166.0287
5956.834323 83.523 166.7108
6000.000000 83.475 167.4124
6043.478473 83.431 168.1320
6087.272010 83.393 168.8678
6131.382892 83.362 169.6182
6175.813420 83.336 170.3819
6220.565910 83.317 171.1576
6265.642695 83.304 171.9441
6311.046124 83.299 172.7399
6356.778566 83.302 173.5432
6402.842404 83.313 174.3517
6449.240040 83.332 175.1625
6495.973891 83.361 175.9721
6543.046396 83.400 176.7757
6590.460007 83.449 177.5674
6638.217197 83.508 178.3412
6686.320456 83.578 179.0911
6734.772290 83.660 179.8118
6783.575226 83.752 -179.5018
6832.731809 83.855 -178.8550
6882.244600 83.970 -178.2536
6932.116181 84.097 -177.7043
6982.349153 84.236 -177.2146
7032.946133 84.387 -176.7935
7083.909760 84.551 -176.4518
7135.242690 84.728 -176.2025
7186.947600 84.917 -176.0607
7239.027185 85.119 -176.0432
7291.484160 85.332 -176.1680
7344.321260 85.553 -176.4540
7397.541239 85.783 -176.9204
7451.146872 86.016 -177.5857
7505.140954 86.250 -178.4668
7559.526299 86.480 -179.5781
7614.305743 86.700 179.0706
7669.482141 86.906 177.4755
7725.058371 87.090 175.6408
7781.037328 87.245 173.5798
7837.421932 87.366 171.3154
7894.215122 87.446 168.8793
7951.419859 87.482 166.3113
8009.039125 87.468 163.6575
8067.075924 87.404 160.9681
8125.533282 87.289 158.2955
8184.414245 87.125 155.6900
8243.721885 86.914 153.1980
8303.459292 86.661 150.8582
8363.629581 86.370 148.7007
8424.235888 86.048 146.7462
8485.281374 85.700 145.0070
8546.769221 85.330 143.4886
8608.702634 84.944 142.1915
8671.084842 84.546 141.1128
8733.919097 84.138 140.2474
8797.208675 83.723 139.5903
8860.956876 83.305 139.1366
8925.167022 82.885 138.8818
8989.842461 82.465 138.8203
9054.986566 82.049 138.9449
9120.602731 81.637 139.2468
9186.694378 81.232 139.7160
9253.264952 80.835 140.3411
9320.317925 80.447 141.1102
9387.856790 80.070 142.0118
9455.885071 79.703 143.0347
9524.406312 79.348 144.1693
9593.424086 79.003 145.4070
9662.941992 78.669 146.7412
9732.963653 78.346 148.1656
9803.492719 78.035 149.6743
9874.532869 77.734 151.2617
9946.087805 77.445 152.9224
10018.161257 77.168 154.6501
10090.756983 76.903 156.4390
10163.878768 76.651 158.2836
10237.530423 76.412 160.1791
10311.715789 76.186 162.1215
10386.438732 75.972 164.1069
10461.703149 75.771 166.1322
10537.512962 75.583 168.1940
10613.872125 75.408 170.2899
10690.784618 75.245 172.4176
10768.254450 75.094 174.5751
10846.285661 74.957 176.7603
10924.882318 74.832 178.9710
11004.048518 74.721 -178.7955
11083.788390 74.624 -176.5420
11164.106090 74.542 -174.2718
11245.005805 74.474 -171.9890
11326.491752 74.422 -169.6983
11408.568180 74.386 -167.4050
11491.239368 74.366 -165.1144
11574.509626 74.364 -162.8320
11658.383294 74.378 -160.5635
11742.864745 74.411 -158.3140
11827.958384 74.462 -156.0887
11913.668646 74.533 -153.8932
12000.000000 74.624 -151.7346
12086.956947 74.737 -149.6213
12174.544019 74.872 -147.5632
12262.765784 75.028 -145.5708
12351.626840 75.208 -143.6552
12441.131819 75.410 -141.8269
12531.285389 75.635 -140.0966
12622.092249 75.884 -138.4763
12713.557132 76.156 -136.9790
12805.684808 76.453 -135.6201
12898.480079 76.774 -134.4177
12991.947783 77.120 -133.3934
13086.092792 77.492 -132.5737
13180.920015 77.889 -131.9900
13276.434395 78.308 -131.6784
13372.640911 78.748 -131.6788
13469.544580 79.203 -132.0330
13567.150452 79.666 -132.7810
13665.463617 80.126 -133.9566
13764.489200 80.571 -135.5821
13864.232362 80.990 -137.6616
13964.698305 81.366 -140.1764
14065.892266 81.688 -143.0828
14167.819519 81.943 -146.3132
14270.485380 82.121 -149.7801
14373.895200 82.218 -153.3813
14478.054370 82.230 -157.0080
14582.968320 82.161 -160.5533
14688.642520 82.019 -163.9205
14795.082478 81.811 -167.0310
14902.293745 81.552 -169.8288
15010.281908 81.254 -172.2835
15119.052599 80.931 -174.3896
15228.611486 80.595 -176.1640
15338.964283 80.257 -177.6408
15450.116741 79.923 -178.8666
15562.074656 79.601 -179.8942
15674.843864 79.290 179.2216
15788.430244 78.991 178.4286
15902.839718 78.702 177.6808
16018.078250 78.417 176.9409
16134.151848 78.131 176.1821
16251.066563 77.837 175.3901
16368.828491 77.528 174.5625
16487.443769 77.198 173.7087
16606.918584 76.840 172.8489
16727.259161 76.451 172.0122
16848.471777 76.028 171.2350
16970.562748 75.568 170.5581
17093.538442 75.073 170.0242
17217.405268 74.542 169.6745
17342.169684 73.980 169.5463
17467.838194 73.391 169.6713
17594.417350 72.779 170.0745
17721.913751 72.150 170.7738
17850.334044 71.511 171.7793
17979.684923 70.869 173.0922
18109.973131 70.230 174.7043
18241.205462 69.602 176.5977
18373.388756 68.993 178.7448
18506.529905 68.408 -178.8909
18640.635849 67.855 -176.3558
18775.713581 67.338 -173.7076
18911.770141 66.863 -171.0150
19048.812624 66.431 -168.3548
19186.848172 66.042 -165.8071
19325.883983 65.694 -163.4481
19465.927305 65.388 -161.3470
19606.985439 65.123 -159.5649
19749.065738 64.907 -158.1578
19892.175609 64.751 -157.1788
20036.322514 64.668 -156.6748
