* Measurement data measured by REW V5.31.3
* Source: Headset (CX31993 HIFI AUDIO), MICROPHONE (Master Volume), R, volume: 0.250
* Format: 256k Log Swept Sine, 1 sweep at -12.0 dBFS with no timing reference
* Dated: 02 3, 25 11:59:03 AM
* REW Settings:
*  C-weighting compensation: Off
*  Target level: 75.0 dB
* Note: ; 
* Measurement: Moondrop Starfield L
* Smoothing: 1/12 octave
* Frequency Step: 96 ppo
* Start Frequency: 0.36621094 Hz
*
* Freq(Hz) SPL(dB) Phase(degrees)
0.366211 44.020 -17.9864
0.368865 44.019 -17.9594
0.371538 44.019 -17.9194
0.374230 44.018 -17.8697
0.376942 44.017 -17.8132
0.379673 44.016 -17.7522
0.382424 44.015 -17.6880
0.385196 44.014 -17.6215
0.387987 44.013 -17.5533
0.390798 44.012 -17.4835
0.393630 44.011 -17.4123
0.396483 44.010 -17.3398
0.399356 44.008 -17.2659
0.402250 44.007 -17.1907
0.405165 44.006 -17.1141
0.408101 44.005 -17.0362
0.411058 44.004 -16.9568
0.414037 44.003 -16.8760
0.417037 44.002 -16.7937
0.420059 44.001 -16.7099
0.423103 43.999 -16.6245
0.426169 43.998 -16.5375
0.429257 43.997 -16.4489
0.432368 43.996 -16.3586
0.435501 43.995 -16.2666
0.438656 43.993 -16.1729
0.441835 43.992 -16.0773
0.445037 43.991 -15.9799
0.448262 43.990 -15.8806
0.451510 43.988 -15.7794
0.454782 43.987 -15.6762
0.458077 43.986 -15.5709
0.461397 43.985 -15.4636
0.464740 43.983 -15.3541
0.468108 43.982 -15.2424
0.471500 43.981 -15.1285
0.474917 43.979 -15.0122
0.478358 43.978 -14.8936
0.481825 43.977 -14.7725
0.485316 43.975 -14.6490
0.488833 43.974 -14.5229
0.492375 43.973 -14.3942
0.495943 43.971 -14.2628
0.499537 43.970 -14.1286
0.503157 43.969 -13.9916
0.506803 43.967 -13.8517
0.510475 43.966 -13.7089
0.514175 43.964 -13.5629
0.517900 43.963 -13.4138
0.521653 43.962 -13.2615
0.525434 43.960 -13.1059
0.529241 43.959 -12.9468
0.533076 43.957 -12.7843
0.536939 43.956 -12.6182
0.540830 43.954 -12.4483
0.544749 43.953 -12.2747
0.548696 43.951 -12.0972
0.552673 43.950 -11.9157
0.556677 43.948 -11.7301
0.560711 43.947 -11.5403
0.564774 43.945 -11.3461
0.568867 43.943 -11.1475
0.572989 43.942 -10.9442
0.577141 43.940 -10.7363
0.581324 43.939 -10.5234
0.585536 43.937 -10.3056
0.589779 43.935 -10.0827
0.594053 43.934 -9.8544
0.598358 43.932 -9.6208
0.602694 43.930 -9.3815
0.607061 43.929 -9.1364
0.611460 43.927 -8.8854
0.615891 43.925 -8.6283
0.620354 43.924 -8.3650
0.624849 43.922 -8.0951
0.629377 43.920 -7.8186
0.633938 43.918 -7.5351
0.638532 43.917 -7.2446
0.643159 43.915 -6.9469
0.647819 43.913 -6.6415
0.652514 43.911 -6.3285
0.657242 43.910 -6.0074
0.662005 43.908 -5.6781
0.666802 43.906 -5.3403
0.671634 43.904 -4.9938
0.676501 43.902 -4.6382
0.681403 43.900 -4.2732
0.686341 43.899 -3.8987
0.691314 43.897 -3.5141
0.696324 43.896 -3.1192
0.701370 43.895 -2.7136
0.706452 43.895 -2.2969
0.711571 43.896 -1.8686
0.716728 43.900 -1.4284
0.721921 43.908 -0.9760
0.727153 43.922 -0.5115
0.732422 43.944 -0.0352
0.737729 43.975 0.4518
0.743075 44.014 0.9486
0.748460 44.061 1.4542
0.753883 44.113 1.9680
0.759346 44.171 2.4893
0.764849 44.233 3.0177
0.770391 44.299 3.5528
0.775974 44.368 4.0941
0.781597 44.441 4.6409
0.787261 44.516 5.1928
0.792966 44.595 5.7491
0.798712 44.677 6.3091
0.804500 44.761 6.8721
0.810329 44.849 7.4376
0.816201 44.940 8.0046
0.822116 45.033 8.5724
0.828073 45.129 9.1404
0.834074 45.229 9.7077
0.840118 45.331 10.2734
0.846206 45.435 10.8370
0.852338 45.543 11.3974
0.858514 45.653 11.9539
0.864735 45.766 12.5058
0.871001 45.881 13.0521
0.877313 46.000 13.5922
0.883670 46.120 14.1253
0.890074 46.243 14.6504
0.896524 46.368 15.1670
0.903020 46.496 15.6742
0.909564 46.626 16.1714
0.916155 46.758 16.6578
0.922794 46.892 17.1326
0.929481 47.028 17.5954
0.936216 47.166 18.0454
0.943000 47.306 18.4820
0.949834 47.447 18.9046
0.956717 47.590 19.3127
0.963649 47.735 19.7057
0.970632 47.881 20.0832
0.977666 48.028 20.4447
0.984750 48.177 20.7897
0.991886 48.326 21.1179
0.999074 48.476 21.4288
1.006314 48.627 21.7222
1.013606 48.779 21.9977
1.020951 48.931 22.2551
1.028349 49.083 22.4941
1.035801 49.235 22.7145
1.043307 49.388 22.9163
1.050867 49.540 23.0993
1.058482 49.692 23.2638
1.066152 49.843 23.4099
1.073878 49.994 23.5384
1.081660 50.144 23.6502
1.089498 50.295 23.7470
1.097393 50.445 23.8310
1.105345 50.596 23.9046
1.113355 50.748 23.9704
1.121423 50.902 24.0304
1.129549 51.057 24.0859
1.137734 51.214 24.1374
1.145979 51.373 24.1852
1.154283 51.534 24.2292
1.162647 51.697 24.2690
1.171072 51.862 24.3043
1.179558 52.029 24.3346
1.188106 52.197 24.3595
1.196715 52.368 24.3786
1.205387 52.540 24.3913
1.214122 52.713 24.3974
1.222920 52.888 24.3963
1.231782 53.065 24.3878
1.240708 53.243 24.3715
1.249699 53.422 24.3470
1.258754 53.602 24.3140
1.267876 53.784 24.2722
1.277063 53.966 24.2213
1.286318 54.149 24.1610
1.295639 54.333 24.0910
1.305027 54.517 24.0110
1.314484 54.702 23.9209
1.324009 54.888 23.8202
1.333604 55.073 23.7089
1.343268 55.259 23.5865
1.353002 55.444 23.4530
1.362806 55.630 23.3080
1.372681 55.815 23.1513
1.382628 55.999 22.9827
1.392647 56.183 22.8021
1.402739 56.366 22.6092
1.412904 56.547 22.4041
1.423142 56.728 22.1868
1.433455 56.908 21.9576
1.443843 57.086 21.7170
1.454305 57.262 21.4662
1.464844 57.438 21.2064
1.475459 57.612 20.9394
1.486150 57.785 20.6668
1.496920 57.958 20.3900
1.507767 58.129 20.1098
1.518693 58.300 19.8268
1.529698 58.469 19.5411
1.540783 58.638 19.2529
1.551948 58.807 18.9618
1.563194 58.974 18.6678
1.574521 59.141 18.3706
1.585931 59.308 18.0699
1.597423 59.474 17.7655
1.608999 59.639 17.4571
1.620658 59.803 17.1443
1.632402 59.967 16.8269
1.644232 60.131 16.5046
1.656146 60.293 16.1770
1.668147 60.456 15.8439
1.680235 60.618 15.5050
1.692411 60.779 15.1598
1.704675 60.940 14.8082
1.717028 61.101 14.4497
1.729470 61.261 14.0841
1.742003 61.421 13.7110
1.754626 61.581 13.3301
1.767341 61.740 12.9412
1.780147 61.899 12.5441
1.793047 62.058 12.1385
1.806040 62.217 11.7246
1.819128 62.375 11.3025
1.832310 62.532 10.8727
1.845587 62.689 10.4358
1.858961 62.846 9.9927
1.872432 63.001 9.5440
1.886001 63.155 9.0905
1.899667 63.309 8.6327
1.913433 63.461 8.1710
1.927299 63.613 7.7059
1.941265 63.763 7.2376
1.955332 63.913 6.7664
1.969501 64.061 6.2926
1.983773 64.209 5.8162
1.998148 64.356 5.3375
2.012627 64.502 4.8565
2.027212 64.647 4.3732
2.041902 64.792 3.8877
2.056698 64.936 3.4000
2.071602 65.079 2.9100
2.086614 65.222 2.4176
2.101734 65.364 1.9227
2.116964 65.506 1.4251
2.132304 65.647 0.9246
2.147756 65.788 0.4210
2.163320 65.928 -0.0861
2.178996 66.068 -0.5972
2.194786 66.207 -1.1125
2.210690 66.346 -1.6325
2.226710 66.483 -2.1573
2.242845 66.620 -2.6869
2.259098 66.756 -3.2211
2.275468 66.890 -3.7594
2.291957 67.023 -4.3015
2.308566 67.156 -4.8468
2.325295 67.287 -5.3947
2.342145 67.417 -5.9447
2.359117 67.547 -6.4963
2.376212 67.675 -7.0490
2.393431 67.802 -7.6025
2.410775 67.929 -8.1563
2.428244 68.055 -8.7101
2.445840 68.180 -9.2636
2.463564 68.304 -9.8167
2.481416 68.428 -10.3692
2.499397 68.551 -10.9211
2.517509 68.673 -11.4727
2.535752 68.795 -12.0244
2.554127 68.916 -12.5768
2.572635 69.036 -13.1307
2.591277 69.155 -13.6871
2.610055 69.274 -14.2463
2.628968 69.391 -14.8087
2.648019 69.507 -15.3740
2.667208 69.621 -15.9419
2.686535 69.735 -16.5119
2.706003 69.848 -17.0831
2.725612 69.959 -17.6550
2.745363 70.070 -18.2268
2.765257 70.180 -18.7978
2.785295 70.288 -19.3672
2.805478 70.396 -19.9345
2.825808 70.504 -20.4991
2.846285 70.610 -21.0606
2.866910 70.716 -21.6188
2.887685 70.822 -22.1735
2.908611 70.926 -22.7253
2.929688 71.030 -23.2748
2.950917 71.133 -23.8227
2.972301 71.236 -24.3701
2.993839 71.337 -24.9175
3.015534 71.437 -25.4650
3.037386 71.536 -26.0126
3.059396 71.633 -26.5599
3.081565 71.730 -27.1063
3.103896 71.827 -27.6513
3.126388 71.922 -28.1941
3.149043 72.016 -28.7341
3.171862 72.111 -29.2705
3.194847 72.204 -29.8029
3.217998 72.297 -30.3305
3.241317 72.390 -30.8532
3.264805 72.482 -31.3708
3.288463 72.574 -31.8836
3.312293 72.665 -32.3919
3.336295 72.755 -32.8966
3.360471 72.845 -33.3980
3.384822 72.934 -33.8967
3.409350 73.023 -34.3926
3.434056 73.110 -34.8859
3.458940 73.198 -35.3763
3.484005 73.284 -35.8637
3.509252 73.371 -36.3476
3.534681 73.457 -36.8277
3.560295 73.543 -37.3037
3.586094 73.629 -37.7753
3.612081 73.715 -38.2421
3.638255 73.801 -38.7040
3.664620 73.887 -39.1610
3.691175 73.973 -39.6132
3.717923 74.059 -40.0607
3.744864 74.144 -40.5041
3.772001 74.230 -40.9436
3.799335 74.315 -41.3796
3.826866 74.401 -41.8125
3.854597 74.486 -42.2427
3.882529 74.571 -42.6705
3.910664 74.657 -43.0960
3.939002 74.743 -43.5195
3.967546 74.830 -43.9411
3.996296 74.916 -44.3607
4.025255 75.004 -44.7782
4.054423 75.091 -45.1935
4.083804 75.179 -45.6064
4.113396 75.267 -46.0171
4.143204 75.356 -46.4259
4.173227 75.445 -46.8334
4.203468 75.534 -47.2402
4.233928 75.624 -47.6471
4.264609 75.714 -48.0547
4.295512 75.804 -48.4637
4.326639 75.895 -48.8747
4.357992 75.986 -49.2878
4.389572 76.078 -49.7032
4.421380 76.170 -50.1208
4.453419 76.262 -50.5404
4.485691 76.355 -50.9618
4.518196 76.448 -51.3854
4.550936 76.541 -51.8113
4.583914 76.635 -52.2401
4.617131 76.729 -52.6724
4.650589 76.822 -53.1088
4.684289 76.916 -53.5498
4.718233 77.010 -53.9958
4.752424 77.104 -54.4472
4.786862 77.197 -54.9039
4.821549 77.291 -55.3660
4.856488 77.384 -55.8332
4.891680 77.478 -56.3053
4.927127 77.571 -56.7822
4.962831 77.664 -57.2638
4.998794 77.756 -57.7501
5.035017 77.848 -58.2413
5.071503 77.939 -58.7374
5.108253 78.030 -59.2387
5.145270 78.120 -59.7455
5.182555 78.209 -60.2578
5.220110 78.297 -60.7755
5.257937 78.385 -61.2981
5.296038 78.472 -61.8251
5.334415 78.557 -62.3559
5.373071 78.642 -62.8898
5.412006 78.726 -63.4264
5.451224 78.809 -63.9655
5.490725 78.891 -64.5070
5.530514 78.972 -65.0511
5.570590 79.051 -65.5979
5.610957 79.129 -66.1472
5.651616 79.206 -66.6984
5.692570 79.282 -67.2506
5.733821 79.357 -67.8030
5.775370 79.430 -68.3547
5.817221 79.503 -68.9052
5.859375 79.574 -69.4542
5.901834 79.644 -70.0018
5.944602 79.713 -70.5481
5.987679 79.781 -71.0929
6.031068 79.847 -71.6358
6.074771 79.913 -72.1762
6.118792 79.977 -72.7134
6.163131 80.041 -73.2467
6.207792 80.104 -73.7757
6.252776 80.166 -74.3003
6.298086 80.228 -74.8205
6.343725 80.289 -75.3364
6.389694 80.349 -75.8481
6.435996 80.408 -76.3555
6.482634 80.467 -76.8584
6.529610 80.526 -77.3568
6.576926 80.584 -77.8504
6.624585 80.642 -78.3392
6.672590 80.700 -78.8234
6.720942 80.758 -79.3033
6.769645 80.816 -79.7793
6.818700 80.874 -80.2518
6.868111 80.932 -80.7213
6.917881 80.990 -81.1879
6.968010 81.048 -81.6521
7.018504 81.106 -82.1140
7.069362 81.165 -82.5739
7.120590 81.224 -83.0323
7.172189 81.283 -83.4898
7.224161 81.342 -83.9469
7.276511 81.401 -84.4042
7.329239 81.461 -84.8622
7.382350 81.520 -85.3211
7.435845 81.580 -85.7811
7.489729 81.640 -86.2425
7.544002 81.700 -86.7055
7.598669 81.760 -87.1705
7.653732 81.819 -87.6379
7.709194 81.879 -88.1077
7.765058 81.938 -88.5802
7.821327 81.997 -89.0552
7.878004 82.056 -89.5327
7.935091 82.114 -90.0125
7.992592 82.172 -90.4945
8.050510 82.230 -90.9785
8.108847 82.286 -91.4644
8.167607 82.343 -91.9521
8.226793 82.398 -92.4412
8.286408 82.453 -92.9313
8.346454 82.507 -93.4221
8.406936 82.561 -93.9130
8.467856 82.614 -94.4039
8.529218 82.666 -94.8945
8.591024 82.718 -95.3847
8.653278 82.769 -95.8740
8.715983 82.819 -96.3621
8.779143 82.869 -96.8488
8.842760 82.918 -97.3339
8.906839 82.967 -97.8173
8.971381 83.016 -98.2991
9.036392 83.064 -98.7793
9.101873 83.112 -99.2578
9.167829 83.159 -99.7349
9.234263 83.207 -100.2104
9.301178 83.254 -100.6848
9.368578 83.301 -101.1582
9.436467 83.348 -101.6309
9.504847 83.394 -102.1033
9.573723 83.441 -102.5754
9.643099 83.487 -103.0477
9.712976 83.533 -103.5202
9.783361 83.578 -103.9933
9.854255 83.624 -104.4670
9.925663 83.669 -104.9415
9.997588 83.713 -105.4169
10.070035 83.757 -105.8930
10.143007 83.801 -106.3697
10.216507 83.843 -106.8469
10.290540 83.886 -107.3242
10.365109 83.927 -107.8014
10.440219 83.968 -108.2780
10.515873 84.007 -108.7535
10.592076 84.046 -109.2273
10.668830 84.085 -109.6990
10.746141 84.122 -110.1680
10.824012 84.158 -110.6337
10.902447 84.194 -111.0956
10.981451 84.229 -111.5531
11.061027 84.264 -112.0058
11.141180 84.298 -112.4534
11.221913 84.332 -112.8957
11.303232 84.365 -113.3324
11.385140 84.398 -113.7635
11.467641 84.431 -114.1891
11.550741 84.464 -114.6095
11.634442 84.497 -115.0250
11.718750 84.531 -115.4362
11.803669 84.564 -115.8434
11.889203 84.598 -116.2475
11.975357 84.633 -116.6490
12.062136 84.667 -117.0489
12.149543 84.702 -117.4479
12.237583 84.738 -117.8468
12.326262 84.774 -118.2462
12.415583 84.810 -118.6470
12.505552 84.846 -119.0496
12.596172 84.882 -119.4545
12.687449 84.918 -119.8621
12.779387 84.954 -120.2726
12.871992 84.990 -120.6860
12.965268 85.025 -121.1022
13.059220 85.059 -121.5211
13.153852 85.093 -121.9421
13.249170 85.126 -122.3649
13.345179 85.158 -122.7887
13.441884 85.189 -123.2129
13.539289 85.219 -123.6367
13.637401 85.248 -124.0592
13.736223 85.275 -124.4795
13.835761 85.302 -124.8968
13.936021 85.328 -125.3103
14.037007 85.353 -125.7192
14.138725 85.378 -126.1229
14.241180 85.401 -126.5207
14.344377 85.425 -126.9124
14.448323 85.447 -127.2977
14.553021 85.470 -127.6767
14.658478 85.493 -128.0495
14.764700 85.516 -128.4166
14.871691 85.539 -128.7788
14.979457 85.563 -129.1369
15.088005 85.588 -129.4923
15.197339 85.613 -129.8460
15.307465 85.639 -130.1997
15.418389 85.666 -130.5548
15.530117 85.693 -130.9129
15.642655 85.721 -131.2752
15.756008 85.750 -131.6430
15.870182 85.778 -132.0172
15.985184 85.806 -132.3984
16.101019 85.834 -132.7868
16.217694 85.861 -133.1820
16.335214 85.888 -133.5832
16.453586 85.912 -133.9892
16.572815 85.936 -134.3984
16.692909 85.958 -134.8088
16.813872 85.978 -135.2183
16.935713 85.997 -135.6245
17.058436 86.014 -136.0254
17.182048 86.030 -136.4193
17.306556 86.046 -136.8046
17.431967 86.061 -137.1807
17.558286 86.076 -137.5475
17.685521 86.091 -137.9057
17.813677 86.108 -138.2567
17.942762 86.125 -138.6026
18.072783 86.144 -138.9460
18.203746 86.164 -139.2899
18.335658 86.186 -139.6371
18.468526 86.208 -139.9904
18.602356 86.231 -140.3518
18.737156 86.255 -140.7229
18.872934 86.278 -141.1040
19.009695 86.300 -141.4946
19.147447 86.320 -141.8931
19.286197 86.339 -142.2971
19.425953 86.356 -142.7035
19.566721 86.370 -143.1088
19.708510 86.382 -143.5094
19.851326 86.393 -143.9021
19.995177 86.402 -144.2843
20.140070 86.410 -144.6541
20.286013 86.418 -145.0109
20.433014 86.425 -145.3551
20.581080 86.433 -145.6882
20.730219 86.443 -146.0124
20.880439 86.453 -146.3306
21.031747 86.464 -146.6458
21.184152 86.477 -146.9609
21.337661 86.490 -147.2782
21.492282 86.503 -147.5993
21.648024 86.516 -147.9248
21.804895 86.529 -148.2545
21.962902 86.541 -148.5874
22.122054 86.553 -148.9221
22.282360 86.563 -149.2569
22.443827 86.572 -149.5905
22.606464 86.580 -149.9216
22.770280 86.588 -150.2499
22.935283 86.595 -150.5753
23.101481 86.602 -150.8985
23.268884 86.609 -151.2202
23.437500 86.615 -151.5412
23.607338 86.620 -151.8620
23.778406 86.625 -152.1820
23.950714 86.629 -152.5004
24.124271 86.632 -152.8153
24.299086 86.634 -153.1243
24.475167 86.636 -153.4251
24.652524 86.637 -153.7160
24.831166 86.638 -153.9962
25.011103 86.641 -154.2668
25.192344 86.646 -154.5308
25.374898 86.653 -154.7932
25.558775 86.663 -155.0602
25.743984 86.676 -155.3388
25.930536 86.690 -155.6352
26.118439 86.705 -155.9537
26.307704 86.720 -156.2953
26.498341 86.732 -156.6574
26.690359 86.740 -157.0328
26.883768 86.744 -157.4112
27.078579 86.744 -157.7799
27.274801 86.739 -158.1260
27.472446 86.733 -158.4390
27.671522 86.727 -158.7130
27.872042 86.724 -158.9493
28.074014 86.727 -159.1569
28.277450 86.737 -159.3524
28.482360 86.757 -159.5573
28.688755 86.784 -159.7948
28.896645 86.816 -160.0847
29.106042 86.849 -160.4396
29.316957 86.880 -160.8613
29.529400 86.902 -161.3403
29.743382 86.914 -161.8563
29.958915 86.913 -162.3818
30.176009 86.899 -162.8860
30.394677 86.874 -163.3407
30.614929 86.841 -163.7245
30.836778 86.806 -164.0280
31.060234 86.773 -164.2544
31.285309 86.745 -164.4197
31.512015 86.727 -164.5482
31.740364 86.717 -164.6663
31.970368 86.715 -164.7969
32.202039 86.718 -164.9556
32.435388 86.722 -165.1484
32.670428 86.727 -165.3727
32.907171 86.729 -165.6207
33.145630 86.729 -165.8832
33.385817 86.726 -166.1535
33.627745 86.723 -166.4287
33.871425 86.719 -166.7097
34.116871 86.714 -166.9988
34.364096 86.709 -167.2968
34.613113 86.702 -167.6017
34.863934 86.693 -167.9075
35.116572 86.682 -168.2071
35.371041 86.671 -168.4950
35.627354 86.662 -168.7706
35.885525 86.657 -169.0403
36.145566 86.656 -169.3161
36.407492 86.659 -169.6125
36.671316 86.664 -169.9405
36.937051 86.669 -170.3037
37.204712 86.671 -170.6953
37.474313 86.667 -171.0993
37.745867 86.657 -171.4945
38.019389 86.642 -171.8601
38.294893 86.624 -172.1815
38.572394 86.608 -172.4539
38.851905 86.594 -172.6824
39.133442 86.586 -172.8797
39.417019 86.583 -173.0609
39.702651 86.585 -173.2394
39.990353 86.591 -173.4238
40.280140 86.598 -173.6176
40.572026 86.605 -173.8203
40.866028 86.612 -174.0303
41.162160 86.619 -174.2458
41.460438 86.624 -174.4659
41.760877 86.626 -174.6893
42.063494 86.627 -174.9143
42.368303 86.625 -175.1382
42.675322 86.620 -175.3581
42.984565 86.613 -175.5720
43.296048 86.604 -175.7799
43.609789 86.595 -175.9837
43.925804 86.584 -176.1863
44.244108 86.572 -176.3904
44.564719 86.558 -176.5967
44.887654 86.544 -176.8036
45.212928 86.528 -177.0080
45.540560 86.511 -177.2066
45.870565 86.494 -177.3981
46.202962 86.479 -177.5836
46.537768 86.465 -177.7672
46.875000 86.455 -177.9546
47.214676 86.446 -178.1516
47.556813 86.439 -178.3624
47.901429 86.433 -178.5887
48.248542 86.427 -178.8297
48.598171 86.421 -179.0822
48.950334 86.413 -179.3422
49.305048 86.404 -179.6053
49.662333 86.394 -179.8678
50.022206 86.382 179.8734
50.384688 86.369 179.6202
50.749796 86.355 179.3742
51.117550 86.340 179.1367
51.487969 86.325 178.9084
51.861072 86.309 178.6889
52.236879 86.294 178.4764
52.615409 86.279 178.2676
52.996681 86.265 178.0589
53.380717 86.250 177.8478
53.767536 86.236 177.6339
54.157158 86.221 177.4191
54.549603 86.206 177.2056
54.944892 86.190 176.9945
55.343045 86.176 176.7844
55.744084 86.162 176.5726
56.148028 86.149 176.3569
56.554900 86.135 176.1379
56.964720 86.121 175.9185
57.377510 86.106 175.7022
57.793291 86.091 175.4915
58.212085 86.076 175.2869
58.633914 86.060 175.0886
59.058799 86.044 174.8975
59.486764 86.027 174.7153
59.917829 86.011 174.5422
60.352019 85.995 174.3754
60.789354 85.980 174.2091
61.229859 85.965 174.0369
61.673556 85.950 173.8546
62.120468 85.934 173.6621
62.570618 85.915 173.4633
63.024031 85.894 173.2642
63.480729 85.872 173.0707
63.940736 85.848 172.8864
64.404077 85.825 172.7107
64.870776 85.803 172.5394
65.340856 85.783 172.3664
65.814343 85.763 172.1872
66.291261 85.745 172.0011
66.771635 85.726 171.8111
67.255489 85.706 171.6208
67.742850 85.687 171.4327
68.233743 85.668 171.2470
68.728193 85.649 171.0638
69.226226 85.630 170.8836
69.727867 85.611 170.7072
70.233144 85.591 170.5344
70.742083 85.572 170.3636
71.254709 85.552 170.1938
71.771050 85.531 170.0259
72.291132 85.509 169.8616
72.814984 85.486 169.7020
73.342631 85.464 169.5462
73.874102 85.441 169.3922
74.409424 85.418 169.2387
74.948626 85.395 169.0859
75.491734 85.372 168.9341
76.038779 85.350 168.7829
76.589787 85.328 168.6312
77.144788 85.306 168.4782
77.703811 85.285 168.3238
78.266885 85.263 168.1687
78.834039 85.242 168.0135
79.405303 85.219 167.8579
79.980706 85.196 167.7023
80.560280 85.171 167.5483
81.144053 85.145 167.3996
81.732056 85.116 167.2598
82.324320 85.087 167.1294
82.920876 85.058 167.0056
83.521755 85.029 166.8839
84.126988 85.001 166.7603
84.736607 84.973 166.6329
85.350643 84.945 166.5021
85.969129 84.917 166.3700
86.592097 84.891 166.2384
87.219579 84.866 166.1071
87.851608 84.843 165.9734
88.488217 84.822 165.8350
89.129439 84.800 165.6921
89.775308 84.779 165.5478
90.425856 84.756 165.4055
91.081119 84.733 165.2672
91.741131 84.708 165.1327
92.405925 84.682 165.0016
93.075536 84.653 164.8743
93.750000 84.623 164.7524
94.429351 84.592 164.6371
95.113625 84.560 164.5283
95.802858 84.529 164.4231
96.497085 84.497 164.3168
97.196342 84.467 164.2054
97.900667 84.436 164.0886
98.610096 84.405 163.9691
99.324665 84.374 163.8495
100.044413 84.344 163.7310
100.769376 84.314 163.6125
101.499592 84.285 163.4918
102.235100 84.256 163.3670
102.975938 84.227 163.2384
103.722144 84.198 163.1091
104.473757 84.168 162.9839
105.230817 84.137 162.8685
105.993363 84.105 162.7682
106.761435 84.074 162.6865
107.535072 84.042 162.6228
108.314315 84.010 162.5736
109.099206 83.978 162.5349
109.889783 83.945 162.5036
110.686090 83.912 162.4769
111.488167 83.877 162.4521
112.296056 83.841 162.4271
113.109800 83.803 162.4023
113.929440 83.764 162.3807
114.755020 83.725 162.3658
115.586582 83.685 162.3575
116.424170 83.647 162.3470
117.267827 83.611 162.3180
118.117598 83.574 162.2538
118.973527 83.534 162.1465
119.835658 83.486 162.0102
120.704037 83.426 161.8893
121.578708 83.356 161.8416
122.459718 83.284 161.9012
123.347111 83.217 162.0582
124.240935 83.157 162.2763
125.141236 83.102 162.5267
126.048061 83.051 162.8052
126.961458 83.001 163.1237
127.881473 82.954 163.4929
128.808154 82.914 163.9113
129.741551 82.885 164.3618
130.681712 82.872 164.8108
131.628686 82.876 165.2135
132.582521 82.898 165.5270
133.543269 82.932 165.7217
134.510979 82.973 165.7898
135.485701 83.015 165.7448
136.467486 83.053 165.6106
137.456386 83.085 165.4130
138.452451 83.109 165.1758
139.455735 83.124 164.9227
140.466288 83.131 164.6780
141.484165 83.131 164.4595
142.509418 83.125 164.2746
143.542100 83.116 164.1240
144.582265 83.104 164.0049
145.629968 83.091 163.9097
146.685262 83.075 163.8257
147.748204 83.059 163.7387
148.818849 83.040 163.6385
149.897251 83.018 163.5210
150.983469 82.994 163.3880
152.077557 82.967 163.2441
153.179574 82.938 163.0952
154.289576 82.908 162.9480
155.407622 82.877 162.8099
156.533770 82.845 162.6868
157.668078 82.813 162.5806
158.810606 82.781 162.4910
159.961413 82.749 162.4162
161.120559 82.717 162.3547
162.288105 82.685 162.3042
163.464112 82.652 162.2625
164.648640 82.620 162.2270
165.841752 82.586 162.1953
167.043510 82.553 162.1660
168.253976 82.519 162.1393
169.473213 82.486 162.1166
170.701286 82.453 162.0993
171.938258 82.422 162.0873
173.184194 82.390 162.0804
174.439158 82.359 162.0785
175.703216 82.327 162.0823
176.976434 82.294 162.0918
178.258878 82.261 162.1060
179.550615 82.227 162.1238
180.851713 82.192 162.1450
182.162239 82.157 162.1694
183.482262 82.123 162.1968
184.811850 82.089 162.2265
186.151073 82.055 162.2579
187.500000 82.022 162.2915
188.858702 81.989 162.3294
190.227250 81.956 162.3738
191.605715 81.924 162.4250
192.994169 81.892 162.4822
194.392685 81.860 162.5437
195.801334 81.827 162.6078
197.220191 81.793 162.6749
198.649330 81.758 162.7472
200.088825 81.723 162.8281
201.538751 81.686 162.9202
202.999184 81.650 163.0252
204.470200 81.614 163.1440
205.951875 81.581 163.2741
207.444287 81.550 163.4101
208.947514 81.523 163.5459
210.461634 81.499 163.6786
211.986726 81.478 163.8085
213.522869 81.460 163.9358
215.070144 81.445 164.0583
216.628631 81.431 164.1727
218.198411 81.417 164.2761
219.779567 81.404 164.3678
221.372180 81.389 164.4493
222.976334 81.373 164.5229
224.592112 81.356 164.5897
226.219600 81.337 164.6493
227.858880 81.318 164.7014
229.510039 81.298 164.7466
231.173164 81.278 164.7875
232.848340 81.257 164.8272
234.535655 81.236 164.8677
236.235197 81.213 164.9102
237.947054 81.190 164.9556
239.671317 81.166 165.0052
241.408074 81.141 165.0608
243.157416 81.115 165.1226
244.919435 81.089 165.1896
246.694223 81.062 165.2611
248.481871 81.035 165.3372
250.282473 81.008 165.4185
252.096123 80.981 165.5053
253.922915 80.953 165.5970
255.762945 80.926 165.6920
257.616309 80.899 165.7887
259.483103 80.872 165.8864
261.363424 80.846 165.9854
263.257372 80.820 166.0872
265.165043 80.795 166.1925
267.086538 80.770 166.3011
269.021957 80.745 166.4119
270.971401 80.720 166.5236
272.934972 80.696 166.6355
274.912771 80.672 166.7477
276.904902 80.649 166.8608
278.911469 80.626 166.9755
280.932577 80.603 167.0925
282.968330 80.580 167.2116
285.018835 80.557 167.3327
287.084199 80.533 167.4554
289.164530 80.509 167.5798
291.259935 80.485 167.7065
293.370525 80.461 167.8361
295.496408 80.438 167.9691
297.637697 80.414 168.1054
299.794503 80.391 168.2443
301.966937 80.369 168.3849
304.155114 80.346 168.5267
306.359147 80.325 168.6693
308.579152 80.303 168.8125
310.815244 80.282 168.9568
313.067539 80.261 169.1023
315.336156 80.240 169.2489
317.621211 80.219 169.3964
319.922826 80.199 169.5446
322.241118 80.179 169.6934
324.576210 80.159 169.8427
326.928223 80.139 169.9929
329.297280 80.120 170.1447
331.683504 80.100 170.2988
334.087019 80.081 170.4554
336.507952 80.061 170.6141
338.946427 80.042 170.7751
341.402572 80.023 170.9379
343.876516 80.003 171.1019
346.368387 79.984 171.2663
348.878315 79.965 171.4310
351.406431 79.946 171.5965
353.952867 79.927 171.7630
356.517756 79.909 171.9305
359.101230 79.890 172.0988
361.703426 79.872 172.2682
364.324478 79.854 172.4393
366.964523 79.836 172.6121
369.623699 79.819 172.7866
372.302145 79.802 172.9624
375.000000 79.785 173.1394
377.717405 79.768 173.3173
380.454501 79.752 173.4958
383.211431 79.735 173.6750
385.988339 79.719 173.8546
388.785369 79.702 174.0354
391.602668 79.686 174.2185
394.440383 79.671 174.4047
397.298660 79.655 174.5939
400.177650 79.640 174.7853
403.077502 79.624 174.9782
405.998368 79.609 175.1722
408.940400 79.594 175.3672
411.903750 79.579 175.5633
414.888575 79.564 175.7602
417.895028 79.549 175.9580
420.923268 79.535 176.1566
423.973452 79.522 176.3564
427.045738 79.508 176.5578
430.140287 79.495 176.7609
433.257261 79.482 176.9657
436.396822 79.469 177.1724
439.559133 79.457 177.3807
442.744360 79.444 177.5904
445.952668 79.432 177.8008
449.184225 79.420 178.0119
452.439199 79.408 178.2239
455.717760 79.396 178.4377
459.020079 79.384 178.6538
462.346327 79.373 178.8726
465.696680 79.362 179.0935
469.071310 79.350 179.3157
472.470394 79.339 179.5385
475.894109 79.328 179.7618
479.342634 79.318 179.9860
482.816148 79.307 -179.7884
486.314833 79.297 -179.5609
489.838871 79.287 -179.3314
493.388445 79.278 -179.0999
496.963741 79.268 -178.8670
500.564945 79.259 -178.6329
504.192245 79.250 -178.3978
507.845830 79.242 -178.1616
511.525890 79.233 -177.9241
515.232618 79.225 -177.6850
518.966206 79.217 -177.4438
522.726849 79.209 -177.2001
526.514743 79.202 -176.9536
530.330086 79.194 -176.7045
534.173076 79.187 -176.4530
538.043915 79.181 -176.1997
541.942803 79.174 -175.9453
545.869944 79.168 -175.6898
549.825542 79.162 -175.4328
553.809805 79.156 -175.1738
557.822939 79.151 -174.9125
561.865154 79.146 -174.6489
565.936660 79.141 -174.3831
570.037671 79.137 -174.1154
574.168399 79.133 -173.8460
578.329060 79.129 -173.5753
582.519870 79.125 -173.3036
586.741049 79.122 -173.0308
590.992817 79.119 -172.7562
595.275394 79.116 -172.4791
599.589005 79.114 -172.1992
603.933874 79.112 -171.9163
608.310228 79.111 -171.6304
612.718295 79.110 -171.3420
617.158304 79.110 -171.0511
621.630488 79.110 -170.7581
626.135079 79.110 -170.4628
630.672311 79.110 -170.1653
635.242423 79.111 -169.8654
639.845651 79.112 -169.5630
644.482237 79.113 -169.2581
649.152421 79.115 -168.9507
653.856447 79.118 -168.6411
658.594560 79.120 -168.3294
663.367008 79.123 -168.0157
668.174039 79.127 -167.6996
673.015903 79.131 -167.3806
677.892854 79.136 -167.0579
682.805145 79.141 -166.7309
687.753032 79.147 -166.3991
692.736774 79.153 -166.0623
697.756631 79.160 -165.7206
702.812863 79.167 -165.3743
707.905735 79.176 -165.0232
713.035511 79.185 -164.6675
718.202461 79.195 -164.3075
723.406852 79.207 -163.9441
728.648956 79.220 -163.5786
733.929047 79.234 -163.2120
739.247399 79.250 -162.8442
744.604290 79.266 -162.4742
750.000000 79.284 -162.1007
755.434809 79.304 -161.7250
760.909001 79.326 -161.3510
766.422861 79.350 -160.9841
771.976677 79.375 -160.6276
777.570739 79.401 -160.2814
783.205337 79.427 -159.9420
788.880766 79.452 -159.6057
794.597321 79.477 -159.2691
800.355301 79.502 -158.9301
806.155005 79.527 -158.5876
811.996736 79.553 -158.2410
817.880799 79.580 -157.8905
823.807501 79.608 -157.5367
829.777150 79.636 -157.1802
835.790057 79.666 -156.8222
841.846536 79.698 -156.4635
847.946903 79.730 -156.1049
854.091476 79.764 -155.7470
860.280575 79.799 -155.3899
866.514523 79.836 -155.0339
872.793644 79.874 -154.6790
879.118267 79.913 -154.3254
885.488720 79.953 -153.9735
891.905336 79.995 -153.6235
898.368450 80.038 -153.2758
904.878398 80.082 -152.9310
911.435520 80.128 -152.5899
918.040157 80.175 -152.2533
924.692655 80.223 -151.9217
931.393359 80.273 -151.5955
938.142619 80.324 -151.2748
944.940787 80.376 -150.9597
951.788218 80.429 -150.6500
958.685268 80.484 -150.3459
965.632296 80.539 -150.0474
972.629666 80.596 -149.7554
979.677741 80.654 -149.4708
986.776890 80.713 -149.1947
993.927482 80.773 -148.9274
1001.129891 80.833 -148.6687
1008.384491 80.895 -148.4185
1015.691660 80.958 -148.1765
1023.051781 81.021 -147.9431
1030.465236 81.085 -147.7188
1037.932411 81.150 -147.5039
1045.453698 81.215 -147.2989
1053.029486 81.281 -147.1040
1060.660172 81.347 -146.9192
1068.346153 81.413 -146.7443
1076.087829 81.480 -146.5789
1083.885605 81.546 -146.4226
1091.739887 81.613 -146.2753
1099.651084 81.680 -146.1373
1107.619609 81.747 -146.0088
1115.645878 81.814 -145.8897
1123.730308 81.881 -145.7796
1131.873321 81.948 -145.6782
1140.075341 82.014 -145.5853
1148.336797 82.080 -145.5006
1156.658119 82.146 -145.4237
1165.039741 82.211 -145.3541
1173.482099 82.276 -145.2911
1181.985634 82.341 -145.2346
1190.550789 82.405 -145.1845
1199.178011 82.469 -145.1408
1207.867749 82.532 -145.1034
1216.620457 82.594 -145.0718
1225.436590 82.656 -145.0453
1234.316609 82.718 -145.0232
1243.260976 82.779 -145.0049
1252.270157 82.839 -144.9899
1261.344623 82.899 -144.9782
1270.484846 82.958 -144.9696
1279.691303 83.017 -144.9643
1288.964474 83.075 -144.9621
1298.304842 83.133 -144.9628
1307.712894 83.191 -144.9660
1317.189120 83.248 -144.9710
1326.734016 83.305 -144.9775
1336.348077 83.362 -144.9853
1346.031806 83.418 -144.9947
1355.785708 83.475 -145.0056
1365.610290 83.530 -145.0181
1375.506065 83.586 -145.0318
1385.473549 83.641 -145.0463
1395.513261 83.696 -145.0616
1405.625726 83.752 -145.0777
1415.811469 83.807 -145.0950
1426.071023 83.862 -145.1132
1436.404921 83.917 -145.1324
1446.813703 83.972 -145.1522
1457.297912 84.027 -145.1726
1467.858093 84.082 -145.1938
1478.494798 84.138 -145.2160
1489.208581 84.193 -145.2395
1500.000000 84.249 -145.2643
1510.869618 84.305 -145.2907
1521.818002 84.361 -145.3188
1532.845723 84.418 -145.3487
1543.953355 84.475 -145.3803
1555.141477 84.532 -145.4137
1566.410674 84.590 -145.4489
1577.761531 84.648 -145.4863
1589.194642 84.707 -145.5263
1600.710601 84.766 -145.5693
1612.310010 84.826 -145.6156
1623.993473 84.886 -145.6655
1635.761599 84.946 -145.7191
1647.615002 85.007 -145.7766
1659.554299 85.069 -145.8381
1671.580114 85.131 -145.9034
1683.693072 85.194 -145.9728
1695.893807 85.257 -146.0465
1708.182952 85.320 -146.1247
1720.561150 85.384 -146.2078
1733.029045 85.449 -146.2961
1745.587288 85.514 -146.3898
1758.236533 85.579 -146.4893
1770.977440 85.644 -146.5949
1783.810673 85.710 -146.7070
1796.736900 85.777 -146.8259
1809.756796 85.843 -146.9520
1822.871040 85.910 -147.0854
1836.080315 85.978 -147.2263
1849.385310 86.046 -147.3751
1862.786718 86.114 -147.5319
1876.285239 86.182 -147.6973
1889.881575 86.251 -147.8716
1903.576436 86.320 -148.0548
1917.370535 86.389 -148.2473
1931.264593 86.458 -148.4491
1945.259332 86.528 -148.6605
1959.355483 86.598 -148.8818
1973.553781 86.667 -149.1131
1987.854965 86.737 -149.3547
2002.259781 86.806 -149.6066
2016.768981 86.875 -149.8692
2031.383320 86.944 -150.1429
2046.103561 87.013 -150.4280
2060.930471 87.082 -150.7248
2075.864823 87.150 -151.0335
2090.907395 87.218 -151.3542
2106.058972 87.285 -151.6871
2121.320344 87.351 -152.0321
2136.692305 87.418 -152.3892
2152.175658 87.483 -152.7584
2167.771210 87.547 -153.1396
2183.479774 87.611 -153.5327
2199.302169 87.673 -153.9377
2215.239219 87.734 -154.3544
2231.291755 87.794 -154.7830
2247.460615 87.852 -155.2232
2263.746641 87.909 -155.6750
2280.150683 87.965 -156.1382
2296.673595 88.018 -156.6124
2313.316238 88.071 -157.0974
2330.079481 88.121 -157.5926
2346.964198 88.170 -158.0976
2363.971268 88.216 -158.6122
2381.101578 88.261 -159.1359
2398.356022 88.304 -159.6683
2415.735498 88.344 -160.2090
2433.240913 88.382 -160.7574
2450.873180 88.418 -161.3129
2468.633217 88.452 -161.8746
2486.521951 88.483 -162.4418
2504.540314 88.512 -163.0137
2522.689246 88.538 -163.5897
2540.969692 88.561 -164.1686
2559.382606 88.582 -164.7498
2577.928947 88.600 -165.3324
2596.609683 88.615 -165.9156
2615.425787 88.628 -166.4989
2634.378241 88.638 -167.0812
2653.468031 88.646 -167.6618
2672.696154 88.651 -168.2398
2692.063613 88.653 -168.8142
2711.571415 88.653 -169.3844
2731.220579 88.650 -169.9496
2751.012130 88.644 -170.5094
2770.947098 88.637 -171.0629
2791.026522 88.627 -171.6098
2811.251451 88.614 -172.1493
2831.622938 88.600 -172.6808
2852.142045 88.583 -173.2033
2872.809842 88.564 -173.7162
2893.627406 88.543 -174.2188
2914.595823 88.520 -174.7109
2935.716186 88.496 -175.1921
2956.989596 88.470 -175.6621
2978.417161 88.442 -176.1205
3000.000000 88.413 -176.5668
3021.739237 88.383 -177.0006
3043.636005 88.352 -177.4215
3065.691446 88.319 -177.8295
3087.906710 88.286 -178.2246
3110.282955 88.251 -178.6069
3132.821347 88.217 -178.9764
3155.523062 88.181 -179.3333
3178.389283 88.145 -179.6778
3201.421202 88.109 179.9901
3224.620020 88.073 179.6700
3247.986946 88.036 179.3618
3271.523198 88.000 179.0651
3295.230004 87.964 178.7796
3319.108599 87.927 178.5051
3343.160228 87.892 178.2411
3367.386145 87.856 177.9873
3391.787613 87.821 177.7431
3416.365904 87.787 177.5081
3441.122300 87.753 177.2816
3466.058091 87.720 177.0630
3491.174576 87.688 176.8519
3516.473066 87.657 176.6478
3541.954880 87.626 176.4503
3567.621345 87.596 176.2585
3593.473800 87.568 176.0720
3619.513592 87.540 175.8900
3645.742080 87.513 175.7122
3672.160630 87.487 175.5379
3698.770620 87.462 175.3666
3725.573436 87.439 175.1978
3752.570477 87.416 175.0308
3779.763150 87.395 174.8652
3807.152872 87.375 174.7002
3834.741071 87.357 174.5351
3862.529185 87.339 174.3689
3890.518664 87.324 174.2004
3918.710966 87.310 174.0280
3947.107561 87.298 173.8496
3975.709929 87.287 173.6632
4004.519563 87.278 173.4661
4033.537962 87.270 173.2562
4062.766641 87.263 173.0315
4092.207123 87.256 172.7907
4121.860942 87.250 172.5331
4151.729646 87.244 172.2587
4181.814790 87.237 171.9674
4212.117944 87.230 171.6597
4242.640687 87.222 171.3360
4273.384610 87.213 170.9962
4304.351317 87.202 170.6398
4335.542421 87.191 170.2661
4366.959549 87.178 169.8746
4398.604338 87.163 169.4651
4430.478438 87.146 169.0384
4462.583511 87.125 168.5959
4494.921231 87.102 168.1397
4527.493283 87.076 167.6721
4560.301365 87.046 167.1955
4593.347189 87.013 166.7119
4626.632476 86.976 166.2231
4660.158962 86.936 165.7303
4693.928395 86.893 165.2346
4727.942535 86.846 164.7363
4762.203156 86.796 164.2363
4796.712043 86.742 163.7349
4831.470996 86.685 163.2329
4866.481826 86.624 162.7314
4901.746360 86.559 162.2316
4937.266434 86.491 161.7351
4973.043902 86.418 161.2437
5009.080628 86.341 160.7596
5045.378492 86.259 160.2853
5081.939384 86.174 159.8234
5118.765212 86.084 159.3768
5155.857894 85.990 158.9482
5193.219366 85.892 158.5404
5230.851574 85.790 158.1562
5268.756481 85.684 157.7982
5306.936062 85.574 157.4692
5345.392309 85.461 157.1718
5384.127225 85.346 156.9091
5423.142830 85.228 156.6842
5462.441159 85.108 156.5005
5502.024259 84.986 156.3608
5541.894195 84.864 156.2673
5582.053045 84.743 156.2197
5622.502902 84.624 156.2152
5663.245876 84.507 156.2477
5704.284090 84.393 156.3094
5745.619684 84.282 156.3938
5787.254813 84.173 156.4982
5829.191647 84.064 156.6248
5871.432373 83.956 156.7789
5913.979192 83.849 156.9667
5956.834323 83.743 157.1932
6000.000000 83.638 157.4612
6043.478473 83.538 157.7713
6087.272010 83.441 158.1223
6131.382892 83.350 158.5115
6175.813420 83.264 158.9352
6220.565910 83.186 159.3895
6265.642695 83.114 159.8698
6311.046124 83.050 160.3716
6356.778566 82.994 160.8907
6402.842404 82.947 161.4224
6449.240040 82.907 161.9624
6495.973891 82.877 162.5068
6543.046396 82.855 163.0519
6590.460007 82.842 163.5943
6638.217197 82.838 164.1304
6686.320456 82.844 164.6564
6734.772290 82.860 165.1675
6783.575226 82.887 165.6586
6832.731809 82.924 166.1238
6882.244600 82.972 166.5573
6932.116181 83.032 166.9530
6982.349153 83.102 167.3045
7032.946133 83.184 167.6050
7083.909760 83.278 167.8470
7135.242690 83.384 168.0222
7186.947600 83.502 168.1208
7239.027185 83.633 168.1313
7291.484160 83.778 168.0400
7344.321260 83.936 167.8301
7397.541239 84.107 167.4813
7451.146872 84.292 166.9694
7505.140954 84.488 166.2668
7559.526299 84.694 165.3430
7614.305743 84.906 164.1656
7669.482141 85.120 162.7026
7725.058371 85.328 160.9249
7781.037328 85.522 158.8105
7837.421932 85.691 156.3488
7894.215122 85.823 153.5450
7951.419859 85.906 150.4252
8009.039125 85.928 147.0379
8067.075924 85.878 143.4539
8125.533282 85.747 139.7626
8184.414245 85.533 136.0655
8243.721885 85.234 132.4673
8303.459292 84.854 129.0674
8363.629581 84.402 125.9514
8424.235888 83.886 123.1869
8485.281374 83.319 120.8197
8546.769221 82.712 118.8747
8608.702634 82.078 117.3584
8671.084842 81.427 116.2620
8733.919097 80.769 115.5657
8797.208675 80.110 115.2427
8860.956876 79.458 115.2627
8925.167022 78.817 115.5946
8989.842461 78.189 116.2086
9054.986566 77.576 117.0775
9120.602731 76.980 118.1766
9186.694378 76.401 119.4836
9253.264952 75.840 120.9789
9320.317925 75.298 122.6453
9387.856790 74.772 124.4683
9455.885071 74.264 126.4362
9524.406312 73.772 128.5396
9593.424086 73.296 130.7716
9662.941992 72.835 133.1282
9732.963653 72.386 135.6079
9803.492719 71.951 138.2130
9874.532869 71.528 140.9497
9946.087805 71.116 143.8277
10018.161257 70.717 146.8599
10090.756983 70.330 150.0629
10163.878768 69.956 153.4583
10237.530423 69.599 157.0735
10311.715789 69.262 160.9409
10386.438732 68.951 165.0947
10461.703149 68.674 169.5671
10537.512962 68.444 174.3807
10613.872125 68.274 179.5362
10690.784618 68.182 -175.0079
10768.254450 68.184 -169.3536
10846.285661 68.290 -163.6723
10924.882318 68.505 -158.1916
11004.048518 68.817 -153.1550
11083.788390 69.207 -148.7689
11164.106090 69.645 -145.1586
11245.005805 70.099 -142.3524
11326.491752 70.542 -140.2913
11408.568180 70.949 -138.8539
11491.239368 71.306 -137.8853
11574.509626 71.606 -137.2219
11658.383294 71.847 -136.7101
11742.864745 72.036 -136.2187
11827.958384 72.181 -135.6446
11913.668646 72.295 -134.9147
12000.000000 72.387 -133.9836
12086.956947 72.472 -132.8307
12174.544019 72.559 -131.4552
12262.765784 72.659 -129.8705
12351.626840 72.780 -128.0996
12441.131819 72.929 -126.1710
12531.285389 73.112 -124.1165
12622.092249 73.335 -121.9695
12713.557132 73.604 -119.7646
12805.684808 73.924 -117.5389
12898.480079 74.301 -115.3330
12991.947783 74.743 -113.1940
13086.092792 75.254 -111.1788
13180.920015 75.842 -109.3585
13276.434395 76.510 -107.8220
13372.640911 77.261 -106.6776
13469.544580 78.089 -106.0511
13567.150452 78.984 -106.0807
13665.463617 79.928 -106.9060
13764.489200 80.894 -108.6544
13864.232362 81.848 -111.4250
13964.698305 82.753 -115.2724
14065.892266 83.566 -120.1906
14167.819519 84.245 -126.0982
14270.485380 84.750 -132.8270
14373.895200 85.051 -140.1192
14478.054370 85.127 -147.6428
14582.968320 84.979 -155.0312
14688.642520 84.622 -161.9385
14795.082478 84.088 -168.0868
14902.293745 83.419 -173.2912
15010.281908 82.661 -177.4621
15119.052599 81.859 179.4041
15228.611486 81.057 177.2404
15338.964283 80.290 175.9261
15450.116741 79.586 175.3053
15562.074656 78.963 175.2044
15674.843864 78.430 175.4469
15788.430244 77.989 175.8651
15902.839718 77.634 176.3074
16018.078250 77.353 176.6426
16134.151848 77.133 176.7622
16251.066563 76.957 176.5829
16368.828491 76.806 176.0489
16487.443769 76.659 175.1330
16606.918584 76.497 173.8390
16727.259161 76.300 172.2014
16848.471777 76.051 170.2849
16970.562748 75.737 168.1807
17093.538442 75.346 166.0002
17217.405268 74.875 163.8658
17342.169684 74.323 161.8993
17467.838194 73.697 160.2093
17594.417350 73.008 158.8774
17721.913751 72.269 157.9449
17850.334044 71.496 157.4034
17979.684923 70.705 157.1966
18109.973131 69.905 157.2370
18241.205462 69.100 157.4320
18373.388756 68.284 157.7160
18506.529905 67.443 158.1010
18640.635849 66.554 158.7478
18775.713581 65.600 160.0148
18911.770141 64.583 162.3721
19048.812624 63.544 166.1074
19186.848172 62.551 171.0262
19325.883983 61.666 176.4981
19465.927305 60.928 -178.1935
19606.985439 60.345 -173.5602
19749.065738 59.910 -169.8793
19892.175609 59.619 -167.3093
20036.322514 59.473 -165.9784
