* Measurement data measured by REW V5.30.4
* Source: EXCL: Headset (CX31993 HIFI AUDIO), MICROPHONE (Master Volume), 0, volume: 0.360
* Format: 256k Log Swept Sine, 1 sweep at -12.0 dBFS with no timing reference
* Dated: 01 19, 24 2:45:26 PM
* REW Settings:
*  C-weighting compensation: Off
*  Target level: 75.0 dB
* Note: ; 
* Measurement: Moondrop Blessing 3 S2 R
* Smoothing: 1/3 octave
* Frequency Step: 96 ppo
* Start Frequency: 20.141602 Hz
*
* Freq(Hz) SPL(dB) Phase(degrees)
20.141602 90.710 14.2347
20.287556 90.708 14.1336
20.434568 90.706 14.0129
20.582645 90.704 13.8735
20.731796 90.702 13.7163
20.882027 90.699 13.5426
21.033346 90.696 13.3535
21.185762 90.692 13.1502
21.339283 90.689 12.9339
21.493916 90.685 12.7060
21.649670 90.681 12.4675
21.806553 90.677 12.2196
21.964573 90.672 11.9635
22.123737 90.667 11.7001
22.284056 90.662 11.4304
22.445536 90.657 11.1552
22.608185 90.651 10.8755
22.772013 90.645 10.5918
22.937029 90.639 10.3049
23.103241 90.633 10.0154
23.270657 90.626 9.7236
23.439285 90.620 9.4301
23.609137 90.613 9.1351
23.780218 90.606 8.8391
23.952539 90.598 8.5423
24.126110 90.591 8.2450
24.300938 90.583 7.9472
24.477032 90.575 7.6493
24.654402 90.567 7.3514
24.833057 90.558 7.0537
25.013008 90.550 6.7562
25.194263 90.541 6.4591
25.376831 90.532 6.1626
25.560722 90.523 5.8668
25.745945 90.514 5.5716
25.932510 90.504 5.2774
26.120428 90.495 4.9840
26.309708 90.485 4.6916
26.500359 90.475 4.4002
26.692390 90.465 4.1098
26.885815 90.454 3.8205
27.080641 90.444 3.5324
27.276878 90.433 3.2453
27.474539 90.422 2.9593
27.673630 90.411 2.6744
27.874165 90.400 2.3907
28.076153 90.389 2.1081
28.279604 90.377 1.8267
28.484529 90.366 1.5464
28.690941 90.354 1.2672
28.898848 90.342 0.9892
29.108261 90.329 0.7124
29.319191 90.317 0.4369
29.531651 90.304 0.1625
29.745649 90.291 -0.1106
29.961199 90.278 -0.3824
30.178310 90.265 -0.6529
30.396996 90.252 -0.9220
30.617264 90.238 -1.1899
30.839128 90.224 -1.4565
31.062601 90.210 -1.7218
31.287693 90.196 -1.9859
31.514416 90.181 -2.2488
31.742783 90.167 -2.5107
31.972803 90.152 -2.7716
32.204491 90.137 -3.0317
32.437859 90.121 -3.2911
32.672916 90.106 -3.5499
32.909679 90.090 -3.8082
33.148155 90.074 -4.0662
33.388359 90.058 -4.3238
33.630306 90.041 -4.5811
33.874004 90.024 -4.8382
34.119469 90.008 -5.0950
34.366711 89.991 -5.3515
34.615746 89.974 -5.6075
34.866585 89.956 -5.8631
35.119244 89.939 -6.1180
35.373734 89.921 -6.3722
35.630066 89.903 -6.6256
35.888256 89.886 -6.8779
36.148315 89.868 -7.1291
36.410259 89.850 -7.3791
36.674103 89.831 -7.6278
36.939857 89.813 -7.8751
37.207539 89.795 -8.1211
37.477161 89.776 -8.3657
37.748737 89.757 -8.6089
38.022282 89.738 -8.8508
38.297806 89.719 -9.0912
38.575329 89.700 -9.3303
38.854862 89.681 -9.5681
39.136421 89.661 -9.8047
39.420021 89.641 -10.0400
39.705673 89.621 -10.2740
39.993397 89.601 -10.5070
40.283207 89.580 -10.7387
40.575115 89.560 -10.9694
40.869141 89.539 -11.1991
41.165295 89.518 -11.4278
41.463596 89.496 -11.6555
41.764057 89.475 -11.8823
42.066696 89.453 -12.1082
42.371529 89.431 -12.3331
42.678570 89.409 -12.5572
42.987835 89.387 -12.7804
43.299343 89.365 -13.0026
43.613110 89.342 -13.2239
43.929150 89.319 -13.4441
44.247478 89.296 -13.6632
44.568115 89.273 -13.8812
44.891075 89.249 -14.0979
45.216373 89.226 -14.3133
45.544029 89.202 -14.5275
45.874062 89.178 -14.7402
46.206486 89.154 -14.9515
46.541317 89.129 -15.1614
46.878574 89.105 -15.3700
47.218277 89.080 -15.5771
47.560440 89.055 -15.7829
47.905083 89.030 -15.9874
48.252224 89.005 -16.1907
48.601879 88.979 -16.3929
48.954067 88.953 -16.5939
49.308807 88.928 -16.7938
49.666119 88.901 -16.9927
50.026020 88.875 -17.1905
50.388531 88.849 -17.3873
50.753666 88.822 -17.5830
51.121449 88.795 -17.7776
51.491894 88.768 -17.9712
51.865025 88.740 -18.1637
52.240860 88.712 -18.3552
52.619419 88.684 -18.5456
53.000721 88.656 -18.7349
53.384785 88.628 -18.9230
53.771633 88.599 -19.1100
54.161285 88.570 -19.2958
54.553761 88.541 -19.4803
54.949081 88.511 -19.6635
55.347263 88.482 -19.8454
55.748333 88.452 -20.0258
56.152309 88.422 -20.2049
56.559212 88.392 -20.3824
56.969063 88.362 -20.5584
57.381886 88.332 -20.7329
57.797699 88.302 -20.9057
58.216526 88.271 -21.0768
58.638386 88.241 -21.2463
59.063305 88.211 -21.4139
59.491302 88.180 -21.5798
59.922401 88.150 -21.7438
60.356625 88.119 -21.9060
60.793995 88.088 -22.0664
61.234531 88.057 -22.2249
61.678261 88.026 -22.3817
62.125206 87.995 -22.5367
62.575390 87.963 -22.6900
63.028835 87.931 -22.8417
63.485569 87.900 -22.9918
63.945610 87.867 -23.1404
64.408989 87.835 -23.2876
64.875725 87.803 -23.4335
65.345840 87.770 -23.5780
65.819366 87.737 -23.7211
66.296318 87.704 -23.8629
66.776726 87.671 -24.0034
67.260620 87.637 -24.1423
67.748016 87.603 -24.2798
68.238945 87.569 -24.4156
68.733429 87.535 -24.5497
69.231499 87.501 -24.6822
69.733177 87.467 -24.8128
70.238495 87.432 -24.9418
70.747475 87.397 -25.0689
71.260139 87.363 -25.1944
71.776520 87.328 -25.3182
72.296638 87.293 -25.4404
72.820526 87.258 -25.5610
73.348213 87.223 -25.6801
73.879723 87.187 -25.7977
74.415085 87.152 -25.9138
74.954330 87.117 -26.0285
75.497482 87.081 -26.1417
76.044571 87.045 -26.2534
76.595619 87.010 -26.3635
77.150665 86.974 -26.4720
77.709732 86.938 -26.5789
78.272850 86.901 -26.6840
78.840050 86.865 -26.7874
79.411354 86.828 -26.8888
79.986801 86.791 -26.9883
80.566422 86.754 -27.0857
81.150238 86.717 -27.1810
81.738289 86.680 -27.2742
82.330597 86.642 -27.3652
82.927200 86.605 -27.4539
83.528122 86.567 -27.5404
84.133400 86.529 -27.6245
84.743065 86.491 -27.7063
85.357147 86.453 -27.7857
85.975677 86.414 -27.8628
86.598694 86.376 -27.9375
87.226227 86.337 -28.0098
87.858307 86.298 -28.0798
88.494965 86.259 -28.1474
89.136238 86.220 -28.2126
89.782158 86.181 -28.2755
90.432755 86.141 -28.3361
91.088066 86.102 -28.3944
91.748131 86.062 -28.4504
92.412979 86.023 -28.5041
93.082642 85.983 -28.5555
93.757156 85.943 -28.6046
94.436562 85.903 -28.6514
95.120888 85.863 -28.6960
95.810173 85.824 -28.7383
96.504456 85.784 -28.7784
97.203766 85.743 -28.8162
97.908142 85.703 -28.8518
98.617622 85.663 -28.8853
99.332245 85.623 -28.9165
100.052048 85.583 -28.9455
100.777069 85.543 -28.9723
101.507339 85.503 -28.9969
102.242905 85.463 -29.0192
102.983795 85.423 -29.0392
103.730057 85.383 -29.0569
104.481728 85.343 -29.0722
105.238846 85.303 -29.0851
106.001450 85.264 -29.0957
106.769577 85.224 -29.1037
107.543274 85.184 -29.1093
108.322578 85.144 -29.1124
109.107529 85.105 -29.1129
109.898170 85.065 -29.1109
110.694534 85.025 -29.1063
111.496674 84.986 -29.0992
112.304626 84.946 -29.0895
113.118431 84.906 -29.0774
113.938133 84.867 -29.0627
114.763779 84.827 -29.0456
115.595406 84.787 -29.0261
116.433060 84.748 -29.0041
117.276779 84.708 -28.9798
118.126617 84.669 -28.9531
118.982613 84.629 -28.9241
119.844810 84.590 -28.8928
120.713257 84.551 -28.8593
121.587997 84.511 -28.8234
122.469070 84.472 -28.7853
123.356529 84.433 -28.7448
124.250420 84.394 -28.7020
125.150787 84.355 -28.6568
126.057678 84.317 -28.6091
126.971146 84.278 -28.5591
127.891228 84.240 -28.5066
128.817978 84.201 -28.4516
129.751450 84.163 -28.3942
130.691681 84.125 -28.3343
131.638733 84.087 -28.2720
132.592636 84.049 -28.2072
133.553452 84.011 -28.1399
134.521240 83.974 -28.0702
135.496033 83.936 -27.9981
136.477890 83.899 -27.9236
137.466858 83.862 -27.8467
138.462997 83.825 -27.7674
139.466354 83.788 -27.6857
140.476990 83.751 -27.6017
141.494949 83.715 -27.5154
142.520279 83.678 -27.4268
143.553040 83.642 -27.3360
144.593277 83.606 -27.2428
145.641052 83.570 -27.1474
146.696426 83.534 -27.0498
147.759445 83.499 -26.9497
148.830170 83.463 -26.8474
149.908661 83.428 -26.7426
150.994965 83.394 -26.6354
152.089142 83.359 -26.5256
153.191238 83.325 -26.4133
154.301331 83.291 -26.2984
155.419464 83.258 -26.1808
156.545700 83.224 -26.0604
157.680099 83.192 -25.9373
158.822708 83.159 -25.8114
159.973602 83.127 -25.6828
161.132843 83.095 -25.5513
162.300476 83.064 -25.4170
163.476578 83.033 -25.2800
164.661194 83.003 -25.1404
165.854401 82.973 -24.9983
167.056244 82.943 -24.8538
168.266800 82.915 -24.7072
169.486130 82.886 -24.5587
170.714294 82.859 -24.4086
171.951355 82.832 -24.2572
173.197388 82.806 -24.1049
174.452454 82.780 -23.9519
175.716614 82.756 -23.7988
176.989929 82.731 -23.6459
178.272476 82.708 -23.4937
179.564316 82.685 -23.3424
180.865509 82.663 -23.1924
182.176132 82.641 -23.0440
183.496262 82.620 -22.8973
184.825958 82.599 -22.7525
186.165283 82.578 -22.6097
187.514313 82.558 -22.4687
188.873123 82.538 -22.3295
190.241776 82.518 -22.1919
191.620346 82.498 -22.0556
193.008911 82.478 -21.9205
194.407532 82.459 -21.7862
195.816284 82.439 -21.6524
197.235245 82.420 -21.5188
198.664490 82.400 -21.3852
200.104095 82.381 -21.2512
201.554138 82.361 -21.1166
203.014679 82.342 -20.9813
204.485809 82.323 -20.8450
205.967590 82.303 -20.7075
207.460114 82.284 -20.5689
208.963455 82.265 -20.4289
210.477692 82.247 -20.2875
212.002899 82.228 -20.1447
213.539154 82.210 -20.0005
215.086548 82.192 -19.8549
216.645157 82.174 -19.7079
218.215057 82.157 -19.5597
219.796341 82.140 -19.4102
221.389069 82.123 -19.2596
222.993347 82.107 -19.1080
224.609253 82.091 -18.9554
226.236862 82.076 -18.8022
227.876266 82.061 -18.6483
229.527557 82.047 -18.4941
231.190811 82.033 -18.3397
232.866119 82.019 -18.1853
234.553558 82.006 -18.0311
236.253235 81.994 -17.8774
237.965225 81.982 -17.7242
239.689621 81.970 -17.5719
241.426514 81.959 -17.4204
243.175995 81.948 -17.2700
244.938141 81.937 -17.1208
246.713058 81.927 -16.9727
248.500839 81.917 -16.8258
250.301575 81.907 -16.6801
252.115356 81.898 -16.5356
253.942291 81.889 -16.3921
255.782455 81.880 -16.2498
257.635956 81.871 -16.1084
259.502899 81.863 -15.9680
261.383362 81.855 -15.8285
263.277466 81.847 -15.6898
265.185272 81.839 -15.5519
267.106903 81.831 -15.4149
269.042480 81.824 -15.2787
270.992065 81.817 -15.1433
272.955780 81.810 -15.0089
274.933716 81.804 -14.8755
276.925995 81.798 -14.7433
278.932709 81.792 -14.6122
280.953979 81.786 -14.4825
282.989899 81.781 -14.3543
285.040558 81.776 -14.2276
287.106079 81.771 -14.1026
289.186554 81.766 -13.9794
291.282104 81.761 -13.8580
293.392853 81.757 -13.7385
295.518890 81.753 -13.6210
297.660339 81.748 -13.5053
299.817322 81.744 -13.3916
301.989929 81.740 -13.2797
304.178284 81.736 -13.1696
306.382477 81.732 -13.0611
308.602661 81.728 -12.9542
310.838928 81.724 -12.8486
313.091400 81.720 -12.7443
315.360199 81.715 -12.6410
317.645416 81.711 -12.5386
319.947205 81.707 -12.4370
322.265686 81.703 -12.3359
324.600952 81.699 -12.2352
326.953156 81.694 -12.1349
329.322388 81.690 -12.0347
331.708801 81.686 -11.9346
334.112488 81.681 -11.8345
336.533600 81.677 -11.7344
338.972260 81.673 -11.6342
341.428589 81.669 -11.5339
343.902710 81.665 -11.4334
346.394775 81.661 -11.3330
348.904907 81.657 -11.2324
351.433228 81.654 -11.1319
353.979858 81.650 -11.0315
356.544952 81.647 -10.9312
359.128632 81.644 -10.8313
361.731018 81.641 -10.7318
364.352264 81.638 -10.6328
366.992523 81.635 -10.5344
369.651917 81.633 -10.4369
372.330566 81.631 -10.3402
375.028625 81.628 -10.2446
377.746246 81.626 -10.1500
380.483551 81.624 -10.0567
383.240692 81.623 -9.9646
386.017822 81.621 -9.8738
388.815063 81.619 -9.7843
391.632568 81.617 -9.6961
394.470490 81.616 -9.6091
397.328979 81.614 -9.5233
400.208191 81.612 -9.4386
403.108276 81.610 -9.3549
406.029358 81.609 -9.2720
408.971619 81.607 -9.1899
411.935181 81.605 -9.1085
414.920227 81.603 -9.0275
417.926910 81.601 -8.9469
420.955383 81.599 -8.8666
424.005798 81.596 -8.7864
427.078308 81.594 -8.7063
430.173096 81.592 -8.6261
433.290314 81.589 -8.5458
436.430115 81.587 -8.4652
439.592682 81.585 -8.3844
442.778137 81.582 -8.3034
445.986694 81.580 -8.2219
449.218506 81.577 -8.1401
452.473724 81.574 -8.0579
455.752533 81.572 -7.9753
459.055115 81.569 -7.8923
462.381622 81.567 -7.8088
465.732239 81.564 -7.7248
469.107117 81.562 -7.6405
472.506470 81.559 -7.5556
475.930450 81.557 -7.4703
479.379242 81.555 -7.3846
482.853027 81.552 -7.2984
486.351990 81.550 -7.2117
489.876282 81.548 -7.1247
493.426117 81.546 -7.0371
497.001678 81.544 -6.9491
500.603149 81.542 -6.8607
504.230713 81.540 -6.7718
507.884583 81.538 -6.6824
511.564911 81.536 -6.5926
515.271912 81.534 -6.5022
519.005798 81.533 -6.4113
522.766724 81.531 -6.3199
526.554932 81.529 -6.2278
530.370544 81.528 -6.1352
534.213806 81.526 -6.0418
538.084961 81.525 -5.9478
541.984131 81.523 -5.8529
545.911560 81.522 -5.7573
549.867432 81.520 -5.6607
553.851990 81.519 -5.5632
557.865417 81.518 -5.4647
561.907959 81.517 -5.3651
565.979797 81.516 -5.2644
570.081116 81.515 -5.1626
574.212158 81.514 -5.0595
578.373108 81.513 -4.9551
582.564209 81.512 -4.8495
586.785706 81.512 -4.7424
591.037781 81.511 -4.6340
595.320679 81.511 -4.5241
599.634644 81.511 -4.4126
603.979858 81.511 -4.2997
608.356567 81.511 -4.1851
612.764954 81.511 -4.0690
617.205322 81.512 -3.9511
621.677856 81.513 -3.8315
626.182800 81.514 -3.7102
630.720398 81.515 -3.5871
635.290833 81.516 -3.4622
639.894409 81.518 -3.3354
644.531372 81.520 -3.2068
649.201904 81.522 -3.0763
653.906311 81.525 -2.9438
658.644775 81.528 -2.8094
663.417603 81.531 -2.6730
668.224976 81.535 -2.5347
673.067200 81.539 -2.3943
677.944519 81.543 -2.2520
682.857178 81.548 -2.1076
687.805420 81.553 -1.9613
692.789551 81.559 -1.8129
697.809814 81.565 -1.6625
702.866455 81.571 -1.5101
707.959717 81.578 -1.3557
713.089905 81.586 -1.1993
718.257263 81.594 -1.0409
723.462036 81.602 -0.8806
728.704529 81.612 -0.7183
733.985046 81.621 -0.5541
739.303833 81.632 -0.3882
744.661133 81.643 -0.2204
750.057251 81.655 -0.0509
755.492493 81.667 0.1203
760.967102 81.680 0.2930
766.481384 81.694 0.4673
772.035645 81.709 0.6429
777.630127 81.725 0.8197
783.265137 81.741 0.9977
788.940979 81.758 1.1767
794.657959 81.777 1.3566
800.416382 81.796 1.5371
806.216553 81.816 1.7183
812.058716 81.837 1.8997
817.943237 81.859 2.0814
823.870361 81.882 2.2630
829.840454 81.906 2.4444
835.853821 81.931 2.6254
841.910767 81.957 2.8056
848.011597 81.984 2.9848
854.156616 82.012 3.1628
860.346191 82.042 3.3392
866.580627 82.073 3.5139
872.860229 82.104 3.6864
879.185364 82.137 3.8564
885.556274 82.171 4.0237
891.973389 82.207 4.1879
898.437012 82.243 4.3487
904.947449 82.280 4.5057
911.505066 82.319 4.6585
918.110229 82.359 4.8069
924.763245 82.400 4.9504
931.464478 82.442 5.0887
938.214233 82.485 5.2215
945.012939 82.530 5.3483
951.860901 82.575 5.4689
958.758484 82.621 5.5829
965.706055 82.669 5.6900
972.703979 82.717 5.7898
979.752563 82.766 5.8821
986.852234 82.816 5.9665
994.003357 82.867 6.0428
1001.206299 82.919 6.1108
1008.461426 82.971 6.1701
1015.769165 83.024 6.2207
1023.129822 83.078 6.2621
1030.543823 83.133 6.2945
1038.011597 83.188 6.3174
1045.533447 83.243 6.3310
1053.109863 83.299 6.3350
1060.741089 83.355 6.3293
1068.427612 83.412 6.3141
1076.169922 83.468 6.2892
1083.968262 83.525 6.2546
1091.823120 83.582 6.2105
1099.734863 83.639 6.1568
1107.703979 83.696 6.0937
1115.730835 83.753 6.0213
1123.815918 83.810 5.9398
1131.959595 83.866 5.8493
1140.162231 83.923 5.7500
1148.424316 83.979 5.6422
1156.746216 84.034 5.5261
1165.128418 84.089 5.4019
1173.571411 84.144 5.2700
1182.075562 84.198 5.1306
1190.641357 84.252 4.9840
1199.269287 84.305 4.8304
1207.959717 84.358 4.6703
1216.713135 84.410 4.5039
1225.529907 84.461 4.3315
1234.410645 84.512 4.1535
1243.355713 84.562 3.9701
1252.365601 84.611 3.7818
1261.440796 84.660 3.5887
1270.581665 84.708 3.3913
1279.788818 84.755 3.1899
1289.062744 84.802 2.9846
1298.403809 84.848 2.7760
1307.812622 84.894 2.5641
1317.289551 84.938 2.3494
1326.835205 84.983 2.1321
1336.449951 85.027 1.9125
1346.134399 85.070 1.6907
1355.889038 85.113 1.4671
1365.714355 85.155 1.2419
1375.610840 85.197 1.0153
1385.579102 85.239 0.7874
1395.619629 85.280 0.5585
1405.732910 85.321 0.3288
1415.919434 85.361 0.0983
1426.179810 85.402 -0.1327
1436.514526 85.442 -0.3642
1446.924072 85.481 -0.5960
1457.409058 85.521 -0.8280
1467.970093 85.561 -1.0603
1478.607666 85.600 -1.2926
1489.322266 85.640 -1.5250
1500.114502 85.679 -1.7574
1510.984985 85.719 -1.9898
1521.934204 85.758 -2.2222
1532.962769 85.798 -2.4546
1544.071289 85.838 -2.6870
1555.260254 85.878 -2.9195
1566.530273 85.918 -3.1521
1577.881958 85.959 -3.3848
1589.315918 85.999 -3.6178
1600.832764 86.041 -3.8510
1612.433105 86.082 -4.0847
1624.117432 86.124 -4.3189
1635.886475 86.167 -4.5537
1647.740723 86.209 -4.7892
1659.680908 86.253 -5.0256
1671.707642 86.297 -5.2631
1683.821533 86.341 -5.5018
1696.023193 86.386 -5.7419
1708.313232 86.432 -5.9835
1720.692383 86.479 -6.2268
1733.161255 86.526 -6.4721
1745.720459 86.574 -6.7195
1758.370728 86.622 -6.9693
1771.112549 86.672 -7.2217
1783.946777 86.722 -7.4770
1796.874023 86.773 -7.7354
1809.894897 86.825 -7.9971
1823.010132 86.878 -8.2624
1836.220459 86.931 -8.5317
1849.526489 86.986 -8.8052
1862.928955 87.042 -9.0832
1876.428467 87.098 -9.3660
1890.025879 87.155 -9.6539
1903.721802 87.214 -9.9473
1917.516968 87.273 -10.2465
1931.412109 87.334 -10.5519
1945.407959 87.395 -10.8637
1959.505127 87.458 -11.1825
1973.704468 87.521 -11.5085
1988.006714 87.586 -11.8421
2002.412598 87.651 -12.1838
2016.922852 87.718 -12.5340
2031.538330 87.786 -12.8929
2046.259644 87.854 -13.2612
2061.087646 87.924 -13.6391
2076.023193 87.995 -14.0272
2091.066895 88.066 -14.4258
2106.219727 88.139 -14.8355
2121.482178 88.212 -15.2566
2136.855225 88.287 -15.6896
2152.339844 88.362 -16.1350
2167.936523 88.438 -16.5932
2183.646240 88.515 -17.0647
2199.469727 88.593 -17.5500
2215.407959 88.672 -18.0495
2231.461670 88.751 -18.5637
2247.631836 88.831 -19.0930
2263.919189 88.911 -19.6379
2280.324463 88.992 -20.1989
2296.848633 89.073 -20.7763
2313.492432 89.155 -21.3706
2330.256836 89.237 -21.9823
2347.142822 89.319 -22.6116
2364.151123 89.401 -23.2590
2381.282715 89.484 -23.9248
2398.538574 89.566 -24.6095
2415.919434 89.648 -25.3132
2433.426270 89.730 -26.0364
2451.059814 89.811 -26.7792
2468.821289 89.892 -27.5419
2486.711426 89.973 -28.3248
2504.731201 90.052 -29.1280
2522.881592 90.131 -29.9516
2541.163330 90.209 -30.7957
2559.577637 90.286 -31.6604
2578.125488 90.361 -32.5458
2596.807617 90.435 -33.4518
2615.625244 90.508 -34.3782
2634.579102 90.579 -35.3251
2653.670410 90.648 -36.2923
2672.899902 90.715 -37.2794
2692.268799 90.780 -38.2863
2711.778076 90.843 -39.3125
2731.428711 90.904 -40.3578
2751.221680 90.962 -41.4217
2771.158203 91.017 -42.5036
2791.239258 91.070 -43.6030
2811.465820 91.120 -44.7193
2831.838867 91.166 -45.8518
2852.359619 91.210 -46.9998
2873.029053 91.251 -48.1624
2893.848145 91.288 -49.3388
2914.818115 91.321 -50.5281
2935.940186 91.351 -51.7294
2957.215332 91.378 -52.9417
2978.644531 91.400 -54.1639
3000.229004 91.419 -55.3948
3021.969971 91.434 -56.6335
3043.868408 91.445 -57.8787
3065.925537 91.453 -59.1293
3088.142578 91.456 -60.3840
3110.520508 91.456 -61.6417
3133.060547 91.452 -62.9011
3155.763916 91.444 -64.1611
3178.631836 91.432 -65.4204
3201.665527 91.416 -66.6779
3224.866211 91.397 -67.9326
3248.234863 91.374 -69.1832
3271.772949 91.348 -70.4287
3295.481445 91.318 -71.6683
3319.361816 91.285 -72.9009
3343.415283 91.249 -74.1257
3367.643066 91.210 -75.3421
3392.046387 91.168 -76.5493
3416.626465 91.124 -77.7467
3441.384766 91.077 -78.9339
3466.322510 91.028 -80.1105
3491.440918 90.976 -81.2760
3516.741455 90.923 -82.4303
3542.225098 90.868 -83.5731
3567.893555 90.811 -84.7044
3593.748047 90.752 -85.8240
3619.789795 90.692 -86.9319
3646.020264 90.630 -88.0280
3672.440918 90.567 -89.1124
3699.052979 90.504 -90.1851
3725.857910 90.439 -91.2462
3752.856934 90.373 -92.2957
3780.051758 90.307 -93.3338
3807.443604 90.239 -94.3607
3835.033936 90.172 -95.3764
3862.824219 90.103 -96.3813
3890.815918 90.035 -97.3756
3919.010254 89.966 -98.3596
3947.408936 89.897 -99.3336
3976.013428 89.828 -100.2979
4004.825195 89.759 -101.2530
4033.845703 89.690 -102.1992
4063.076660 89.621 -103.1370
4092.519287 89.552 -104.0668
4122.175293 89.483 -104.9891
4152.046387 89.415 -105.9043
4182.133789 89.348 -106.8129
4212.439453 89.280 -107.7153
4242.964355 89.213 -108.6119
4273.710449 89.147 -109.5032
4304.679688 89.081 -110.3894
4335.873047 89.015 -111.2711
4367.292480 88.950 -112.1484
4398.939453 88.886 -113.0218
4430.815918 88.822 -113.8913
4462.923340 88.759 -114.7573
4495.263672 88.696 -115.6199
4527.838379 88.634 -116.4794
4560.648926 88.573 -117.3357
4593.697266 88.513 -118.1891
4626.984863 88.453 -119.0397
4660.513672 88.394 -119.8877
4694.285645 88.336 -120.7334
4728.302246 88.279 -121.5769
4762.565430 88.224 -122.4188
4797.077148 88.169 -123.2596
4831.838867 88.116 -124.0998
4866.852539 88.065 -124.9403
4902.119629 88.016 -125.7821
4937.642578 87.968 -126.6265
4973.422852 87.922 -127.4749
5009.462402 87.879 -128.3290
5045.763184 87.837 -129.1907
5082.326660 87.798 -130.0622
5119.155273 87.762 -130.9458
5156.250977 87.728 -131.8441
5193.615234 87.696 -132.7597
5231.250488 87.666 -133.6955
5269.158203 87.638 -134.6543
5307.340820 87.612 -135.6386
5345.799805 87.587 -136.6511
5384.537598 87.563 -137.6941
5423.556152 87.539 -138.7694
5462.857422 87.515 -139.8784
5502.443359 87.489 -141.0220
5542.316406 87.462 -142.2001
5582.478516 87.432 -143.4121
5622.931641 87.399 -144.6562
5663.677734 87.360 -145.9299
5704.719238 87.317 -147.2296
5746.058105 87.267 -148.5506
5787.696289 87.211 -149.8873
5829.636230 87.147 -151.2333
5871.880371 87.075 -152.5811
5914.430664 86.994 -153.9229
5957.289062 86.905 -155.2498
6000.458008 86.807 -156.5531
6043.939941 86.701 -157.8235
6087.736816 86.587 -159.0516
6131.851074 86.465 -160.2284
6176.285156 86.336 -161.3449
6221.041016 86.202 -162.3925
6266.121094 86.063 -163.3633
6311.527832 85.920 -164.2501
6357.263672 85.776 -165.0464
6403.331055 85.632 -165.7468
6449.732422 85.489 -166.3472
6496.469727 85.351 -166.8450
6543.545898 85.218 -167.2394
6590.962891 85.094 -167.5314
6638.723633 84.980 -167.7245
6686.830566 84.879 -167.8246
6735.286133 84.793 -167.8403
6784.092773 84.725 -167.7831
6833.252930 84.675 -167.6670
6882.769531 84.647 -167.5086
6932.645020 84.640 -167.3266
6982.881836 84.656 -167.1414
7033.482910 84.696 -166.9743
7084.450195 84.759 -166.8471
7135.787109 84.844 -166.7809
7187.496094 84.950 -166.7962
7239.579590 85.077 -166.9115
7292.040527 85.221 -167.1434
7344.881836 85.382 -167.5061
7398.105957 85.556 -168.0115
7451.715820 85.741 -168.6689
7505.713867 85.936 -169.4850
7560.103516 86.136 -170.4644
7614.887207 86.339 -171.6097
7670.067871 86.544 -172.9214
7725.648438 86.748 -174.3986
7781.631836 86.947 -176.0386
7838.020508 87.141 -177.8375
7894.817871 87.326 -179.7902
7952.026855 87.501 178.1096
8009.650391 87.663 175.8694
8067.691406 87.812 173.4976
8126.153320 87.944 171.0036
8185.038574 88.059 168.3981
8244.350586 88.155 165.6926
8304.092773 88.230 162.8997
8364.267578 88.284 160.0329
8424.878906 88.315 157.1064
8485.928711 88.324 154.1353
8547.420898 88.308 151.1348
8609.359375 88.269 148.1206
8671.746094 88.206 145.1080
8734.584961 88.120 142.1123
8797.878906 88.010 139.1481
8861.631836 87.879 136.2290
8925.846680 87.726 133.3679
8990.527344 87.554 130.5764
9055.676758 87.362 127.8653
9121.297852 87.154 125.2438
9187.394531 86.929 122.7202
9253.969727 86.691 120.3012
9321.027344 86.439 117.9924
9388.571289 86.177 115.7979
9456.604492 85.906 113.7206
9525.130859 85.627 111.7618
9594.154297 85.343 109.9213
9663.677734 85.055 108.1976
9733.705078 84.765 106.5873
9804.239258 84.475 105.0856
9875.285156 84.187 103.6859
9946.845703 83.903 102.3802
10018.924805 83.624 101.1592
10091.526367 83.352 100.0121
10164.653320 83.088 98.9271
10238.310547 82.834 97.8918
10312.501953 82.590 96.8934
10387.230469 82.358 95.9189
10462.500977 82.138 94.9559
10538.316406 81.930 93.9925
10614.681641 81.734 93.0179
10691.599609 81.551 92.0227
10769.075195 81.379 90.9988
10847.112305 81.219 89.9397
10925.714844 81.069 88.8408
11004.886719 80.928 87.6988
11084.632812 80.796 86.5120
11164.957031 80.671 85.2800
11245.863281 80.553 84.0036
11327.355469 80.441 82.6846
11409.438477 80.333 81.3254
11492.116211 80.230 79.9291
11575.392578 80.130 78.4991
11659.272461 80.032 77.0390
11743.760742 79.937 75.5528
11828.861328 79.844 74.0444
11914.578125 79.753 72.5180
12000.916016 79.663 70.9777
12087.879883 79.574 69.4279
12175.473633 79.487 67.8734
12263.702148 79.402 66.3190
12352.570312 79.319 64.7697
12442.082031 79.238 63.2310
12532.242188 79.160 61.7082
12623.055664 79.086 60.2069
12714.527344 79.018 58.7324
12806.662109 78.955 57.2896
12899.464844 78.899 55.8822
12992.939453 78.853 54.5133
13087.091797 78.818 53.1839
13181.925781 78.796 51.8933
13277.447266 78.788 50.6378
13373.661133 78.797 49.4114
13470.572266 78.824 48.2046
13568.185547 78.871 47.0049
13666.505859 78.939 45.7967
13765.539062 79.029 44.5613
13865.290039 79.140 43.2783
13965.763672 79.272 41.9253
14066.965820 79.424 40.4793
14168.900391 79.595 38.9179
14271.574219 79.782 37.2193
14374.992188 79.984 35.3641
14479.159180 80.198 33.3351
14584.081055 80.420 31.1183
14689.763672 80.647 28.7029
14796.211914 80.878 26.0811
14903.431641 81.108 23.2487
15011.427734 81.334 20.2040
15120.207031 81.555 16.9484
15229.774414 81.767 13.4854
15340.135742 81.967 9.8209
15451.296875 82.155 5.9625
15563.263672 82.327 1.9197
15676.041016 82.481 -2.2971
15789.635742 82.618 -6.6761
15904.053711 82.735 -11.2050
16019.300781 82.832 -15.8704
16135.382812 82.909 -20.6597
16252.306641 82.965 -25.5598
16370.077148 83.001 -30.5588
16488.701172 83.019 -35.6456
16608.185547 83.017 -40.8102
16728.535156 82.999 -46.0442
16849.757812 82.965 -51.3406
16971.857422 82.916 -56.6934
17094.841797 82.854 -62.0980
17218.718750 82.780 -67.5504
17343.492188 82.696 -73.0470
17469.169922 82.603 -78.5840
17595.757812 82.502 -84.1573
17723.263672 82.394 -89.7621
17851.693359 82.280 -95.3921
17981.054688 82.161 -101.0393
18111.353516 82.038 -106.6942
18242.595703 81.912 -112.3447
18374.789062 81.784 -117.9768
18507.939453 81.655 -123.5741
18642.054688 81.527 -129.1184
18777.142578 81.401 -134.5895
18913.208984 81.280 -139.9655
19050.261719 81.165 -145.2238
19188.308594 81.058 -150.3413
19327.355469 80.961 -155.2949
19467.410156 80.876 -160.0630
19608.478516 80.806 -164.6254
19750.570312 80.752 -168.9650
19893.691406 80.715 -173.0681
20037.849609 0.000 -176.9249
