* Measurement data measured by REW V5.31.3
* Source: Headset (2- CX31993 HIFI AUDIO), MICROPHONE (Master Volume), R, volume: 0.250
* Format: 256k Log Swept Sine, 1 sweep at -12.0 dBFS with no timing reference
* Dated: 11 24, 24 1:20:00 PM
* REW Settings:
*  C-weighting compensation: Off
*  Target level: 75.0 dB
* Note: ; 
* Measurement: Moondrop DUSK 1124 R
* Smoothing: 1/12 octave
* Frequency Step: 96 ppo
* Start Frequency: 0.36621094 Hz
*
* Freq(Hz) SPL(dB) Phase(degrees)
0.366211 45.659 -62.9390
0.368865 45.679 -63.1190
0.371538 45.709 -63.3872
0.374230 45.745 -63.7215
0.376942 45.785 -64.1029
0.379673 45.829 -64.5174
0.382424 45.875 -64.9558
0.385196 45.921 -65.4122
0.387987 45.969 -65.8833
0.390798 46.017 -66.3674
0.393630 46.065 -66.8633
0.396483 46.114 -67.3707
0.399356 46.163 -67.8891
0.402250 46.213 -68.4185
0.405165 46.263 -68.9588
0.408101 46.313 -69.5099
0.411058 46.364 -70.0718
0.414037 46.415 -70.6444
0.417037 46.467 -71.2277
0.420059 46.518 -71.8216
0.423103 46.571 -72.4259
0.426169 46.623 -73.0407
0.429257 46.676 -73.6658
0.432368 46.730 -74.3011
0.435501 46.783 -74.9464
0.438656 46.838 -75.6016
0.441835 46.892 -76.2665
0.445037 46.947 -76.9410
0.448262 47.002 -77.6249
0.451510 47.058 -78.3178
0.454782 47.114 -79.0198
0.458077 47.171 -79.7304
0.461397 47.228 -80.4495
0.464740 47.285 -81.1768
0.468108 47.343 -81.9120
0.471500 47.401 -82.6549
0.474917 47.460 -83.4052
0.478358 47.519 -84.1625
0.481825 47.578 -84.9266
0.485316 47.638 -85.6971
0.488833 47.699 -86.4737
0.492375 47.759 -87.2561
0.495943 47.821 -88.0440
0.499537 47.882 -88.8370
0.503157 47.944 -89.6347
0.506803 48.007 -90.4368
0.510475 48.070 -91.2429
0.514175 48.133 -92.0528
0.517900 48.197 -92.8660
0.521653 48.262 -93.6822
0.525434 48.327 -94.5011
0.529241 48.392 -95.3223
0.533076 48.458 -96.1454
0.536939 48.524 -96.9702
0.540830 48.591 -97.7963
0.544749 48.658 -98.6234
0.548696 48.726 -99.4512
0.552673 48.794 -100.2794
0.556677 48.863 -101.1077
0.560711 48.932 -101.9358
0.564774 49.002 -102.7635
0.568867 49.072 -103.5905
0.572989 49.143 -104.4165
0.577141 49.214 -105.2413
0.581324 49.286 -106.0648
0.585536 49.358 -106.8866
0.589779 49.431 -107.7067
0.594053 49.504 -108.5248
0.598358 49.578 -109.3407
0.602694 49.653 -110.1545
0.607061 49.728 -110.9658
0.611460 49.803 -111.7745
0.615891 49.879 -112.5807
0.620354 49.956 -113.3842
0.624849 50.033 -114.1848
0.629377 50.111 -114.9826
0.633938 50.189 -115.7775
0.638532 50.268 -116.5694
0.643159 50.347 -117.3583
0.647819 50.427 -118.1443
0.652514 50.508 -118.9272
0.657242 50.589 -119.7072
0.662005 50.671 -120.4842
0.666802 50.753 -121.2582
0.671634 50.836 -122.0294
0.676501 50.920 -122.7976
0.681403 51.004 -123.5631
0.686341 51.089 -124.3258
0.691314 51.174 -125.0857
0.696324 51.260 -125.8430
0.701370 51.347 -126.5977
0.706452 51.435 -127.3497
0.711571 51.524 -128.0990
0.716728 51.615 -128.8452
0.721921 51.707 -129.5880
0.727153 51.803 -130.3267
0.732422 51.901 -131.0604
0.737729 52.003 -131.7877
0.743075 52.108 -132.5075
0.748460 52.217 -133.2188
0.753883 52.329 -133.9207
0.759346 52.443 -134.6128
0.764849 52.559 -135.2948
0.770391 52.678 -135.9665
0.775974 52.798 -136.6279
0.781597 52.921 -137.2790
0.787261 53.046 -137.9200
0.792966 53.172 -138.5508
0.798712 53.301 -139.1718
0.804500 53.432 -139.7831
0.810329 53.564 -140.3849
0.816201 53.699 -140.9774
0.822116 53.835 -141.5609
0.828073 53.973 -142.1357
0.834074 54.113 -142.7019
0.840118 54.254 -143.2599
0.846206 54.397 -143.8101
0.852338 54.542 -144.3526
0.858514 54.688 -144.8877
0.864735 54.836 -145.4159
0.871001 54.986 -145.9373
0.877313 55.137 -146.4525
0.883670 55.289 -146.9615
0.890074 55.443 -147.4648
0.896524 55.598 -147.9628
0.903020 55.755 -148.4556
0.909564 55.912 -148.9437
0.916155 56.071 -149.4274
0.922794 56.230 -149.9070
0.929481 56.391 -150.3829
0.936216 56.552 -150.8553
0.943000 56.715 -151.3246
0.949834 56.878 -151.7911
0.956717 57.041 -152.2551
0.963649 57.205 -152.7169
0.970632 57.370 -153.1770
0.977666 57.535 -153.6355
0.984750 57.700 -154.0927
0.991886 57.865 -154.5491
0.999074 58.030 -155.0049
1.006314 58.195 -155.4603
1.013606 58.360 -155.9158
1.020951 58.525 -156.3715
1.028349 58.689 -156.8278
1.035801 58.852 -157.2850
1.043307 59.015 -157.7433
1.050867 59.176 -158.2030
1.058482 59.337 -158.6642
1.066152 59.496 -159.1272
1.073878 59.655 -159.5918
1.081660 59.812 -160.0581
1.089498 59.967 -160.5255
1.097393 60.122 -160.9936
1.105345 60.275 -161.4615
1.113355 60.428 -161.9284
1.121423 60.580 -162.3934
1.129549 60.731 -162.8561
1.137734 60.882 -163.3161
1.145979 61.033 -163.7732
1.154283 61.182 -164.2274
1.162647 61.332 -164.6785
1.171072 61.481 -165.1268
1.179558 61.630 -165.5722
1.188106 61.778 -166.0148
1.196715 61.926 -166.4548
1.205387 62.073 -166.8923
1.214122 62.220 -167.3274
1.222920 62.367 -167.7603
1.231782 62.514 -168.1911
1.240708 62.660 -168.6199
1.249699 62.806 -169.0469
1.258754 62.951 -169.4723
1.267876 63.097 -169.8962
1.277063 63.242 -170.3189
1.286318 63.387 -170.7404
1.295639 63.531 -171.1611
1.305027 63.676 -171.5809
1.314484 63.820 -172.0002
1.324009 63.964 -172.4192
1.333604 64.109 -172.8380
1.343268 64.253 -173.2568
1.353002 64.397 -173.6758
1.362806 64.541 -174.0953
1.372681 64.685 -174.5154
1.382628 64.829 -174.9363
1.392647 64.973 -175.3582
1.402739 65.117 -175.7814
1.412904 65.262 -176.2059
1.423142 65.407 -176.6319
1.433455 65.552 -177.0594
1.443843 65.697 -177.4882
1.454305 65.842 -177.9182
1.464844 65.987 -178.3490
1.475459 66.131 -178.7799
1.486150 66.276 -179.2105
1.496920 66.420 -179.6404
1.507767 66.564 179.9309
1.518693 66.707 179.5034
1.529698 66.849 179.0770
1.540783 66.991 178.6518
1.551948 67.133 178.2276
1.563194 67.273 177.8042
1.574521 67.414 177.3814
1.585931 67.554 176.9591
1.597423 67.693 176.5370
1.608999 67.832 176.1148
1.620658 67.970 175.6924
1.632402 68.108 175.2696
1.644232 68.245 174.8459
1.656146 68.382 174.4214
1.668147 68.519 173.9955
1.680235 68.656 173.5681
1.692411 68.792 173.1389
1.704675 68.928 172.7077
1.717028 69.063 172.2741
1.729470 69.199 171.8378
1.742003 69.334 171.3987
1.754626 69.469 170.9563
1.767341 69.604 170.5104
1.780147 69.739 170.0609
1.793047 69.874 169.6073
1.806040 70.009 169.1497
1.819128 70.144 168.6880
1.832310 70.278 168.2222
1.845587 70.413 167.7527
1.858961 70.546 167.2795
1.872432 70.679 166.8033
1.886001 70.812 166.3243
1.899667 70.944 165.8428
1.913433 71.075 165.3593
1.927299 71.205 164.8738
1.941265 71.335 164.3867
1.955332 71.464 163.8983
1.969501 71.593 163.4086
1.983773 71.721 162.9179
1.998148 71.848 162.4263
2.012627 71.975 161.9340
2.027212 72.101 161.4409
2.041902 72.227 160.9472
2.056698 72.353 160.4529
2.071602 72.478 159.9581
2.086614 72.602 159.4626
2.101734 72.726 158.9666
2.116964 72.850 158.4699
2.132304 72.974 157.9723
2.147756 73.097 157.4737
2.163320 73.220 156.9739
2.178996 73.343 156.4724
2.194786 73.465 155.9690
2.210690 73.587 155.4632
2.226710 73.708 154.9548
2.242845 73.829 154.4435
2.259098 73.948 153.9296
2.275468 74.067 153.4130
2.291957 74.185 152.8942
2.308566 74.303 152.3734
2.325295 74.419 151.8511
2.342145 74.535 151.3275
2.359117 74.650 150.8029
2.376212 74.765 150.2778
2.393431 74.879 149.7525
2.410775 74.992 149.2271
2.428244 75.105 148.7020
2.445840 75.217 148.1774
2.463564 75.329 147.6535
2.481416 75.440 147.1303
2.499397 75.551 146.6079
2.517509 75.661 146.0862
2.535752 75.772 145.5649
2.554127 75.881 145.0436
2.572635 75.990 144.5216
2.591277 76.099 143.9985
2.610055 76.206 143.4739
2.628968 76.313 142.9474
2.648019 76.419 142.4191
2.667208 76.524 141.8893
2.686535 76.629 141.3581
2.706003 76.732 140.8260
2.725612 76.835 140.2934
2.745363 76.937 139.7606
2.765257 77.039 139.2282
2.785295 77.140 138.6965
2.805478 77.240 138.1659
2.825808 77.341 137.6367
2.846285 77.440 137.1092
2.866910 77.539 136.5835
2.887685 77.638 136.0596
2.908611 77.737 135.5374
2.929688 77.835 135.0164
2.950917 77.932 134.4962
2.972301 78.029 133.9763
2.993839 78.126 133.4561
3.015534 78.221 132.9357
3.037386 78.316 132.4149
3.059396 78.410 131.8940
3.081565 78.503 131.3731
3.103896 78.596 130.8525
3.126388 78.689 130.3326
3.149043 78.781 129.8136
3.171862 78.873 129.2959
3.194847 78.964 128.7797
3.217998 79.055 128.2653
3.241317 79.146 127.7529
3.264805 79.237 127.2425
3.288463 79.327 126.7340
3.312293 79.417 126.2272
3.336295 79.507 125.7217
3.360471 79.596 125.2173
3.384822 79.685 124.7138
3.409350 79.774 124.2109
3.434056 79.862 123.7085
3.458940 79.950 123.2065
3.484005 80.037 122.7048
3.509252 80.125 122.2035
3.534681 80.212 121.7025
3.560295 80.299 121.2017
3.586094 80.385 120.7013
3.612081 80.472 120.2011
3.638255 80.559 119.7012
3.664620 80.646 119.2016
3.691175 80.732 118.7022
3.717923 80.819 118.2029
3.744864 80.905 117.7036
3.772001 80.991 117.2040
3.799335 81.077 116.7040
3.826866 81.163 116.2034
3.854597 81.248 115.7018
3.882529 81.334 115.1991
3.910664 81.419 114.6949
3.939002 81.504 114.1889
3.967546 81.590 113.6810
3.996296 81.675 113.1710
4.025255 81.759 112.6588
4.054423 81.844 112.1443
4.083804 81.929 111.6275
4.113396 82.013 111.1085
4.143204 82.098 110.5871
4.173227 82.182 110.0633
4.203468 82.266 109.5369
4.233928 82.349 109.0079
4.264609 82.432 108.4760
4.295512 82.515 107.9408
4.326639 82.597 107.4023
4.357992 82.679 106.8599
4.389572 82.760 106.3135
4.421380 82.841 105.7628
4.453419 82.922 105.2078
4.485691 83.002 104.6483
4.518196 83.081 104.0847
4.550936 83.160 103.5173
4.583914 83.238 102.9464
4.617131 83.315 102.3724
4.650589 83.391 101.7953
4.684289 83.467 101.2154
4.718233 83.541 100.6324
4.752424 83.615 100.0461
4.786862 83.688 99.4560
4.821549 83.759 98.8618
4.856488 83.830 98.2637
4.891680 83.899 97.6620
4.927127 83.967 97.0574
4.962831 84.034 96.4507
4.998794 84.100 95.8428
5.035017 84.165 95.2343
5.071503 84.228 94.6257
5.108253 84.290 94.0170
5.145270 84.351 93.4079
5.182555 84.410 92.7981
5.220110 84.467 92.1874
5.257937 84.523 91.5762
5.296038 84.578 90.9653
5.334415 84.632 90.3556
5.373071 84.684 89.7483
5.412006 84.734 89.1444
5.451224 84.784 88.5446
5.490725 84.832 87.9492
5.530514 84.879 87.3580
5.570590 84.924 86.7708
5.610957 84.968 86.1876
5.651616 85.010 85.6087
5.692570 85.052 85.0348
5.733821 85.092 84.4667
5.775370 85.132 83.9053
5.817221 85.171 83.3512
5.859375 85.209 82.8050
5.901834 85.246 82.2667
5.944602 85.282 81.7361
5.987679 85.318 81.2130
6.031068 85.353 80.6973
6.074771 85.388 80.1888
6.118792 85.422 79.6877
6.163131 85.456 79.1940
6.207792 85.491 78.7079
6.252776 85.525 78.2296
6.298086 85.560 77.7588
6.343725 85.595 77.2951
6.389694 85.630 76.8378
6.435996 85.666 76.3860
6.482634 85.702 75.9390
6.529610 85.738 75.4958
6.576926 85.775 75.0561
6.624585 85.813 74.6194
6.672590 85.852 74.1854
6.720942 85.892 73.7536
6.769645 85.932 73.3230
6.818700 85.972 72.8926
6.868111 86.014 72.4611
6.917881 86.056 72.0276
6.968010 86.098 71.5913
7.018504 86.141 71.1519
7.069362 86.185 70.7090
7.120590 86.229 70.2624
7.172189 86.273 69.8115
7.224161 86.317 69.3558
7.276511 86.361 68.8948
7.329239 86.405 68.4280
7.382350 86.448 67.9554
7.435845 86.491 67.4770
7.489729 86.534 66.9931
7.544002 86.576 66.5043
7.598669 86.617 66.0110
7.653732 86.657 65.5137
7.709194 86.697 65.0126
7.765058 86.735 64.5081
7.821327 86.771 64.0007
7.878004 86.807 63.4913
7.935091 86.841 62.9812
7.992592 86.875 62.4714
8.050510 86.906 61.9628
8.108847 86.937 61.4560
8.167607 86.966 60.9516
8.226793 86.994 60.4503
8.286408 87.021 59.9529
8.346454 87.047 59.4604
8.406936 87.073 58.9736
8.467856 87.097 58.4930
8.529218 87.121 58.0188
8.591024 87.144 57.5511
8.653278 87.167 57.0897
8.715983 87.190 56.6348
8.779143 87.213 56.1862
8.842760 87.237 55.7437
8.906839 87.260 55.3068
8.971381 87.284 54.8748
9.036392 87.309 54.4467
9.101873 87.334 54.0215
9.167829 87.359 53.5983
9.234263 87.386 53.1761
9.301178 87.413 52.7543
9.368578 87.441 52.3315
9.436467 87.469 51.9067
9.504847 87.498 51.4787
9.573723 87.527 51.0468
9.643099 87.556 50.6104
9.712976 87.586 50.1690
9.783361 87.615 49.7224
9.854255 87.644 49.2702
9.925663 87.673 48.8123
9.997588 87.701 48.3490
10.070035 87.728 47.8807
10.143007 87.754 47.4082
10.216507 87.779 46.9324
10.290540 87.803 46.4541
10.365109 87.825 45.9742
10.440219 87.846 45.4939
10.515873 87.866 45.0146
10.592076 87.884 44.5375
10.668830 87.901 44.0638
10.746141 87.916 43.5947
10.824012 87.930 43.1310
10.902447 87.943 42.6738
10.981451 87.956 42.2238
11.061027 87.967 41.7816
11.141180 87.978 41.3476
11.221913 87.989 40.9217
11.303232 87.999 40.5038
11.385140 88.010 40.0937
11.467641 88.020 39.6908
11.550741 88.031 39.2945
11.634442 88.042 38.9037
11.718750 88.054 38.5177
11.803669 88.066 38.1353
11.889203 88.079 37.7558
11.975357 88.092 37.3781
12.062136 88.105 37.0013
12.149543 88.119 36.6248
12.237583 88.133 36.2479
12.326262 88.147 35.8704
12.415583 88.161 35.4920
12.505552 88.174 35.1127
12.596172 88.187 34.7326
12.687449 88.200 34.3521
12.779387 88.212 33.9714
12.871992 88.224 33.5911
12.965268 88.235 33.2116
13.059220 88.246 32.8334
13.153852 88.256 32.4567
13.249170 88.266 32.0820
13.345179 88.275 31.7094
13.441884 88.283 31.3387
13.539289 88.292 30.9701
13.637401 88.300 30.6032
13.736223 88.307 30.2377
13.835761 88.314 29.8734
13.936021 88.321 29.5098
14.037007 88.327 29.1467
14.138725 88.333 28.7840
14.241180 88.338 28.4218
14.344377 88.342 28.0602
14.448323 88.345 27.6997
14.553021 88.348 27.3412
14.658478 88.349 26.9856
14.764700 88.349 26.6340
14.871691 88.348 26.2876
14.979457 88.345 25.9479
15.088005 88.342 25.6160
15.197339 88.339 25.2931
15.307465 88.334 24.9798
15.418389 88.330 24.6768
15.530117 88.326 24.3837
15.642655 88.322 24.1001
15.756008 88.320 23.8248
15.870182 88.319 23.5559
15.985184 88.319 23.2914
16.101019 88.321 23.0284
16.217694 88.324 22.7640
16.335214 88.329 22.4954
16.453586 88.336 22.2194
16.572815 88.343 21.9335
16.692909 88.352 21.6354
16.813872 88.361 21.3239
16.935713 88.369 20.9980
17.058436 88.377 20.6579
17.182048 88.383 20.3045
17.306556 88.388 19.9396
17.431967 88.390 19.5657
17.558286 88.390 19.1858
17.685521 88.387 18.8036
17.813677 88.381 18.4226
17.942762 88.373 18.0466
18.072783 88.363 17.6792
18.203746 88.351 17.3232
18.335658 88.337 16.9811
18.468526 88.322 16.6542
18.602356 88.308 16.3429
18.737156 88.294 16.0469
18.872934 88.280 15.7645
19.009695 88.269 15.4933
19.147447 88.259 15.2300
19.286197 88.251 14.9709
19.425953 88.246 14.7122
19.566721 88.243 14.4497
19.708510 88.241 14.1802
19.851326 88.241 13.9008
19.995177 88.241 13.6097
20.140070 88.242 13.3063
20.286013 88.242 12.9908
20.433014 88.241 12.6652
20.581080 88.238 12.3318
20.730219 88.233 11.9942
20.880439 88.226 11.6563
21.031747 88.218 11.3223
21.184152 88.207 10.9960
21.337661 88.195 10.6807
21.492282 88.182 10.3790
21.648024 88.168 10.0920
21.804895 88.155 9.8199
21.962902 88.143 9.5615
22.122054 88.133 9.3142
22.282360 88.125 9.0747
22.443827 88.118 8.8392
22.606464 88.114 8.6038
22.770280 88.112 8.3644
22.935283 88.111 8.1179
23.101481 88.111 7.8621
23.268884 88.112 7.5956
23.437500 88.112 7.3184
23.607338 88.112 7.0314
23.778406 88.111 6.7363
23.950714 88.109 6.4358
24.124271 88.105 6.1323
24.299086 88.099 5.8286
24.475167 88.092 5.5272
24.652524 88.084 5.2298
24.831166 88.076 4.9375
25.011103 88.067 4.6504
25.192344 88.057 4.3682
25.374898 88.048 4.0893
25.558775 88.038 3.8123
25.743984 88.029 3.5353
25.930536 88.020 3.2567
26.118439 88.010 2.9757
26.307704 87.999 2.6923
26.498341 87.988 2.4073
26.690359 87.975 2.1230
26.883768 87.960 1.8418
27.078579 87.944 1.5668
27.274801 87.927 1.3009
27.472446 87.909 1.0458
27.671522 87.892 0.8023
27.872042 87.874 0.5693
28.074014 87.858 0.3442
28.277450 87.843 0.1232
28.482360 87.830 -0.0980
28.688755 87.817 -0.3234
28.896645 87.805 -0.5558
29.106042 87.793 -0.7964
29.316957 87.780 -1.0439
29.529400 87.765 -1.2954
29.743382 87.748 -1.5466
29.958915 87.730 -1.7927
30.176009 87.711 -2.0295
30.394677 87.691 -2.2545
30.614929 87.671 -2.4671
30.836778 87.652 -2.6692
31.060234 87.635 -2.8647
31.285309 87.619 -3.0590
31.512015 87.606 -3.2573
31.740364 87.594 -3.4651
31.970368 87.582 -3.6857
32.202039 87.570 -3.9207
32.435388 87.557 -4.1691
32.670428 87.543 -4.4277
32.907171 87.525 -4.6913
33.145630 87.505 -4.9533
33.385817 87.481 -5.2063
33.627745 87.456 -5.4434
33.871425 87.428 -5.6590
34.116871 87.401 -5.8504
34.364096 87.375 -6.0181
34.613113 87.352 -6.1663
34.863934 87.331 -6.3020
35.116572 87.315 -6.4346
35.371041 87.302 -6.5731
35.627354 87.291 -6.7247
35.885525 87.282 -6.8932
36.145566 87.272 -7.0784
36.407492 87.261 -7.2761
36.671316 87.248 -7.4801
36.937051 87.233 -7.6835
37.204712 87.216 -7.8809
37.474313 87.198 -8.0692
37.745867 87.179 -8.2490
38.019389 87.161 -8.4230
38.294893 87.143 -8.5950
38.572394 87.125 -8.7686
38.851905 87.107 -8.9457
39.133442 87.088 -9.1263
39.417019 87.068 -9.3090
39.702651 87.047 -9.4916
39.990353 87.024 -9.6729
40.280140 87.001 -9.8524
40.572026 86.978 -10.0313
40.866028 86.953 -10.2111
41.162160 86.929 -10.3925
41.460438 86.903 -10.5753
41.760877 86.877 -10.7577
42.063494 86.850 -10.9371
42.368303 86.823 -11.1116
42.675322 86.796 -11.2810
42.984565 86.771 -11.4475
43.296048 86.747 -11.6150
43.609789 86.724 -11.7874
43.925804 86.702 -11.9669
44.244108 86.679 -12.1525
44.564719 86.656 -12.3394
44.887654 86.633 -12.5215
45.212928 86.609 -12.6933
45.540560 86.586 -12.8529
45.870565 86.565 -13.0032
46.202962 86.546 -13.1514
46.537768 86.530 -13.3060
46.875000 86.514 -13.4734
47.214676 86.497 -13.6542
47.556813 86.477 -13.8425
47.901429 86.454 -14.0278
48.248542 86.427 -14.1985
48.598171 86.398 -14.3463
48.950334 86.369 -14.4696
49.305048 86.341 -14.5731
49.662333 86.314 -14.6654
50.022206 86.288 -14.7554
50.384688 86.264 -14.8491
50.749796 86.239 -14.9484
51.117550 86.214 -15.0530
51.487969 86.189 -15.1615
51.861072 86.163 -15.2737
52.236879 86.136 -15.3893
52.615409 86.108 -15.5077
52.996681 86.080 -15.6275
53.380717 86.052 -15.7468
53.767536 86.023 -15.8648
54.157158 85.994 -15.9821
54.549603 85.965 -16.0995
54.944892 85.936 -16.2171
55.343045 85.906 -16.3322
55.744084 85.876 -16.4406
56.148028 85.847 -16.5389
56.554900 85.818 -16.6271
56.964720 85.790 -16.7081
57.377510 85.765 -16.7874
57.793291 85.741 -16.8700
58.212085 85.718 -16.9591
58.633914 85.695 -17.0555
59.058799 85.672 -17.1587
59.486764 85.649 -17.2668
59.917829 85.625 -17.3781
60.352019 85.600 -17.4901
60.789354 85.574 -17.6014
61.229859 85.548 -17.7111
61.673556 85.521 -17.8190
62.120468 85.495 -17.9257
62.570618 85.468 -18.0315
63.024031 85.441 -18.1366
63.480729 85.414 -18.2405
63.940736 85.387 -18.3424
64.404077 85.359 -18.4419
64.870776 85.331 -18.5383
65.340856 85.302 -18.6312
65.814343 85.273 -18.7200
66.291261 85.244 -18.8044
66.771635 85.215 -18.8846
67.255489 85.185 -18.9618
67.742850 85.156 -19.0369
68.233743 85.126 -19.1103
68.728193 85.095 -19.1815
69.226226 85.065 -19.2501
69.727867 85.034 -19.3162
70.233144 85.003 -19.3807
70.742083 84.973 -19.4448
71.254709 84.943 -19.5093
71.771050 84.912 -19.5742
72.291132 84.882 -19.6400
72.814984 84.852 -19.7070
73.342631 84.822 -19.7750
73.874102 84.791 -19.8425
74.409424 84.760 -19.9082
74.948626 84.729 -19.9703
75.491734 84.698 -20.0282
76.038779 84.667 -20.0815
76.589787 84.636 -20.1304
77.144788 84.605 -20.1746
77.703811 84.575 -20.2141
78.266885 84.544 -20.2493
78.834039 84.514 -20.2804
79.405303 84.484 -20.3079
79.980706 84.455 -20.3318
80.560280 84.425 -20.3538
81.144053 84.396 -20.3773
81.732056 84.367 -20.4056
82.324320 84.336 -20.4392
82.920876 84.305 -20.4750
83.521755 84.272 -20.5087
84.126988 84.239 -20.5381
84.736607 84.205 -20.5633
85.350643 84.172 -20.5858
85.969129 84.139 -20.6067
86.592097 84.106 -20.6259
87.219579 84.073 -20.6421
87.851608 84.041 -20.6541
88.488217 84.010 -20.6608
89.129439 83.979 -20.6619
89.775308 83.948 -20.6573
90.425856 83.918 -20.6487
91.081119 83.888 -20.6390
91.741131 83.859 -20.6313
92.405925 83.828 -20.6262
93.075536 83.797 -20.6221
93.750000 83.766 -20.6169
94.429351 83.733 -20.6096
95.113625 83.701 -20.5995
95.802858 83.669 -20.5876
96.497085 83.637 -20.5758
97.196342 83.607 -20.5659
97.900667 83.577 -20.5578
98.610096 83.547 -20.5507
99.324665 83.517 -20.5439
100.044413 83.487 -20.5369
100.769376 83.456 -20.5283
101.499592 83.425 -20.5157
102.235100 83.393 -20.4971
102.975938 83.361 -20.4711
103.722144 83.330 -20.4388
104.473757 83.299 -20.4030
105.230817 83.269 -20.3660
105.993363 83.240 -20.3292
106.761435 83.211 -20.2922
107.535072 83.183 -20.2543
108.314315 83.154 -20.2134
109.099206 83.124 -20.1682
109.889783 83.094 -20.1187
110.686090 83.063 -20.0667
111.488167 83.032 -20.0143
112.296056 83.001 -19.9635
113.109800 82.970 -19.9158
113.929440 82.941 -19.8720
114.755020 82.913 -19.8325
115.586582 82.887 -19.7984
116.424170 82.865 -19.7711
117.267827 82.844 -19.7515
118.117598 82.823 -19.7378
118.973527 82.800 -19.7220
119.835658 82.773 -19.6881
120.704037 82.743 -19.6188
121.578708 82.711 -19.5103
122.459718 82.678 -19.3759
123.347111 82.646 -19.2346
124.240935 82.614 -19.1002
125.141236 82.581 -18.9786
126.048061 82.549 -18.8705
126.961458 82.517 -18.7740
127.881473 82.486 -18.6876
128.808154 82.457 -18.6094
129.741551 82.429 -18.5358
130.681712 82.402 -18.4606
131.628686 82.374 -18.3779
132.582521 82.347 -18.2853
133.543269 82.320 -18.1842
134.510979 82.292 -18.0779
135.485701 82.265 -17.9694
136.467486 82.237 -17.8613
137.456386 82.210 -17.7555
138.452451 82.183 -17.6527
139.455735 82.156 -17.5511
140.466288 82.130 -17.4490
141.484165 82.104 -17.3464
142.509418 82.078 -17.2438
143.542100 82.052 -17.1396
144.582265 82.026 -17.0316
145.629968 81.999 -16.9180
146.685262 81.973 -16.7985
147.748204 81.948 -16.6748
148.818849 81.923 -16.5493
149.897251 81.899 -16.4241
150.983469 81.875 -16.3004
152.077557 81.852 -16.1782
153.179574 81.828 -16.0566
154.289576 81.805 -15.9348
155.407622 81.782 -15.8116
156.533770 81.759 -15.6869
157.668078 81.736 -15.5602
158.810606 81.713 -15.4313
159.961413 81.691 -15.2996
161.120559 81.668 -15.1652
162.288105 81.647 -15.0283
163.464112 81.626 -14.8899
164.648640 81.606 -14.7500
165.841752 81.587 -14.6088
167.043510 81.568 -14.4657
168.253976 81.550 -14.3198
169.473213 81.532 -14.1696
170.701286 81.514 -14.0134
171.938258 81.494 -13.8514
173.184194 81.474 -13.6855
174.439158 81.454 -13.5194
175.703216 81.432 -13.3567
176.976434 81.411 -13.1994
178.258878 81.389 -13.0472
179.550615 81.367 -12.8969
180.851713 81.347 -12.7449
182.162239 81.327 -12.5902
183.482262 81.308 -12.4352
184.811850 81.291 -12.2825
186.151073 81.273 -12.1331
187.500000 81.256 -11.9850
188.858702 81.238 -11.8337
190.227250 81.219 -11.6732
191.605715 81.199 -11.5002
192.994169 81.179 -11.3167
194.392685 81.159 -11.1271
195.801334 81.139 -10.9347
197.220191 81.120 -10.7394
198.649330 81.103 -10.5385
200.088825 81.089 -10.3312
201.538751 81.078 -10.1182
202.999184 81.069 -9.8987
204.470200 81.061 -9.6700
205.951875 81.055 -9.4281
207.444287 81.050 -9.1700
208.947514 81.047 -8.8970
210.461634 81.048 -8.6177
211.986726 81.051 -8.3450
213.522869 81.057 -8.0898
215.070144 81.063 -7.8574
216.628631 81.068 -7.6479
218.198411 81.074 -7.4618
219.779567 81.080 -7.3018
221.372180 81.088 -7.1718
222.976334 81.096 -7.0707
224.592112 81.105 -6.9905
226.219600 81.112 -6.9199
227.858880 81.116 -6.8479
229.510039 81.117 -6.7664
231.173164 81.113 -6.6687
232.848340 81.108 -6.5508
234.535655 81.101 -6.4133
236.235197 81.094 -6.2609
237.947054 81.089 -6.1002
239.671317 81.084 -5.9349
241.408074 81.081 -5.7669
243.157416 81.078 -5.6030
244.919435 81.076 -5.4544
246.694223 81.076 -5.3309
248.481871 81.076 -5.2377
250.282473 81.075 -5.1700
252.096123 81.074 -5.1114
253.922915 81.071 -5.0416
255.762945 81.066 -4.9500
257.616309 81.061 -4.8403
259.483103 81.056 -4.7230
261.363424 81.051 -4.6031
263.257372 81.045 -4.4811
265.165043 81.040 -4.3582
267.086538 81.035 -4.2373
269.021957 81.030 -4.1201
270.971401 81.026 -4.0045
272.934972 81.021 -3.8855
274.912771 81.017 -3.7578
276.904902 81.012 -3.6194
278.911469 81.008 -3.4725
280.932577 81.005 -3.3228
282.968330 81.002 -3.1750
285.018835 80.999 -3.0327
287.084199 80.997 -2.8976
289.164530 80.996 -2.7696
291.259935 80.995 -2.6466
293.370525 80.993 -2.5266
295.496408 80.992 -2.4083
297.637697 80.990 -2.2910
299.794503 80.988 -2.1736
301.966937 80.987 -2.0552
304.155114 80.985 -1.9358
306.359147 80.983 -1.8173
308.579152 80.982 -1.7017
310.815244 80.981 -1.5889
313.067539 80.979 -1.4766
315.336156 80.977 -1.3620
317.621211 80.975 -1.2435
319.922826 80.973 -1.1210
322.241118 80.971 -0.9958
324.576210 80.969 -0.8691
326.928223 80.966 -0.7423
329.297280 80.964 -0.6163
331.683504 80.961 -0.4917
334.087019 80.959 -0.3685
336.507952 80.956 -0.2459
338.946427 80.954 -0.1230
341.402572 80.952 0.0008
343.876516 80.950 0.1251
346.368387 80.948 0.2498
348.878315 80.946 0.3755
351.406431 80.945 0.5035
353.952867 80.944 0.6345
356.517756 80.944 0.7678
359.101230 80.944 0.9014
361.703426 80.944 1.0333
364.324478 80.943 1.1622
366.964523 80.943 1.2877
369.623699 80.942 1.4103
372.302145 80.942 1.5311
375.000000 80.941 1.6514
377.717405 80.941 1.7722
380.454501 80.941 1.8939
383.211431 80.941 2.0162
385.988339 80.942 2.1389
388.785369 80.942 2.2615
391.602668 80.942 2.3842
394.440383 80.941 2.5076
397.298660 80.941 2.6320
400.177650 80.941 2.7577
403.077502 80.940 2.8845
405.998368 80.940 3.0122
408.940400 80.939 3.1406
411.903750 80.938 3.2695
414.888575 80.938 3.3990
417.895028 80.937 3.5293
420.923268 80.937 3.6606
423.973452 80.936 3.7936
427.045738 80.935 3.9283
430.140287 80.935 4.0655
433.257261 80.934 4.2054
436.396822 80.933 4.3488
439.559133 80.933 4.4960
442.744360 80.933 4.6469
445.952668 80.934 4.8005
449.184225 80.936 4.9557
452.439199 80.939 5.1113
455.717760 80.943 5.2659
459.020079 80.947 5.4179
462.346327 80.953 5.5663
465.696680 80.959 5.7096
469.071310 80.966 5.8464
472.470394 80.973 5.9758
475.894109 80.979 6.0980
479.342634 80.985 6.2140
482.816148 80.989 6.3254
486.314833 80.993 6.4343
489.838871 80.997 6.5427
493.388445 80.999 6.6523
496.963741 81.001 6.7642
500.564945 81.003 6.8791
504.192245 81.004 6.9969
507.845830 81.005 7.1169
511.525890 81.006 7.2386
515.232618 81.006 7.3612
518.966206 81.007 7.4846
522.726849 81.007 7.6089
526.514743 81.008 7.7346
530.330086 81.008 7.8625
534.173076 81.008 7.9935
538.043915 81.008 8.1276
541.942803 81.007 8.2640
545.869944 81.006 8.4025
549.825542 81.006 8.5428
553.809805 81.006 8.6848
557.822939 81.006 8.8289
561.865154 81.006 8.9757
565.936660 81.006 9.1253
570.037671 81.006 9.2773
574.168399 81.006 9.4313
578.329060 81.005 9.5872
582.519870 81.005 9.7449
586.741049 81.005 9.9049
590.992817 81.006 10.0677
595.275394 81.006 10.2332
599.589005 81.007 10.4011
603.933874 81.008 10.5712
608.310228 81.009 10.7436
612.718295 81.010 10.9185
617.158304 81.011 11.0959
621.630488 81.013 11.2756
626.135079 81.015 11.4573
630.672311 81.016 11.6405
635.242423 81.018 11.8254
639.845651 81.021 12.0121
644.482237 81.023 12.2009
649.152421 81.025 12.3920
653.856447 81.028 12.5857
658.594560 81.031 12.7820
663.367008 81.034 12.9810
668.174039 81.037 13.1827
673.015903 81.041 13.3874
677.892854 81.045 13.5953
682.805145 81.049 13.8064
687.753032 81.054 14.0205
692.736774 81.059 14.2378
697.756631 81.065 14.4584
702.812863 81.071 14.6821
707.905735 81.077 14.9088
713.035511 81.084 15.1384
718.202461 81.092 15.3705
723.406852 81.099 15.6052
728.648956 81.108 15.8427
733.929047 81.117 16.0830
739.247399 81.126 16.3263
744.604290 81.136 16.5724
750.000000 81.146 16.8214
755.434809 81.157 17.0727
760.909001 81.169 17.3264
766.422861 81.181 17.5825
771.976677 81.194 17.8411
777.570739 81.208 18.1022
783.205337 81.222 18.3661
788.880766 81.238 18.6329
794.597321 81.254 18.9022
800.355301 81.271 19.1738
806.155005 81.289 19.4473
811.996736 81.308 19.7222
817.880799 81.328 19.9985
823.807501 81.350 20.2760
829.777150 81.372 20.5546
835.790057 81.395 20.8342
841.846536 81.419 21.1151
847.946903 81.444 21.3975
854.091476 81.470 21.6814
860.280575 81.498 21.9662
866.514523 81.526 22.2512
872.793644 81.557 22.5355
879.118267 81.588 22.8182
885.488720 81.621 23.0989
891.905336 81.655 23.3772
898.368450 81.691 23.6528
904.878398 81.728 23.9254
911.435520 81.767 24.1949
918.040157 81.806 24.4608
924.692655 81.848 24.7227
931.393359 81.890 24.9799
938.142619 81.935 25.2321
944.940787 81.980 25.4789
951.788218 82.027 25.7198
958.685268 82.075 25.9540
965.632296 82.125 26.1809
972.629666 82.175 26.4002
979.677741 82.227 26.6113
986.776890 82.279 26.8140
993.927482 82.333 27.0076
1001.129891 82.387 27.1921
1008.384491 82.442 27.3671
1015.691660 82.498 27.5323
1023.051781 82.555 27.6874
1030.465236 82.613 27.8315
1037.932411 82.671 27.9643
1045.453698 82.730 28.0852
1053.029486 82.789 28.1944
1060.660172 82.849 28.2917
1068.346153 82.909 28.3771
1076.087829 82.969 28.4509
1083.885605 83.030 28.5133
1091.739887 83.090 28.5644
1099.651084 83.149 28.6041
1107.619609 83.209 28.6322
1115.645878 83.268 28.6489
1123.730308 83.326 28.6542
1131.873321 83.385 28.6483
1140.075341 83.442 28.6315
1148.336797 83.499 28.6040
1156.658119 83.556 28.5665
1165.039741 83.611 28.5194
1173.482099 83.666 28.4634
1181.985634 83.719 28.3992
1190.550789 83.772 28.3272
1199.178011 83.824 28.2482
1207.867749 83.874 28.1625
1216.620457 83.923 28.0706
1225.436590 83.972 27.9729
1234.316609 84.019 27.8699
1243.260976 84.064 27.7623
1252.270157 84.109 27.6506
1261.344623 84.152 27.5355
1270.484846 84.195 27.4174
1279.691303 84.236 27.2968
1288.964474 84.276 27.1741
1298.304842 84.315 27.0498
1307.712894 84.353 26.9240
1317.189120 84.389 26.7971
1326.734016 84.425 26.6696
1336.348077 84.460 26.5416
1346.031806 84.494 26.4138
1355.785708 84.528 26.2866
1365.610290 84.560 26.1604
1375.506065 84.592 26.0355
1385.473549 84.623 25.9119
1395.513261 84.653 25.7896
1405.625726 84.683 25.6686
1415.811469 84.712 25.5491
1426.071023 84.741 25.4314
1436.404921 84.769 25.3159
1446.813703 84.796 25.2025
1457.297912 84.823 25.0913
1467.858093 84.850 24.9821
1478.494798 84.876 24.8745
1489.208581 84.902 24.7685
1500.000000 84.928 24.6642
1510.869618 84.954 24.5617
1521.818002 84.980 24.4613
1532.845723 85.005 24.3632
1543.953355 85.031 24.2673
1555.141477 85.057 24.1735
1566.410674 85.082 24.0815
1577.761531 85.108 23.9911
1589.194642 85.134 23.9018
1600.710601 85.159 23.8134
1612.310010 85.185 23.7257
1623.993473 85.212 23.6388
1635.761599 85.238 23.5527
1647.615002 85.264 23.4673
1659.554299 85.291 23.3824
1671.580114 85.318 23.2980
1683.693072 85.346 23.2135
1695.893807 85.374 23.1290
1708.182952 85.402 23.0441
1720.561150 85.430 22.9589
1733.029045 85.458 22.8729
1745.587288 85.487 22.7858
1758.236533 85.517 22.6974
1770.977440 85.546 22.6077
1783.810673 85.576 22.5167
1796.736900 85.607 22.4241
1809.756796 85.638 22.3298
1822.871040 85.669 22.2337
1836.080315 85.701 22.1356
1849.385310 85.733 22.0352
1862.786718 85.766 21.9320
1876.285239 85.800 21.8257
1889.881575 85.833 21.7159
1903.576436 85.868 21.6024
1917.370535 85.903 21.4849
1931.264593 85.938 21.3634
1945.259332 85.973 21.2377
1959.355483 86.010 21.1076
1973.553781 86.046 20.9730
1987.854965 86.083 20.8336
2002.259781 86.121 20.6891
2016.768981 86.158 20.5393
2031.383320 86.197 20.3837
2046.103561 86.235 20.2222
2060.930471 86.274 20.0542
2075.864823 86.313 19.8798
2090.907395 86.352 19.6985
2106.058972 86.392 19.5104
2121.320344 86.432 19.3154
2136.692305 86.472 19.1133
2152.175658 86.512 18.9037
2167.771210 86.552 18.6865
2183.479774 86.593 18.4612
2199.302169 86.633 18.2275
2215.239219 86.674 17.9851
2231.291755 86.714 17.7341
2247.460615 86.754 17.4742
2263.746641 86.795 17.2056
2280.150683 86.834 16.9279
2296.673595 86.874 16.6412
2313.316238 86.913 16.3453
2330.079481 86.952 16.0401
2346.964198 86.991 15.7253
2363.971268 87.029 15.4008
2381.101578 87.066 15.0665
2398.356022 87.103 14.7223
2415.735498 87.139 14.3682
2433.240913 87.175 14.0043
2450.873180 87.209 13.6306
2468.633217 87.243 13.2471
2486.521951 87.275 12.8539
2504.540314 87.306 12.4512
2522.689246 87.337 12.0393
2540.969692 87.366 11.6185
2559.382606 87.393 11.1888
2577.928947 87.420 10.7508
2596.609683 87.445 10.3046
2615.425787 87.468 9.8504
2634.378241 87.490 9.3888
2653.468031 87.510 8.9202
2672.696154 87.528 8.4449
2692.063613 87.544 7.9636
2711.571415 87.559 7.4767
2731.220579 87.572 6.9846
2751.012130 87.583 6.4877
2770.947098 87.591 5.9864
2791.026522 87.598 5.4814
2811.251451 87.602 4.9736
2831.622938 87.604 4.4637
2852.142045 87.604 3.9526
2872.809842 87.602 3.4413
2893.627406 87.597 2.9305
2914.595823 87.590 2.4211
2935.716186 87.581 1.9139
2956.989596 87.569 1.4095
2978.417161 87.556 0.9089
3000.000000 87.539 0.4130
3021.739237 87.521 -0.0776
3043.636005 87.501 -0.5620
3065.691446 87.479 -1.0392
3087.906710 87.455 -1.5085
3110.282955 87.428 -1.9694
3132.821347 87.401 -2.4211
3155.523062 87.371 -2.8632
3178.389283 87.340 -3.2948
3201.421202 87.307 -3.7158
3224.620020 87.273 -4.1255
3247.986946 87.238 -4.5236
3271.523198 87.201 -4.9095
3295.230004 87.163 -5.2827
3319.108599 87.124 -5.6427
3343.160228 87.084 -5.9891
3367.386145 87.044 -6.3216
3391.787613 87.002 -6.6398
3416.365904 86.960 -6.9432
3441.122300 86.918 -7.2320
3466.058091 86.875 -7.5059
3491.174576 86.832 -7.7646
3516.473066 86.788 -8.0081
3541.954880 86.745 -8.2364
3567.621345 86.701 -8.4493
3593.473800 86.658 -8.6468
3619.513592 86.616 -8.8287
3645.742080 86.573 -8.9951
3672.160630 86.532 -9.1459
3698.770620 86.490 -9.2810
3725.573436 86.450 -9.4007
3752.570477 86.411 -9.5049
3779.763150 86.372 -9.5938
3807.152872 86.335 -9.6675
3834.741071 86.299 -9.7263
3862.529185 86.265 -9.7704
3890.518664 86.232 -9.8002
3918.710966 86.202 -9.8168
3947.107561 86.173 -9.8214
3975.709929 86.147 -9.8159
4004.519563 86.124 -9.8024
4033.537962 86.103 -9.7833
4062.766641 86.084 -9.7609
4092.207123 86.068 -9.7371
4121.860942 86.054 -9.7140
4151.729646 86.043 -9.6929
4181.814790 86.032 -9.6750
4212.117944 86.024 -9.6608
4242.640687 86.016 -9.6501
4273.384610 86.010 -9.6429
4304.351317 86.005 -9.6392
4335.542421 86.001 -9.6388
4366.959549 85.998 -9.6421
4398.604338 85.997 -9.6495
4430.478438 85.996 -9.6615
4462.583511 85.997 -9.6786
4494.921231 85.999 -9.7020
4527.493283 86.002 -9.7328
4560.301365 86.006 -9.7723
4593.347189 86.011 -9.8221
4626.632476 86.017 -9.8837
4660.158962 86.023 -9.9587
4693.928395 86.030 -10.0483
4727.942535 86.036 -10.1542
4762.203156 86.042 -10.2771
4796.712043 86.048 -10.4178
4831.470996 86.052 -10.5768
4866.481826 86.055 -10.7538
4901.746360 86.055 -10.9481
4937.266434 86.053 -11.1584
4973.043902 86.048 -11.3827
5009.080628 86.040 -11.6185
5045.378492 86.029 -11.8627
5081.939384 86.013 -12.1118
5118.765212 85.994 -12.3625
5155.857894 85.970 -12.6115
5193.219366 85.944 -12.8560
5230.851574 85.914 -13.0936
5268.756481 85.881 -13.3231
5306.936062 85.846 -13.5438
5345.392309 85.808 -13.7561
5384.127225 85.768 -13.9606
5423.142830 85.726 -14.1583
5462.441159 85.682 -14.3503
5502.024259 85.637 -14.5375
5541.894195 85.589 -14.7205
5582.053045 85.539 -14.9000
5622.502902 85.487 -15.0762
5663.245876 85.432 -15.2489
5704.284090 85.375 -15.4180
5745.619684 85.315 -15.5829
5787.254813 85.252 -15.7430
5829.191647 85.186 -15.8978
5871.432373 85.116 -16.0464
5913.979192 85.043 -16.1878
5956.834323 84.966 -16.3209
6000.000000 84.886 -16.4446
6043.478473 84.802 -16.5579
6087.272010 84.714 -16.6599
6131.382892 84.622 -16.7494
6175.813420 84.526 -16.8250
6220.565910 84.424 -16.8843
6265.642695 84.318 -16.9241
6311.046124 84.207 -16.9401
6356.778566 84.090 -16.9261
6402.842404 83.968 -16.8749
6449.240040 83.839 -16.7767
6495.973891 83.706 -16.6202
6543.046396 83.567 -16.3925
6590.460007 83.425 -16.0800
6638.217197 83.282 -15.6699
6686.320456 83.141 -15.1522
6734.772290 83.005 -14.5210
6783.575226 82.877 -13.7761
6832.731809 82.763 -12.9243
6882.244600 82.666 -11.9800
6932.116181 82.589 -10.9639
6982.349153 82.535 -9.9014
7032.946133 82.505 -8.8202
7083.909760 82.500 -7.7476
7135.242690 82.520 -6.7086
7186.947600 82.563 -5.7250
7239.027185 82.630 -4.8152
7291.484160 82.720 -3.9976
7344.321260 82.832 -3.2938
7397.541239 82.965 -2.7333
7451.146872 83.116 -2.3501
7505.140954 83.280 -2.1721
7559.526299 83.449 -2.2098
7614.305743 83.620 -2.4557
7669.482141 83.787 -2.8948
7725.058371 83.948 -3.5146
7781.037328 84.102 -4.3085
7837.421932 84.246 -5.2731
7894.215122 84.377 -6.4053
7951.419859 84.492 -7.6996
8009.039125 84.587 -9.1453
8067.075924 84.657 -10.7264
8125.533282 84.700 -12.4209
8184.414245 84.713 -14.2006
8243.721885 84.691 -16.0316
8303.459292 84.633 -17.8749
8363.629581 84.538 -19.6864
8424.235888 84.407 -21.4175
8485.281374 84.239 -23.0150
8546.769221 84.040 -24.4231
8608.702634 83.814 -25.5858
8671.084842 83.572 -26.4542
8733.919097 83.327 -26.9992
8797.208675 83.093 -27.2289
8860.956876 82.885 -27.2000
8925.167022 82.712 -27.0031
8989.842461 82.574 -26.7170
9054.986566 82.469 -26.3735
9120.602731 82.400 -25.9951
9186.694378 82.372 -25.6709
9253.264952 82.377 -25.5612
9320.317925 82.387 -25.7821
9387.856790 82.371 -26.2822
9455.885071 82.310 -26.8685
9524.406312 82.210 -27.3469
9593.424086 82.089 -27.6155
9662.941992 81.968 -27.6705
9732.963653 81.862 -27.5702
9803.492719 81.776 -27.3958
9874.532869 81.712 -27.2249
9946.087805 81.666 -27.1193
10018.161257 81.632 -27.1227
10090.756983 81.603 -27.2640
10163.878768 81.572 -27.5610
10237.530423 81.531 -28.0219
10311.715789 81.473 -28.6440
10386.438732 81.387 -29.4115
10461.703149 81.268 -30.2926
10537.512962 81.106 -31.2405
10613.872125 80.898 -32.1956
10690.784618 80.640 -33.0900
10768.254450 80.332 -33.8528
10846.285661 79.976 -34.4155
10924.882318 79.576 -34.7153
11004.048518 79.138 -34.6996
11083.788390 78.671 -34.3279
11164.106090 78.184 -33.5747
11245.005805 77.686 -32.4307
11326.491752 77.186 -30.9031
11408.568180 76.694 -29.0143
11491.239368 76.217 -26.7990
11574.509626 75.762 -24.2993
11658.383294 75.333 -21.5590
11742.864745 74.933 -18.6189
11827.958384 74.563 -15.5143
11913.668646 74.224 -12.2747
12000.000000 73.918 -8.9279
12086.956947 73.644 -5.5029
12174.544019 73.405 -2.0335
12262.765784 73.199 1.4436
12351.626840 73.027 4.8914
12441.131819 72.886 8.2764
12531.285389 72.774 11.5710
12622.092249 72.688 14.7540
12713.557132 72.626 17.8091
12805.684808 72.583 20.7250
12898.480079 72.558 23.4944
12991.947783 72.547 26.1152
13086.092792 72.548 28.5904
13180.920015 72.561 30.9280
13276.434395 72.584 33.1404
13372.640911 72.618 35.2415
13469.544580 72.667 37.2429
13567.150452 72.733 39.1489
13665.463617 72.820 40.9521
13764.489200 72.932 42.6326
13864.232362 73.070 44.1613
13964.698305 73.233 45.5074
14065.892266 73.417 46.6476
14167.819519 73.617 47.5770
14270.485380 73.825 48.3183
14373.895200 74.037 48.9273
14478.054370 74.251 49.4917
14582.968320 74.474 50.1204
14688.642520 74.721 50.9212
14795.082478 75.015 51.9673
14902.293745 75.383 53.2614
15010.281908 75.850 54.7130
15119.052599 76.429 56.1438
15228.611486 77.117 57.3282
15338.964283 77.896 58.0479
15450.116741 78.742 58.1337
15562.074656 79.624 57.4810
15674.843864 80.514 56.0409
15788.430244 81.387 53.8031
15902.839718 82.218 50.7805
16018.078250 82.984 47.0027
16134.151848 83.664 42.5164
16251.066563 84.233 37.3911
16368.828491 84.672 31.7248
16487.443769 84.961 25.6487
16606.918584 85.084 19.3270
16727.259161 85.034 12.9485
16848.471777 84.808 6.7124
16970.562748 84.413 0.8098
17093.538442 83.861 -4.5926
17217.405268 83.168 -9.3619
17342.169684 82.354 -13.4020
17467.838194 81.438 -16.6483
17594.417350 80.438 -19.0615
17721.913751 79.372 -20.6174
17850.334044 78.255 -21.2996
17979.684923 77.103 -21.0945
18109.973131 75.931 -19.9916
18241.205462 74.758 -17.9925
18373.388756 73.605 -15.1298
18506.529905 72.498 -11.4955
18640.635849 71.466 -7.2732
18775.713581 70.539 -2.7534
18911.770141 69.740 1.6873
19048.812624 69.082 5.6510
19186.848172 68.559 8.8052
19325.883983 68.153 10.9510
19465.927305 67.836 12.0516
19606.985439 67.587 12.2324
19749.065738 67.391 11.7690
19892.175609 67.252 11.0601
20036.322514 67.178 10.5470
