* Measurement data measured by REW V5.31
* Source: Headset (CX31993 HIFI AUDIO), MICROPHONE (Master Volume), R, volume: 0.600
* Format: 256k Log Swept Sine, 1 sweep at -12.0 dBFS with no timing reference
* Dated: May 7, 2024 12:37:34 PM
* REW Settings:
*  C-weighting compensation: Off
*  Target level: 75.0 dB
* Note: ; 
* Measurement: Moondrop DUSK  FTWS L
* Smoothing: 1/24 octave
* Frequency Step: 96 ppo
* Start Frequency: 20.141602 Hz
*
* Freq(Hz) SPL(dB) Phase(degrees)
20.141602 99.356 23.9912
20.287556 99.424 23.1905
20.434568 99.524 21.8230
20.582645 99.642 19.9453
20.731796 99.769 17.6229
20.882027 99.888 14.9534
21.033346 99.988 12.0338
21.185763 100.056 9.0055
21.339284 100.082 6.0277
21.493917 100.060 3.2376
21.649671 99.982 0.8186
21.806553 99.849 -1.0800
21.964572 99.667 -2.2992
22.123737 99.451 -2.6881
22.284054 99.225 -2.1649
22.445534 99.026 -0.7084
22.608183 98.887 1.5853
22.772012 98.844 4.4499
22.937027 98.908 7.5494
23.103238 99.066 10.4757
23.270654 99.289 12.9229
23.439282 99.534 14.7180
23.609133 99.758 15.8141
23.780215 99.931 16.2881
23.952536 100.032 16.2620
24.126106 100.054 15.8849
24.300934 100.002 15.3214
24.477028 99.889 14.7056
24.654399 99.738 14.1703
24.833055 99.575 13.7914
25.013005 99.436 13.6029
25.194260 99.345 13.5772
25.376828 99.325 13.6251
25.560719 99.378 13.6433
25.745942 99.493 13.5217
25.932508 99.647 13.2049
26.120426 99.810 12.6865
26.309705 99.956 12.0164
26.500356 100.060 11.2878
26.692388 100.110 10.6045
26.885812 100.101 10.0828
27.080638 100.039 9.8087
27.276876 99.938 9.8436
27.474535 99.818 10.1862
27.673627 99.702 10.7791
27.874161 99.609 11.4940
28.076149 99.553 12.1718
28.279600 99.534 12.6416
28.484526 99.545 12.7826
28.690937 99.570 12.5375
28.898843 99.595 11.9278
29.108256 99.604 11.0405
29.319186 99.591 10.0007
29.531645 99.556 8.9475
29.745644 99.502 8.0124
29.961193 99.439 7.2879
30.178304 99.380 6.8201
30.396989 99.334 6.5965
30.617258 99.307 6.5567
30.839123 99.300 6.6093
31.062596 99.306 6.6657
31.287688 99.316 6.6548
31.514412 99.320 6.5464
31.742778 99.312 6.3440
31.972800 99.288 6.0799
32.204488 99.253 5.7925
32.437855 99.214 5.5163
32.672913 99.181 5.2654
32.909674 99.160 5.0337
33.148151 99.155 4.7981
33.388356 99.163 4.5348
33.630302 99.177 4.2306
33.874001 99.188 3.8925
34.119466 99.189 3.5469
34.366710 99.174 3.2317
34.615745 99.145 2.9861
34.866585 99.107 2.8330
35.119243 99.066 2.7745
35.373731 99.032 2.7874
35.630064 99.009 2.8328
35.888254 98.998 2.8698
36.148315 99.000 2.8653
36.410261 99.010 2.8059
36.674104 99.023 2.6951
36.939860 99.037 2.5474
37.207542 99.051 2.3797
37.477163 99.064 2.2034
37.748738 99.073 2.0244
38.022281 99.080 1.8456
38.297806 99.080 1.6732
38.575327 99.075 1.5186
38.854860 99.064 1.3956
39.136419 99.049 1.3144
39.420017 99.033 1.2717
39.705671 99.021 1.2450
39.993395 99.014 1.1973
40.283203 99.010 1.0875
40.575112 99.005 0.8853
40.869136 98.995 0.5868
41.165290 98.979 0.2160
41.463591 98.960 -0.1856
41.764053 98.944 -0.5751
42.066693 98.943 -0.9273
42.371525 98.964 -1.2471
42.678567 99.008 -1.5627
42.987834 99.067 -1.9027
43.299341 99.126 -2.2736
43.613106 99.167 -2.6461
43.929145 99.177 -2.9599
44.247473 99.152 -3.1479
44.568109 99.100 -3.1731
44.891068 99.035 -3.0550
45.216367 98.971 -2.8720
45.544023 98.920 -2.7341
45.874054 98.882 -2.7380
46.206476 98.853 -2.9255
46.541307 98.827 -3.2694
46.878565 98.802 -3.6938
47.218266 98.779 -4.1139
47.560429 98.761 -4.4713
47.905072 98.751 -4.7449
48.252212 98.744 -4.9388
48.601867 98.736 -5.0639
48.954056 98.724 -5.1290
49.308798 98.708 -5.1491
49.666109 98.691 -5.1556
50.026010 98.678 -5.1951
50.388520 98.668 -5.3095
50.753656 98.658 -5.5115
51.121437 98.645 -5.7752
51.491884 98.629 -6.0530
51.865016 98.614 -6.3047
52.240851 98.602 -6.5185
52.619410 98.590 -6.7049
53.000712 98.573 -6.8737
53.384777 98.545 -7.0196
53.771625 98.508 -7.1355
54.161276 98.469 -7.2419
54.553751 98.436 -7.4003
54.949070 98.412 -7.6816
55.347254 98.389 -8.1079
55.748323 98.356 -8.6084
56.152298 98.309 -9.0396
56.559201 98.258 -9.2630
56.969052 98.221 -9.2324
57.381873 98.209 -9.0254
57.797686 98.221 -8.7901
58.216512 98.239 -8.6479
58.638373 98.245 -8.6342
59.063291 98.232 -8.7141
59.491288 98.201 -8.8403
59.922386 98.164 -8.9984
60.356608 98.128 -9.2070
60.793977 98.097 -9.4804
61.234515 98.068 -9.7951
61.678246 98.039 -10.0914
62.125192 98.012 -10.3096
62.575377 97.993 -10.4325
63.028824 97.980 -10.4944
63.485557 97.969 -10.5443
63.945599 97.952 -10.5994
64.408975 97.928 -10.6351
64.875709 97.904 -10.6263
65.345825 97.888 -10.5891
65.819348 97.881 -10.5715
66.296302 97.871 -10.6070
66.776713 97.849 -10.7023
67.260604 97.817 -10.8752
67.748002 97.784 -11.1651
68.238932 97.760 -11.5587
68.733420 97.759 -11.9179
69.231490 97.806 -12.0562
69.733170 97.919 -11.9479
70.238485 98.077 -11.8064
70.747463 98.210 -11.8731
71.260128 98.241 -12.1517
71.776508 98.142 -12.4163
72.296630 97.953 -12.4650
72.820521 97.757 -12.3431
73.348209 97.615 -12.2814
73.879720 97.536 -12.4039
74.415083 97.495 -12.5964
74.954326 97.473 -12.6832
75.497475 97.457 -12.6348
76.044561 97.437 -12.5632
76.595612 97.407 -12.5776
77.150655 97.369 -12.7011
77.709720 97.334 -12.8951
78.272837 97.307 -13.1037
78.840034 97.290 -13.2736
79.411342 97.281 -13.3848
79.986789 97.282 -13.4775
80.566406 97.290 -13.6195
81.150224 97.296 -13.8265
81.738272 97.291 -14.0210
82.330581 97.267 -14.0735
82.927182 97.229 -13.8827
83.528107 97.183 -13.4627
84.133386 97.137 -12.9959
84.743051 97.091 -12.7659
85.357134 97.033 -12.9364
85.975667 96.963 -13.3898
86.598682 96.902 -13.8130
87.226212 96.875 -13.9332
87.858289 96.875 -13.6268
88.494946 96.876 -12.9150
89.136217 96.866 -12.0423
89.782135 96.845 -11.4884
90.432733 96.811 -11.6461
91.088046 96.761 -12.4465
91.748108 96.715 -13.4438
92.412952 96.695 -14.2288
93.082615 96.696 -14.6574
93.757130 96.688 -14.7877
94.436533 96.654 -14.7747
95.120859 96.598 -14.8003
95.810144 96.534 -14.9430
96.504423 96.482 -15.1098
97.203734 96.456 -15.1600
97.908112 96.456 -15.0745
98.617595 96.464 -14.9647
99.332219 96.464 -14.9489
100.052021 96.453 -15.0560
100.777039 96.433 -15.2324
101.507311 96.393 -15.4102
102.242875 96.311 -15.5497
102.983769 96.192 -15.6300
103.730032 96.074 -15.6392
104.481702 95.997 -15.5643
105.238820 95.966 -15.4543
106.001424 95.966 -15.5800
106.769554 95.994 -16.3051
107.543250 96.094 -17.6259
108.322553 96.298 -19.0845
109.107503 96.525 -20.0890
109.898141 96.611 -20.0608
110.694508 96.477 -18.7054
111.496646 96.172 -16.4054
112.304596 95.796 -13.9177
113.118402 95.464 -11.9133
113.938104 95.242 -10.8394
114.763747 95.156 -10.4592
115.595372 95.291 -10.5241
116.433024 95.666 -11.8780
117.276746 96.115 -15.1453
118.126581 96.487 -19.6061
118.982575 96.705 -23.7032
119.844772 96.706 -25.2851
120.713217 96.501 -22.3687
121.587954 96.195 -15.2009
122.469031 95.882 -7.3072
123.356492 95.648 -3.2166
124.250384 95.588 -5.2228
125.150753 95.691 -11.0445
126.057647 95.799 -15.7035
126.971113 95.747 -17.1095
127.891198 95.471 -16.5560
128.817950 95.123 -15.2279
129.751418 95.043 -13.3328
130.691651 95.313 -11.7086
131.638696 95.625 -11.2930
132.592604 95.781 -12.1686
133.553425 95.837 -13.8720
134.521208 95.856 -15.2853
135.496004 95.803 -15.1199
136.477864 95.690 -13.2706
137.466839 95.604 -11.3728
138.462981 95.538 -10.9636
139.466340 95.414 -11.5554
140.476971 95.231 -11.8662
141.494925 95.084 -11.5420
142.520256 95.034 -11.2573
143.553016 95.026 -11.4672
144.593260 95.008 -11.7524
145.641043 94.992 -11.9110
146.696418 94.977 -12.0073
147.759441 94.962 -12.0433
148.830166 94.941 -12.1037
149.908651 94.903 -12.0335
150.994951 94.863 -11.6912
152.089123 94.826 -11.3286
153.191223 94.780 -11.1850
154.301310 94.738 -11.1779
155.419441 94.719 -11.1665
156.545674 94.714 -11.0115
157.680069 94.713 -10.7656
158.822683 94.706 -10.5921
159.973578 94.691 -10.4106
161.132813 94.677 -10.1919
162.300447 94.662 -10.0903
163.476543 94.645 -10.0645
164.661162 94.641 -10.0083
165.854364 94.635 -9.9298
167.056213 94.602 -9.8273
168.266772 94.542 -9.7259
169.486102 94.483 -9.5536
170.714268 94.458 -9.1804
171.951334 94.470 -8.7557
173.197364 94.495 -8.5371
174.452424 94.511 -8.5029
175.716578 94.517 -8.4238
176.989893 94.514 -8.2214
178.272434 94.504 -7.9452
179.564270 94.494 -7.6752
180.865467 94.486 -7.4984
182.176092 94.484 -7.4367
183.496216 94.489 -7.4618
184.825905 94.498 -7.5303
186.165229 94.513 -7.5863
187.514259 94.535 -7.5549
188.873065 94.556 -7.4339
190.241717 94.559 -7.3182
191.620287 94.530 -7.2446
193.008847 94.474 -7.1074
194.407468 94.416 -6.7929
195.816225 94.377 -6.4105
197.235190 94.357 -6.1363
198.664438 94.366 -5.9737
200.104042 94.396 -5.8519
201.554078 94.422 -5.7333
203.014622 94.429 -5.6914
204.485750 94.419 -5.7403
205.967538 94.405 -5.8136
207.460064 94.395 -5.8367
208.963405 94.392 -5.7690
210.477640 94.392 -5.6783
212.002848 94.389 -5.6359
213.539108 94.380 -5.6274
215.086500 94.363 -5.6308
216.645105 94.339 -5.6050
218.215005 94.312 -5.4971
219.796281 94.292 -5.3187
221.389015 94.282 -5.1227
222.993292 94.274 -4.9263
224.609193 94.263 -4.7376
226.236804 94.252 -4.5880
227.876209 94.242 -4.4982
229.527494 94.230 -4.4622
231.190745 94.214 -4.4280
232.866048 94.198 -4.3594
234.553491 94.188 -4.2724
236.253163 94.184 -4.1764
237.965150 94.181 -4.0479
239.689544 94.171 -3.8538
241.426433 94.153 -3.6197
243.175909 94.132 -3.4206
244.938062 94.115 -3.2989
246.712984 94.108 -3.2251
248.500768 94.106 -3.1315
250.301507 94.103 -2.9829
252.115295 94.093 -2.7999
253.942226 94.079 -2.6170
255.782396 94.069 -2.4593
257.635901 94.065 -2.3164
259.502837 94.062 -2.1773
261.383301 94.056 -2.0617
263.277392 94.050 -1.9579
265.185209 94.049 -1.8074
267.106850 94.049 -1.6168
269.042417 94.047 -1.4417
270.992009 94.041 -1.2843
272.955729 94.031 -1.1417
274.933678 94.021 -1.0177
276.925961 94.016 -0.8573
278.932681 94.020 -0.6662
280.953942 94.034 -0.4425
282.989850 94.054 -0.1607
285.040511 94.072 0.1452
287.106032 94.082 0.4042
289.186521 94.080 0.5602
291.282086 94.068 0.6111
293.392836 94.055 0.6384
295.518881 94.048 0.7768
297.660333 94.056 1.0492
299.817302 94.072 1.2984
301.989902 94.084 1.4639
304.178245 94.094 1.6110
306.382446 94.105 1.7813
308.602620 94.118 1.9625
310.838882 94.130 2.1102
313.091348 94.140 2.2185
315.360137 94.149 2.3117
317.645367 94.157 2.3990
319.947156 94.162 2.4807
322.265625 94.167 2.5568
324.600895 94.171 2.6182
326.953086 94.175 2.6600
329.322323 94.180 2.6927
331.708729 94.186 2.7286
334.112427 94.192 2.7804
336.533543 94.198 2.8512
338.972204 94.200 2.9298
341.428536 94.201 3.0080
343.902668 94.200 3.0833
346.394729 94.199 3.1571
348.904848 94.196 3.2258
351.433156 94.194 3.2902
353.979786 94.192 3.3605
356.544869 94.192 3.4453
359.128540 94.193 3.5437
361.730934 94.194 3.6494
364.352185 94.195 3.7533
366.992431 94.195 3.8499
369.651810 94.195 3.9388
372.330459 94.194 4.0205
375.028519 94.192 4.0976
377.746130 94.189 4.1718
380.483434 94.186 4.2539
383.240574 94.183 4.3516
386.017693 94.181 4.4664
388.814937 94.181 4.5894
391.632450 94.183 4.7066
394.470380 94.184 4.8125
397.328875 94.186 4.9137
400.208084 94.186 5.0155
403.108157 94.185 5.1165
406.029245 94.183 5.2106
408.971500 94.180 5.3007
411.935076 94.177 5.3970
414.920127 94.176 5.5058
417.926810 94.176 5.6243
420.955280 94.177 5.7482
424.005695 94.178 5.8733
427.078215 94.178 5.9960
430.173000 94.176 6.1142
433.290211 94.173 6.2258
436.430010 94.170 6.3269
439.592562 94.169 6.4233
442.778031 94.169 6.5200
445.986583 94.171 6.6085
449.218386 94.174 6.7083
452.473607 94.178 6.8393
455.752418 94.178 6.9861
459.054987 94.177 7.1256
462.381489 94.176 7.2476
465.732096 94.175 7.3608
469.106983 94.175 7.4716
472.506325 94.175 7.5770
475.930301 94.174 7.6865
479.379088 94.174 7.8003
482.852867 94.173 7.9208
486.351817 94.171 8.0588
489.876123 94.170 8.1969
493.425968 94.169 8.3282
497.001536 94.168 8.4714
500.603014 94.170 8.6150
504.230589 94.174 8.7342
507.884452 94.174 8.8357
511.564792 94.173 8.9450
515.271802 94.170 9.0739
519.005673 94.169 9.2153
522.766602 94.170 9.3601
526.554785 94.172 9.5073
530.370418 94.175 9.6554
534.213700 94.176 9.8002
538.084833 94.176 9.9386
541.984018 94.175 10.0707
545.911457 94.173 10.1961
549.867357 94.171 10.3160
553.851922 94.169 10.4419
557.865362 94.168 10.5805
561.907884 94.168 10.7389
565.979700 94.169 10.9110
570.081022 94.169 11.0909
574.212064 94.170 11.2717
578.373042 94.170 11.4418
582.564171 94.169 11.5969
586.785671 94.168 11.7397
591.037762 94.169 11.8791
595.320665 94.169 12.0258
599.634604 94.170 12.1865
603.979804 94.172 12.3599
608.356491 94.174 12.5429
612.764893 94.175 12.7288
617.205240 94.175 12.9076
621.677763 94.176 13.0852
626.182696 94.177 13.2690
630.720274 94.178 13.4490
635.290733 94.179 13.6197
639.894312 94.180 13.7946
644.531250 94.181 13.9852
649.201789 94.182 14.1882
653.906173 94.184 14.3992
658.644647 94.187 14.6145
663.417457 94.190 14.8337
668.224854 94.194 15.0538
673.067086 94.198 15.2709
677.944408 94.202 15.4774
682.857073 94.205 15.6710
687.805336 94.208 15.8555
692.789457 94.210 16.0363
697.809695 94.213 16.2225
702.866312 94.216 16.4297
707.959571 94.222 16.6577
713.089738 94.230 16.8925
718.257080 94.238 17.1425
723.461867 94.247 17.4216
728.704370 94.257 17.7092
733.984862 94.267 17.9740
739.303619 94.275 18.2109
744.660918 94.283 18.4336
750.057038 94.290 18.6637
755.492260 94.300 18.9149
760.966869 94.310 19.1822
766.481148 94.321 19.4590
772.035387 94.333 19.7438
777.629873 94.345 20.0309
783.264900 94.357 20.3166
788.940760 94.371 20.5999
794.657750 94.387 20.8764
800.416168 94.404 21.1441
806.216313 94.422 21.4108
812.058489 94.441 21.6868
817.943000 94.461 21.9784
823.870152 94.481 22.2836
829.840255 94.501 22.5961
835.853619 94.523 22.9107
841.910559 94.546 23.2222
848.011390 94.570 23.5266
854.156430 94.597 23.8221
860.346000 94.626 24.1091
866.580422 94.656 24.3913
872.860020 94.686 24.6766
879.185124 94.717 24.9691
885.556062 94.749 25.2689
891.973166 94.782 25.5738
898.436771 94.816 25.8808
904.947215 94.851 26.1839
911.504835 94.888 26.4798
918.109975 94.927 26.7667
924.762978 94.968 27.0442
931.464192 95.011 27.3142
938.213966 95.056 27.5793
945.012651 95.102 27.8431
951.860602 95.148 28.1084
958.758176 95.195 28.3732
965.705733 95.243 28.6342
972.703635 95.291 28.8915
979.752246 95.341 29.1442
986.851935 95.392 29.3882
994.003071 95.446 29.6197
1001.206027 95.501 29.8353
1008.461179 95.558 30.0334
1015.768904 95.617 30.2160
1023.129584 95.675 30.3905
1030.543603 95.732 30.5637
1038.011347 95.790 30.7386
1045.533205 95.847 30.9119
1053.109569 95.905 31.0773
1060.740836 95.963 31.2300
1068.427401 96.023 31.3648
1076.169666 96.085 31.4747
1083.968035 96.149 31.5611
1091.822915 96.213 31.6327
1099.734713 96.276 31.6956
1107.703844 96.338 31.7554
1115.730723 96.398 31.8175
1123.815768 96.457 31.8814
1131.959400 96.515 31.9405
1140.162045 96.573 31.9863
1148.424129 96.632 32.0108
1156.746083 96.693 32.0132
1165.128342 96.754 32.0009
1173.571343 96.815 31.9802
1182.075524 96.873 31.9572
1190.641331 96.930 31.9343
1199.269209 96.985 31.9117
1207.959608 97.039 31.8863
1216.712981 97.092 31.8520
1225.529785 97.144 31.8046
1234.410479 97.195 31.7454
1243.355526 97.247 31.6778
1252.365393 97.298 31.6045
1261.440549 97.349 31.5272
1270.581467 97.399 31.4470
1279.788624 97.448 31.3645
1289.062500 97.495 31.2787
1298.403578 97.540 31.1909
1307.812346 97.584 31.1037
1317.289293 97.626 31.0171
1326.834914 97.667 30.9298
1336.449707 97.707 30.8406
1346.134173 97.747 30.7482
1355.888816 97.787 30.6502
1365.714145 97.828 30.5457
1375.610673 97.868 30.4370
1385.578915 97.907 30.3300
1395.619391 97.944 30.2306
1405.732624 97.979 30.1426
1415.919142 98.012 30.0644
1426.179476 98.044 29.9909
1436.514160 98.076 29.9143
1446.923734 98.109 29.8282
1457.408740 98.143 29.7307
1467.969724 98.179 29.6256
1478.607238 98.214 29.5213
1489.321836 98.248 29.4258
1500.114076 98.279 29.3442
1510.984521 98.309 29.2762
1521.933737 98.337 29.2173
1532.962297 98.365 29.1595
1544.070773 98.393 29.0948
1555.259747 98.424 29.0205
1566.529800 98.455 28.9392
1577.881521 98.487 28.8576
1589.315501 98.519 28.7813
1600.832336 98.551 28.7139
1612.432627 98.581 28.6550
1624.116978 98.609 28.6015
1635.886000 98.638 28.5492
1647.740304 98.666 28.4959
1659.680509 98.695 28.4404
1671.707238 98.725 28.3839
1683.821118 98.756 28.3276
1696.022780 98.787 28.2731
1708.312860 98.819 28.2198
1720.692000 98.852 28.1657
1733.160843 98.885 28.1089
1745.720041 98.917 28.0514
1758.370248 98.950 27.9963
1771.112124 98.981 27.9465
1783.946332 99.012 27.9012
1796.873543 99.043 27.8585
1809.894429 99.075 27.8138
1823.009670 99.109 27.7635
1836.219950 99.145 27.7051
1849.525956 99.182 27.6389
1862.928384 99.220 27.5674
1876.427931 99.258 27.4968
1890.025301 99.294 27.4317
1903.721204 99.329 27.3733
1917.516352 99.363 27.3190
1931.411466 99.397 27.2644
1945.407270 99.432 27.2021
1959.504493 99.471 27.1279
1973.703870 99.511 27.0409
1988.006142 99.553 26.9444
2002.412054 99.596 26.8436
2016.922357 99.638 26.7443
2031.537808 99.678 26.6498
2046.259169 99.717 26.5580
2061.087206 99.755 26.4643
2076.022694 99.793 26.3632
2091.066410 99.833 26.2510
2106.219139 99.875 26.1267
2121.481671 99.918 25.9929
2136.854802 99.963 25.8515
2152.339333 100.008 25.7049
2167.936071 100.053 25.5541
2183.645829 100.096 25.3991
2199.469427 100.139 25.2394
2215.407689 100.180 25.0740
2231.461446 100.221 24.9013
2247.631536 100.263 24.7196
2263.918800 100.305 24.5281
2280.324089 100.348 24.3263
2296.848258 100.392 24.1139
2313.492167 100.436 23.8902
2330.256685 100.481 23.6559
2347.142685 100.525 23.4114
2364.151049 100.568 23.1594
2381.282662 100.608 22.9021
2398.538418 100.647 22.6401
2415.919216 100.685 22.3707
2433.425962 100.722 22.0906
2451.059570 100.759 21.7974
2468.820958 100.798 21.4895
2486.711052 100.837 21.1664
2504.730786 100.875 20.8297
2522.881098 100.913 20.4826
2541.162934 100.948 20.1290
2559.577248 100.981 19.7711
2578.125000 101.009 19.4085
2596.807157 101.036 19.0386
2615.624692 101.061 18.6589
2634.578586 101.085 18.2661
2653.669829 101.110 17.8589
2672.899414 101.134 17.4384
2692.268345 101.157 17.0088
2711.777632 101.179 16.5733
2731.428290 101.197 16.1336
2751.221345 101.211 15.6909
2771.157829 101.221 15.2462
2791.238781 101.227 14.7987
2811.465248 101.231 14.3467
2831.838284 101.233 13.8885
2852.358952 101.233 13.4242
2873.028321 101.233 12.9548
2893.847468 101.231 12.4812
2914.817480 101.227 12.0061
2935.939449 101.219 11.5347
2957.214476 101.207 11.0701
2978.643672 101.190 10.6125
3000.228152 101.169 10.1616
3021.969041 101.145 9.7178
3043.867475 101.118 9.2816
3065.924593 101.090 8.8508
3088.141547 101.061 8.4246
3110.519493 101.031 8.0047
3133.059600 100.999 7.5941
3155.763041 100.966 7.1956
3178.631001 100.930 6.8109
3201.664672 100.890 6.4410
3224.865254 100.847 6.0858
3248.233957 100.802 5.7428
3271.771999 100.755 5.4098
3295.480608 100.707 5.0849
3319.361019 100.660 4.7676
3343.414477 100.612 4.4585
3367.642236 100.563 4.1591
3392.045560 100.514 3.8714
3416.625721 100.462 3.5977
3441.383999 100.408 3.3393
3466.321686 100.351 3.0972
3491.440082 100.291 2.8728
3516.740496 100.229 2.6666
3542.224247 100.166 2.4773
3567.892664 100.102 2.3034
3593.747085 100.039 2.1451
3619.788858 99.977 2.0032
3646.019340 99.916 1.8783
3672.439900 99.855 1.7717
3699.051913 99.793 1.6852
3725.856768 99.729 1.6202
3752.855862 99.665 1.5770
3780.050603 99.599 1.5542
3807.442408 99.533 1.5503
3835.032705 99.468 1.5642
3862.822933 99.406 1.5940
3890.814540 99.346 1.6372
3919.008986 99.289 1.6935
3947.407741 99.234 1.7649
3976.012284 99.181 1.8535
4004.824108 99.127 1.9606
4033.844715 99.072 2.0861
4063.075616 99.018 2.2285
4092.518337 98.965 2.3848
4122.174412 98.915 2.5514
4152.045387 98.868 2.7263
4182.132820 98.826 2.9089
4212.438278 98.788 3.0996
4242.963342 98.753 3.2986
4273.709604 98.720 3.5054
4304.678665 98.689 3.7199
4335.872141 98.660 3.9413
4367.291658 98.632 4.1678
4398.938854 98.607 4.3969
4430.815378 98.586 4.6259
4462.922893 98.568 4.8511
4495.263072 98.556 5.0692
4527.837601 98.548 5.2788
4560.648179 98.545 5.4783
4593.696515 98.546 5.6651
4626.984334 98.550 5.8353
4660.513370 98.557 5.9856
4694.285371 98.567 6.1127
4728.302098 98.579 6.2130
4762.565324 98.593 6.2805
4797.076835 98.608 6.3081
4831.838432 98.626 6.2905
4866.851925 98.645 6.2244
4902.119140 98.664 6.1080
4937.641916 98.681 5.9408
4973.422105 98.695 5.7260
5009.461572 98.702 5.4701
5045.762195 98.701 5.1816
5082.325868 98.691 4.8705
5119.154496 98.672 4.5479
5156.250000 98.644 4.2238
5193.614313 98.609 3.9057
5231.249383 98.569 3.5985
5269.157173 98.526 3.3072
5307.339658 98.480 3.0356
5345.798829 98.431 2.7860
5384.536691 98.379 2.5572
5423.555263 98.323 2.3478
5462.856580 98.264 2.1556
5502.442691 98.201 1.9772
5542.315659 98.136 1.8077
5582.477563 98.071 1.6427
5622.930497 98.005 1.4792
5663.676569 97.939 1.3137
5704.717904 97.873 1.1444
5746.056642 97.804 0.9717
5787.694937 97.732 0.7963
5829.634960 97.655 0.6181
5871.878898 97.572 0.4367
5914.428953 97.483 0.2510
5957.287343 97.387 0.0604
6000.456303 97.284 -0.1363
6043.938083 97.174 -0.3384
6087.734950 97.055 -0.5413
6131.849187 96.925 -0.7360
6176.283094 96.782 -0.9078
6221.038987 96.624 -1.0368
6266.119200 96.448 -1.0971
6311.526083 96.255 -1.0561
6357.262002 96.046 -0.8779
6403.329344 95.824 -0.5269
6449.730508 95.595 0.0255
6496.467914 95.367 0.7936
6543.543998 95.148 1.7735
6590.961215 94.947 2.9428
6638.722037 94.768 4.2646
6686.828954 94.616 5.6951
6735.284473 94.489 7.1919
6784.091120 94.385 8.7191
6833.251441 94.302 10.2527
6882.767998 94.235 11.7796
6932.643372 94.183 13.2946
6982.880164 94.143 14.7947
7033.480992 94.114 16.2801
7084.448495 94.098 17.7557
7135.785329 94.092 19.2301
7187.494171 94.096 20.7166
7239.577717 94.110 22.2365
7292.038681 94.135 23.8235
7344.879799 94.178 25.5111
7398.103826 94.254 27.2898
7451.713536 94.377 29.0385
7505.711724 94.540 30.5347
7560.101205 94.716 31.6492
7614.884815 94.875 32.4979
7670.065409 95.011 33.2994
7725.645865 95.141 34.1780
7781.629080 95.278 35.1378
7838.017972 95.430 36.1295
7894.815481 95.602 37.1006
7952.024569 95.791 38.0093
8009.648217 95.998 38.8240
8067.689429 96.220 39.5185
8126.151233 96.458 40.0701
8185.036674 96.709 40.4589
8244.348824 96.970 40.6682
8304.090774 97.237 40.6861
8364.265639 97.505 40.5063
8424.876556 97.767 40.1308
8485.926684 98.020 39.5749
8547.419207 98.260 38.8664
8609.357330 98.489 38.0358
8671.744282 98.716 37.0849
8734.583316 98.947 35.9339
8797.877707 99.173 34.4152
8861.630756 99.354 32.4263
8925.845785 99.448 30.1428
8990.526143 99.445 27.9283
9055.675202 99.371 26.0417
9121.296357 99.259 24.5496
9187.393031 99.133 23.4170
9253.968668 99.006 22.5888
9321.026740 98.883 22.0212
9388.570742 98.772 21.6825
9456.604196 98.678 21.5496
9525.130648 98.608 21.6045
9594.153671 98.572 21.8325
9663.676863 98.583 22.2083
9733.703850 98.659 22.6560
9804.238280 98.815 22.9826
9875.283832 99.040 22.8704
9946.844210 99.286 22.0726
10018.923143 99.497 20.6721
10091.524390 99.653 18.9707
10164.651736 99.768 17.1586
10238.308993 99.862 15.2432
10312.500000 99.940 13.1652
10387.228626 99.995 10.8865
10462.498767 100.019 8.4076
10538.314345 100.002 5.7580
10614.679315 99.936 2.9827
10691.597657 99.816 0.1356
10769.073381 99.638 -2.7232
10847.110526 99.403 -5.5316
10925.713161 99.112 -8.2289
11004.885382 98.769 -10.7586
11084.631318 98.382 -13.0706
11164.955126 97.955 -15.1239
11245.860993 97.498 -16.8886
11327.353138 97.017 -18.3476
11409.435808 96.519 -19.4944
11492.113283 96.010 -20.3316
11575.389873 95.496 -20.8672
11659.269920 94.982 -21.1122
11743.757796 94.471 -21.0798
11828.857906 93.969 -20.7833
11914.574686 93.479 -20.2364
12000.912606 93.007 -19.4539
12087.876166 92.556 -18.4531
12175.469900 92.130 -17.2571
12263.698373 91.732 -15.8928
12352.566187 91.361 -14.3876
12442.077974 91.018 -12.7647
12532.238400 90.703 -11.0440
12623.052165 90.417 -9.2470
12714.524005 90.158 -7.3970
12806.658687 89.928 -5.5142
12899.461015 89.726 -3.6159
12992.935827 89.555 -1.7216
13087.087996 89.413 0.1528
13181.922430 89.298 1.9957
13277.444074 89.207 3.7943
13373.657907 89.139 5.5363
13470.568945 89.094 7.2049
13568.182241 89.072 8.7846
13666.502883 89.072 10.2630
13765.535996 89.094 11.6256
13865.286744 89.136 12.8570
13965.760328 89.197 13.9448
14066.961984 89.275 14.8842
14168.896989 89.365 15.6731
14271.570658 89.464 16.3018
14374.988342 89.572 16.7579
14479.155433 89.686 17.0274
14584.077362 89.805 17.0961
14689.759598 89.927 16.9561
14796.207652 90.048 16.6018
14903.427072 90.165 16.0281
15011.423448 90.272 15.2362
15120.202410 90.362 14.2400
15229.769630 90.428 13.0602
15340.130819 90.462 11.7262
15451.291730 90.456 10.2882
15563.258160 90.402 8.8273
15676.035944 90.295 7.4635
15789.630962 90.137 6.3559
15904.049137 89.941 5.6920
16019.296433 89.737 5.6586
16135.378859 89.575 6.3840
16252.302465 89.521 7.8429
16370.073348 89.643 9.7638
16488.697648 89.978 11.6411
16608.181548 90.518 12.9010
16728.531278 91.218 13.1100
16849.753112 92.023 12.0514
16971.853368 92.888 9.6563
17094.838414 93.783 5.9000
17218.714660 94.682 0.7351
17343.488565 95.549 -5.9180
17469.166632 96.337 -14.1310
17595.755415 96.979 -23.8892
17723.261512 97.401 -35.0123
17851.691571 97.536 -47.1179
17981.052287 97.347 -59.6567
18111.350404 96.829 -72.0153
18242.592715 96.019 -83.6511
18374.786062 94.980 -94.1912
18507.937336 93.790 -103.4755
18642.053479 92.525 -111.5404
18777.141484 91.250 -118.5692
18913.208391 90.010 -124.8311
19050.261296 88.831 -130.6268
19188.307342 87.714 -136.2405
19327.353727 86.647 -141.9006
19467.407699 85.609 -147.7507
19608.476560 84.585 -153.8365
19750.567664 83.600 -160.0517
19893.688419 82.769 -165.8969
20037.846286 82.293 -169.9337
