* Measurement data measured by REW V5.31.3
* Source: Headset (2- CX31993 HIFI AUDIO), MICROPHONE (Master Volume), R, volume: 0.250
* Format: 256k Log Swept Sine, 1 sweep at -12.0 dBFS with no timing reference
* Dated: 12 11, 24 12:58:39 PM
* REW Settings:
*  C-weighting compensation: Off
*  Target level: 75.0 dB
* Note: ; 
* Measurement: QoA Mimosa R
* Smoothing: 1/12 octave
* Frequency Step: 96 ppo
* Start Frequency: 0.36621094 Hz
*
* Freq(Hz) SPL(dB) Phase(degrees)
0.366211 42.583 -7.2625
0.368865 42.594 -7.1948
0.371538 42.610 -7.0944
0.374230 42.630 -6.9699
0.376942 42.653 -6.8289
0.379673 42.677 -6.6768
0.382424 42.702 -6.5172
0.385196 42.728 -6.3524
0.387987 42.754 -6.1835
0.390798 42.780 -6.0112
0.393630 42.807 -5.8358
0.396483 42.834 -5.6575
0.399356 42.861 -5.4762
0.402250 42.889 -5.2921
0.405165 42.917 -5.1050
0.408101 42.944 -4.9149
0.411058 42.972 -4.7216
0.414037 43.001 -4.5252
0.417037 43.029 -4.3255
0.420059 43.058 -4.1225
0.423103 43.087 -3.9161
0.426169 43.116 -3.7062
0.429257 43.145 -3.4927
0.432368 43.175 -3.2756
0.435501 43.204 -3.0548
0.438656 43.234 -2.8302
0.441835 43.265 -2.6017
0.445037 43.295 -2.3693
0.448262 43.326 -2.1329
0.451510 43.356 -1.8923
0.454782 43.387 -1.6476
0.458077 43.419 -1.3987
0.461397 43.450 -1.1454
0.464740 43.482 -0.8878
0.468108 43.514 -0.6257
0.471500 43.546 -0.3592
0.474917 43.578 -0.0881
0.478358 43.611 0.1876
0.481825 43.644 0.4679
0.485316 43.677 0.7529
0.488833 43.711 1.0427
0.492375 43.744 1.3372
0.495943 43.778 1.6366
0.499537 43.812 1.9407
0.503157 43.847 2.2497
0.506803 43.881 2.5635
0.510475 43.916 2.8822
0.514175 43.951 3.2057
0.517900 43.986 3.5341
0.521653 44.022 3.8673
0.525434 44.058 4.2052
0.529241 44.094 4.5479
0.533076 44.130 4.8952
0.536939 44.167 5.2471
0.540830 44.204 5.6036
0.544749 44.241 5.9646
0.548696 44.279 6.3299
0.552673 44.316 6.6994
0.556677 44.354 7.0730
0.560711 44.393 7.4506
0.564774 44.431 7.8321
0.568867 44.470 8.2172
0.572989 44.509 8.6058
0.577141 44.549 8.9977
0.581324 44.588 9.3926
0.585536 44.628 9.7905
0.589779 44.669 10.1909
0.594053 44.709 10.5937
0.598358 44.750 10.9986
0.602694 44.791 11.4054
0.607061 44.833 11.8137
0.611460 44.874 12.2232
0.615891 44.917 12.6336
0.620354 44.959 13.0447
0.624849 45.002 13.4560
0.629377 45.045 13.8672
0.633938 45.088 14.2780
0.638532 45.131 14.6879
0.643159 45.175 15.0967
0.647819 45.220 15.5039
0.652514 45.264 15.9092
0.657242 45.309 16.3121
0.662005 45.354 16.7123
0.666802 45.400 17.1094
0.671634 45.446 17.5030
0.676501 45.492 17.8927
0.681403 45.538 18.2781
0.686341 45.585 18.6590
0.691314 45.633 19.0348
0.696324 45.681 19.4053
0.701370 45.730 19.7702
0.706452 45.780 20.1293
0.711571 45.831 20.4826
0.716728 45.885 20.8301
0.721921 45.942 21.1722
0.727153 46.005 21.5098
0.732422 46.074 21.8438
0.737729 46.151 22.1755
0.743075 46.235 22.5063
0.748460 46.325 22.8371
0.753883 46.420 23.1683
0.759346 46.520 23.5000
0.764849 46.624 23.8322
0.770391 46.731 24.1645
0.775974 46.842 24.4964
0.781597 46.956 24.8274
0.787261 47.073 25.1569
0.792966 47.193 25.4845
0.798712 47.316 25.8095
0.804500 47.442 26.1315
0.810329 47.571 26.4498
0.816201 47.703 26.7640
0.822116 47.837 27.0735
0.828073 47.975 27.3779
0.834074 48.115 27.6766
0.840118 48.258 27.9692
0.846206 48.404 28.2552
0.852338 48.552 28.5342
0.858514 48.702 28.8058
0.864735 48.855 29.0694
0.871001 49.011 29.3248
0.877313 49.169 29.5716
0.883670 49.329 29.8094
0.890074 49.491 30.0378
0.896524 49.656 30.2565
0.903020 49.822 30.4651
0.909564 49.990 30.6635
0.916155 50.160 30.8512
0.922794 50.332 31.0281
0.929481 50.505 31.1938
0.936216 50.680 31.3480
0.943000 50.857 31.4907
0.949834 51.034 31.6215
0.956717 51.213 31.7402
0.963649 51.392 31.8467
0.970632 51.573 31.9407
0.977666 51.754 32.0221
0.984750 51.935 32.0908
0.991886 52.117 32.1465
0.999074 52.299 32.1892
1.006314 52.481 32.2187
1.013606 52.663 32.2350
1.020951 52.845 32.2378
1.028349 53.026 32.2273
1.035801 53.206 32.2032
1.043307 53.386 32.1657
1.050867 53.564 32.1146
1.058482 53.741 32.0503
1.066152 53.916 31.9730
1.073878 54.090 31.8832
1.081660 54.263 31.7818
1.089498 54.434 31.6701
1.097393 54.604 31.5500
1.105345 54.772 31.4235
1.113355 54.940 31.2927
1.121423 55.108 31.1593
1.129549 55.276 31.0243
1.137734 55.444 30.8885
1.145979 55.612 30.7521
1.154283 55.780 30.6149
1.162647 55.949 30.4768
1.171072 56.118 30.3376
1.179558 56.287 30.1969
1.188106 56.456 30.0543
1.196715 56.625 29.9097
1.205387 56.795 29.7625
1.214122 56.965 29.6125
1.222920 57.135 29.4594
1.231782 57.305 29.3028
1.240708 57.475 29.1425
1.249699 57.646 28.9780
1.258754 57.816 28.8092
1.267876 57.987 28.6357
1.277063 58.158 28.4572
1.286318 58.328 28.2735
1.295639 58.499 28.0842
1.305027 58.670 27.8892
1.314484 58.841 27.6881
1.324009 59.012 27.4807
1.333604 59.183 27.2667
1.343268 59.354 27.0459
1.353002 59.525 26.8179
1.362806 59.696 26.5826
1.372681 59.866 26.3397
1.382628 60.037 26.0890
1.392647 60.207 25.8303
1.402739 60.378 25.5634
1.412904 60.548 25.2881
1.423142 60.718 25.0046
1.433455 60.888 24.7130
1.443843 61.057 24.4138
1.454305 61.226 24.1077
1.464844 61.395 23.7960
1.475459 61.563 23.4799
1.486150 61.731 23.1609
1.496920 61.898 22.8400
1.507767 62.064 22.5178
1.518693 62.230 22.1949
1.529698 62.395 21.8712
1.540783 62.559 21.5466
1.551948 62.723 21.2210
1.563194 62.885 20.8942
1.574521 63.048 20.5658
1.585931 63.209 20.2355
1.597423 63.371 19.9031
1.608999 63.531 19.5682
1.620658 63.691 19.2305
1.632402 63.851 18.8896
1.644232 64.010 18.5452
1.656146 64.168 18.1971
1.668147 64.326 17.8448
1.680235 64.484 17.4880
1.692411 64.642 17.1265
1.704675 64.799 16.7598
1.717028 64.956 16.3877
1.729470 65.112 16.0098
1.742003 65.269 15.6258
1.754626 65.425 15.2354
1.767341 65.581 14.8384
1.780147 65.737 14.4345
1.793047 65.893 14.0237
1.806040 66.049 13.6060
1.819128 66.205 13.1817
1.832310 66.360 12.7513
1.845587 66.515 12.3155
1.858961 66.669 11.8751
1.872432 66.823 11.4308
1.886001 66.976 10.9831
1.899667 67.128 10.5325
1.913433 67.279 10.0793
1.927299 67.430 9.6238
1.941265 67.579 9.1662
1.955332 67.728 8.7065
1.969501 67.877 8.2449
1.983773 68.024 7.7815
1.998148 68.171 7.3161
2.012627 68.317 6.8489
2.027212 68.463 6.3798
2.041902 68.608 5.9088
2.056698 68.753 5.4356
2.071602 68.897 4.9604
2.086614 69.040 4.4828
2.101734 69.184 4.0028
2.116964 69.327 3.5201
2.132304 69.470 3.0347
2.147756 69.612 2.5462
2.163320 69.754 2.0544
2.178996 69.896 1.5592
2.194786 70.037 1.0603
2.210690 70.178 0.5578
2.226710 70.318 0.0516
2.242845 70.458 -0.4581
2.259098 70.596 -0.9710
2.275468 70.734 -1.4869
2.291957 70.871 -2.0054
2.308566 71.006 -2.5262
2.325295 71.142 -3.0489
2.342145 71.276 -3.5734
2.359117 71.409 -4.0992
2.376212 71.542 -4.6263
2.393431 71.674 -5.1543
2.410775 71.806 -5.6831
2.428244 71.937 -6.2126
2.445840 72.067 -6.7426
2.463564 72.197 -7.2732
2.481416 72.327 -7.8043
2.499397 72.456 -8.3360
2.517509 72.584 -8.8685
2.535752 72.712 -9.4020
2.554127 72.840 -9.9370
2.572635 72.967 -10.4738
2.591277 73.094 -11.0129
2.610055 73.219 -11.5544
2.628968 73.344 -12.0985
2.648019 73.468 -12.6450
2.667208 73.591 -13.1936
2.686535 73.713 -13.7440
2.706003 73.834 -14.2958
2.725612 73.954 -14.8486
2.745363 74.074 -15.4019
2.765257 74.193 -15.9555
2.785295 74.312 -16.5089
2.805478 74.430 -17.0619
2.825808 74.547 -17.6143
2.846285 74.664 -18.1657
2.866910 74.780 -18.7162
2.887685 74.896 -19.2659
2.908611 75.012 -19.8150
2.929688 75.127 -20.3638
2.950917 75.241 -20.9130
2.972301 75.355 -21.4630
2.993839 75.468 -22.0140
3.015534 75.580 -22.5661
3.037386 75.691 -23.1192
3.059396 75.802 -23.6732
3.081565 75.911 -24.2276
3.103896 76.020 -24.7821
3.126388 76.129 -25.3364
3.149043 76.237 -25.8900
3.171862 76.344 -26.4427
3.194847 76.451 -26.9942
3.217998 76.558 -27.5442
3.241317 76.664 -28.0927
3.264805 76.770 -28.6398
3.288463 76.875 -29.1855
3.312293 76.980 -29.7304
3.336295 77.084 -30.2748
3.360471 77.188 -30.8190
3.384822 77.291 -31.3633
3.409350 77.394 -31.9075
3.434056 77.496 -32.4518
3.458940 77.597 -32.9958
3.484005 77.698 -33.5394
3.509252 77.798 -34.0824
3.534681 77.898 -34.6245
3.560295 77.998 -35.1657
3.586094 78.097 -35.7057
3.612081 78.196 -36.2446
3.638255 78.295 -36.7823
3.664620 78.394 -37.3189
3.691175 78.492 -37.8549
3.717923 78.589 -38.3903
3.744864 78.687 -38.9254
3.772001 78.784 -39.4603
3.799335 78.880 -39.9950
3.826866 78.976 -40.5296
3.854597 79.072 -41.0640
3.882529 79.167 -41.5982
3.910664 79.262 -42.1321
3.939002 79.357 -42.6658
3.967546 79.452 -43.1992
3.996296 79.546 -43.7324
4.025255 79.640 -44.2655
4.054423 79.734 -44.7987
4.083804 79.827 -45.3321
4.113396 79.920 -45.8658
4.143204 80.013 -46.3999
4.173227 80.106 -46.9344
4.203468 80.198 -47.4694
4.233928 80.289 -48.0049
4.264609 80.381 -48.5409
4.295512 80.472 -49.0774
4.326639 80.563 -49.6145
4.357992 80.653 -50.1523
4.389572 80.744 -50.6910
4.421380 80.833 -51.2308
4.453419 80.923 -51.7717
4.485691 81.012 -52.3139
4.518196 81.100 -52.8573
4.550936 81.189 -53.4018
4.583914 81.277 -53.9473
4.617131 81.364 -54.4937
4.650589 81.451 -55.0410
4.684289 81.537 -55.5890
4.718233 81.623 -56.1379
4.752424 81.709 -56.6879
4.786862 81.793 -57.2391
4.821549 81.878 -57.7917
4.856488 81.962 -58.3457
4.891680 82.045 -58.9011
4.927127 82.128 -59.4575
4.962831 82.210 -60.0148
4.998794 82.291 -60.5726
5.035017 82.372 -61.1306
5.071503 82.452 -61.6889
5.108253 82.532 -62.2473
5.145270 82.611 -62.8061
5.182555 82.689 -63.3655
5.220110 82.766 -63.9255
5.257937 82.843 -64.4861
5.296038 82.919 -65.0469
5.334415 82.995 -65.6076
5.373071 83.070 -66.1677
5.412006 83.144 -66.7270
5.451224 83.217 -67.2852
5.490725 83.290 -67.8423
5.530514 83.362 -68.3984
5.570590 83.433 -68.9537
5.610957 83.504 -69.5082
5.651616 83.574 -70.0618
5.692570 83.643 -70.6141
5.733821 83.712 -71.1648
5.775370 83.780 -71.7136
5.817221 83.847 -72.2603
5.859375 83.914 -72.8048
5.901834 83.981 -73.3471
5.944602 84.046 -73.8874
5.987679 84.112 -74.4257
6.031068 84.176 -74.9621
6.074771 84.241 -75.4964
6.118792 84.305 -76.0284
6.163131 84.368 -76.5580
6.207792 84.431 -77.0852
6.252776 84.494 -77.6100
6.298086 84.557 -78.1325
6.343725 84.619 -78.6527
6.389694 84.680 -79.1709
6.435996 84.742 -79.6871
6.482634 84.803 -80.2015
6.529610 84.864 -80.7140
6.576926 84.925 -81.2248
6.624585 84.986 -81.7340
6.672590 85.046 -82.2416
6.720942 85.107 -82.7478
6.769645 85.167 -83.2528
6.818700 85.227 -83.7568
6.868111 85.287 -84.2599
6.917881 85.347 -84.7624
6.968010 85.406 -85.2643
7.018504 85.465 -85.7658
7.069362 85.525 -86.2670
7.120590 85.584 -86.7680
7.172189 85.642 -87.2689
7.224161 85.701 -87.7698
7.276511 85.759 -88.2708
7.329239 85.817 -88.7720
7.382350 85.875 -89.2735
7.435845 85.932 -89.7754
7.489729 85.989 -90.2776
7.544002 86.046 -90.7801
7.598669 86.103 -91.2827
7.653732 86.159 -91.7856
7.709194 86.214 -92.2887
7.765058 86.269 -92.7919
7.821327 86.324 -93.2952
7.878004 86.378 -93.7985
7.935091 86.432 -94.3015
7.992592 86.485 -94.8042
8.050510 86.537 -95.3064
8.108847 86.590 -95.8080
8.167607 86.641 -96.3089
8.226793 86.693 -96.8091
8.286408 86.743 -97.3083
8.346454 86.793 -97.8064
8.406936 86.843 -98.3032
8.467856 86.892 -98.7987
8.529218 86.941 -99.2928
8.591024 86.990 -99.7856
8.653278 87.038 -100.2769
8.715983 87.085 -100.7667
8.779143 87.133 -101.2549
8.842760 87.180 -101.7417
8.906839 87.226 -102.2270
8.971381 87.273 -102.7109
9.036392 87.319 -103.1936
9.101873 87.364 -103.6750
9.167829 87.410 -104.1554
9.234263 87.455 -104.6348
9.301178 87.500 -105.1134
9.368578 87.545 -105.5913
9.436467 87.589 -106.0687
9.504847 87.633 -106.5457
9.573723 87.677 -107.0224
9.643099 87.721 -107.4990
9.712976 87.764 -107.9756
9.783361 87.807 -108.4521
9.854255 87.849 -108.9288
9.925663 87.892 -109.4056
9.997588 87.933 -109.8826
10.070035 87.974 -110.3598
10.143007 88.015 -110.8369
10.216507 88.055 -111.3141
10.290540 88.095 -111.7910
10.365109 88.134 -112.2678
10.440219 88.173 -112.7441
10.515873 88.211 -113.2197
10.592076 88.248 -113.6945
10.668830 88.285 -114.1683
10.746141 88.321 -114.6408
10.824012 88.357 -115.1118
10.902447 88.392 -115.5811
10.981451 88.426 -116.0485
11.061027 88.460 -116.5138
11.141180 88.493 -116.9769
11.221913 88.526 -117.4377
11.303232 88.558 -117.8960
11.385140 88.590 -118.3518
11.467641 88.622 -118.8052
11.550741 88.653 -119.2561
11.634442 88.684 -119.7047
11.718750 88.715 -120.1510
11.803669 88.746 -120.5953
11.889203 88.776 -121.0376
11.975357 88.806 -121.4782
12.062136 88.836 -121.9173
12.149543 88.866 -122.3552
12.237583 88.896 -122.7920
12.326262 88.926 -123.2279
12.415583 88.955 -123.6632
12.505552 88.984 -124.0981
12.596172 89.013 -124.5326
12.687449 89.042 -124.9668
12.779387 89.071 -125.4008
12.871992 89.099 -125.8347
12.965268 89.127 -126.2683
13.059220 89.155 -126.7018
13.153852 89.182 -127.1350
13.249170 89.209 -127.5677
13.345179 89.236 -128.0000
13.441884 89.263 -128.4318
13.539289 89.289 -128.8629
13.637401 89.315 -129.2933
13.736223 89.340 -129.7230
13.835761 89.366 -130.1519
13.936021 89.391 -130.5801
14.037007 89.416 -131.0078
14.138725 89.441 -131.4349
14.241180 89.465 -131.8616
14.344377 89.490 -132.2882
14.448323 89.514 -132.7146
14.553021 89.538 -133.1412
14.658478 89.562 -133.5681
14.764700 89.586 -133.9953
14.871691 89.609 -134.4231
14.979457 89.632 -134.8513
15.088005 89.655 -135.2802
15.197339 89.678 -135.7096
15.307465 89.700 -136.1394
15.418389 89.722 -136.5697
15.530117 89.744 -137.0002
15.642655 89.765 -137.4308
15.756008 89.786 -137.8614
15.870182 89.806 -138.2920
15.985184 89.826 -138.7224
16.101019 89.845 -139.1526
16.217694 89.864 -139.5825
16.335214 89.883 -140.0122
16.453586 89.901 -140.4416
16.572815 89.919 -140.8707
16.692909 89.936 -141.2995
16.813872 89.953 -141.7278
16.935713 89.969 -142.1555
17.058436 89.985 -142.5823
17.182048 90.000 -143.0077
17.306556 90.014 -143.4314
17.431967 90.028 -143.8528
17.558286 90.040 -144.2713
17.685521 90.053 -144.6864
17.813677 90.064 -145.0973
17.942762 90.075 -145.5036
18.072783 90.086 -145.9049
18.203746 90.096 -146.3010
18.335658 90.106 -146.6920
18.468526 90.116 -147.0780
18.602356 90.126 -147.4594
18.737156 90.137 -147.8370
18.872934 90.147 -148.2116
19.009695 90.158 -148.5840
19.147447 90.169 -148.9551
19.286197 90.181 -149.3260
19.425953 90.192 -149.6973
19.566721 90.204 -150.0697
19.708510 90.215 -150.4436
19.851326 90.227 -150.8189
19.995177 90.238 -151.1958
20.140070 90.248 -151.5737
20.286013 90.258 -151.9523
20.433014 90.267 -152.3309
20.581080 90.276 -152.7090
20.730219 90.284 -153.0862
20.880439 90.292 -153.4619
21.031747 90.299 -153.8361
21.184152 90.306 -154.2085
21.337661 90.312 -154.5794
21.492282 90.319 -154.9489
21.648024 90.325 -155.3175
21.804895 90.330 -155.6854
21.962902 90.336 -156.0530
22.122054 90.341 -156.4206
22.282360 90.346 -156.7883
22.443827 90.350 -157.1560
22.606464 90.354 -157.5236
22.770280 90.358 -157.8908
22.935283 90.361 -158.2572
23.101481 90.363 -158.6224
23.268884 90.366 -158.9860
23.437500 90.367 -159.3475
23.607338 90.369 -159.7067
23.778406 90.370 -160.0634
23.950714 90.370 -160.4175
24.124271 90.371 -160.7691
24.299086 90.372 -161.1184
24.475167 90.373 -161.4659
24.652524 90.374 -161.8122
24.831166 90.375 -162.1577
25.011103 90.377 -162.5030
25.192344 90.378 -162.8489
25.374898 90.380 -163.1958
25.558775 90.381 -163.5440
25.743984 90.383 -163.8937
25.930536 90.384 -164.2449
26.118439 90.385 -164.5974
26.307704 90.385 -164.9507
26.498341 90.385 -165.3043
26.690359 90.385 -165.6576
26.883768 90.384 -166.0101
27.078579 90.382 -166.3614
27.274801 90.380 -166.7111
27.472446 90.378 -167.0591
27.671522 90.376 -167.4055
27.872042 90.373 -167.7502
28.074014 90.369 -168.0934
28.277450 90.366 -168.4352
28.482360 90.362 -168.7755
28.688755 90.358 -169.1144
28.896645 90.353 -169.4516
29.106042 90.348 -169.7869
29.316957 90.342 -170.1202
29.529400 90.337 -170.4513
29.743382 90.330 -170.7802
29.958915 90.324 -171.1069
30.176009 90.317 -171.4317
30.394677 90.310 -171.7546
30.614929 90.303 -172.0759
30.836778 90.296 -172.3957
31.060234 90.288 -172.7140
31.285309 90.280 -173.0308
31.512015 90.272 -173.3459
31.740364 90.263 -173.6593
31.970368 90.255 -173.9711
32.202039 90.246 -174.2813
32.435388 90.238 -174.5903
32.670428 90.229 -174.8986
32.907171 90.220 -175.2068
33.145630 90.212 -175.5154
33.385817 90.203 -175.8249
33.627745 90.194 -176.1354
33.871425 90.185 -176.4469
34.116871 90.175 -176.7589
34.364096 90.165 -177.0707
34.613113 90.155 -177.3818
34.863934 90.144 -177.6914
35.116572 90.133 -177.9990
35.371041 90.121 -178.3044
35.627354 90.109 -178.6074
35.885525 90.097 -178.9083
36.145566 90.085 -179.2072
36.407492 90.072 -179.5043
36.671316 90.060 -179.7997
36.937051 90.047 179.9065
37.204712 90.035 179.6140
37.474313 90.022 179.3225
37.745867 90.009 179.0319
38.019389 89.996 178.7418
38.294893 89.982 178.4519
38.572394 89.969 178.1624
38.851905 89.954 177.8734
39.133442 89.940 177.5856
39.417019 89.925 177.2992
39.702651 89.910 177.0146
39.990353 89.895 176.7315
40.280140 89.880 176.4494
40.572026 89.864 176.1674
40.866028 89.849 175.8849
41.162160 89.833 175.6013
41.460438 89.817 175.3168
41.760877 89.800 175.0320
42.063494 89.783 174.7476
42.368303 89.766 174.4647
42.675322 89.747 174.1836
42.984565 89.729 173.9048
43.296048 89.710 173.6281
43.609789 89.691 173.3531
43.925804 89.672 173.0798
44.244108 89.653 172.8078
44.564719 89.633 172.5374
44.887654 89.613 172.2686
45.212928 89.593 172.0016
45.540560 89.572 171.7362
45.870565 89.552 171.4725
46.202962 89.531 171.2103
46.537768 89.510 170.9496
46.875000 89.489 170.6907
47.214676 89.467 170.4337
47.556813 89.445 170.1787
47.901429 89.423 169.9257
48.248542 89.401 169.6744
48.598171 89.379 169.4245
48.950334 89.356 169.1757
49.305048 89.334 168.9280
49.662333 89.311 168.6818
50.022206 89.287 168.4376
50.384688 89.264 168.1955
50.749796 89.240 167.9556
51.117550 89.216 167.7176
51.487969 89.192 167.4812
51.861072 89.167 167.2462
52.236879 89.142 167.0126
52.615409 89.118 166.7805
52.996681 89.092 166.5495
53.380717 89.067 166.3196
53.767536 89.042 166.0904
54.157158 89.016 165.8619
54.549603 88.989 165.6341
54.944892 88.963 165.4069
55.343045 88.936 165.1801
55.744084 88.909 164.9537
56.148028 88.881 164.7283
56.554900 88.853 164.5057
56.964720 88.824 164.2876
57.377510 88.796 164.0748
57.793291 88.768 163.8664
58.212085 88.740 163.6597
58.633914 88.714 163.4523
59.058799 88.687 163.2429
59.486764 88.660 163.0323
59.917829 88.633 162.8220
60.352019 88.606 162.6130
60.789354 88.578 162.4056
61.229859 88.551 162.1993
61.673556 88.522 161.9940
62.120468 88.494 161.7901
62.570618 88.465 161.5883
63.024031 88.436 161.3891
63.480729 88.406 161.1921
63.940736 88.376 160.9968
64.404077 88.346 160.8027
64.870776 88.316 160.6096
65.340856 88.286 160.4175
65.814343 88.255 160.2265
66.291261 88.225 160.0367
66.771635 88.194 159.8488
67.255489 88.164 159.6630
67.742850 88.133 159.4796
68.233743 88.103 159.2985
68.728193 88.074 159.1193
69.226226 88.044 158.9416
69.727867 88.015 158.7640
70.233144 87.986 158.5844
70.742083 87.956 158.4013
71.254709 87.925 158.2159
71.771050 87.892 158.0336
72.291132 87.858 157.8604
72.814984 87.822 157.7000
73.342631 87.786 157.5512
73.874102 87.751 157.4092
74.409424 87.716 157.2690
74.948626 87.681 157.1276
75.491734 87.647 156.9843
76.038779 87.612 156.8394
76.589787 87.577 156.6935
77.144788 87.542 156.5468
77.703811 87.507 156.3996
78.266885 87.472 156.2520
78.834039 87.437 156.1046
79.405303 87.402 155.9578
79.980706 87.367 155.8124
80.560280 87.332 155.6687
81.144053 87.297 155.5267
81.732056 87.261 155.3863
82.324320 87.226 155.2477
82.920876 87.190 155.1115
83.521755 87.154 154.9780
84.126988 87.118 154.8476
84.736607 87.081 154.7199
85.350643 87.046 154.5942
85.969129 87.010 154.4701
86.592097 86.974 154.3475
87.219579 86.938 154.2270
87.851608 86.903 154.1096
88.488217 86.867 153.9955
89.129439 86.832 153.8843
89.775308 86.797 153.7756
90.425856 86.761 153.6691
91.081119 86.725 153.5646
91.741131 86.689 153.4619
92.405925 86.653 153.3601
93.075536 86.616 153.2591
93.750000 86.579 153.1589
94.429351 86.542 153.0598
95.113625 86.504 152.9618
95.802858 86.466 152.8651
96.497085 86.428 152.7698
97.196342 86.390 152.6764
97.900667 86.352 152.5851
98.610096 86.314 152.4960
99.324665 86.276 152.4091
100.044413 86.238 152.3243
100.769376 86.199 152.2413
101.499592 86.160 152.1599
102.235100 86.122 152.0801
102.975938 86.083 152.0020
103.722144 86.044 151.9256
104.473757 86.005 151.8508
105.230817 85.966 151.7775
105.993363 85.927 151.7062
106.761435 85.889 151.6378
107.535072 85.850 151.5726
108.314315 85.812 151.5104
109.099206 85.774 151.4505
109.889783 85.735 151.3921
110.686090 85.696 151.3343
111.488167 85.656 151.2756
112.296056 85.617 151.2149
113.109800 85.578 151.1517
113.929440 85.538 151.0872
114.755020 85.500 151.0239
115.586582 85.462 150.9644
116.424170 85.425 150.9100
117.267827 85.390 150.8598
118.117598 85.355 150.8122
118.973527 85.319 150.7662
119.835658 85.282 150.7233
120.704037 85.243 150.6876
121.578708 85.202 150.6629
122.459718 85.159 150.6492
123.347111 85.115 150.6432
124.240935 85.071 150.6403
125.141236 85.027 150.6359
126.048061 84.983 150.6276
126.961458 84.940 150.6148
127.881473 84.898 150.5982
128.808154 84.855 150.5789
129.741551 84.813 150.5587
130.681712 84.771 150.5390
131.628686 84.729 150.5201
132.582521 84.686 150.5019
133.543269 84.643 150.4844
134.510979 84.599 150.4696
135.485701 84.555 150.4606
136.467486 84.510 150.4610
137.456386 84.465 150.4731
138.452451 84.421 150.4971
139.455735 84.377 150.5312
140.466288 84.334 150.5739
141.484165 84.291 150.6237
142.509418 84.248 150.6799
143.542100 84.204 150.7426
144.582265 84.159 150.8123
145.629968 84.114 150.8899
146.685262 84.067 150.9763
147.748204 84.021 151.0715
148.818849 83.974 151.1762
149.897251 83.928 151.2918
150.983469 83.883 151.4202
152.077557 83.840 151.5634
153.179574 83.799 151.7229
154.289576 83.761 151.8991
155.407622 83.727 152.0900
156.533770 83.698 152.2918
157.668078 83.674 152.4981
158.810606 83.657 152.7015
159.961413 83.645 152.8935
161.120559 83.639 153.0654
162.288105 83.637 153.2083
163.464112 83.637 153.3148
164.648640 83.637 153.3797
165.841752 83.636 153.4018
167.043510 83.630 153.3842
168.253976 83.622 153.3335
169.473213 83.609 153.2602
170.701286 83.592 153.1760
171.938258 83.571 153.0913
173.184194 83.547 153.0145
174.439158 83.520 152.9510
175.703216 83.490 152.9022
176.976434 83.456 152.8670
178.258878 83.421 152.8419
179.550615 83.385 152.8233
180.851713 83.348 152.8086
182.162239 83.311 152.7982
183.482262 83.274 152.7952
184.811850 83.238 152.8037
186.151073 83.202 152.8260
187.500000 83.166 152.8633
188.858702 83.132 152.9161
190.227250 83.099 152.9816
191.605715 83.067 153.0519
192.994169 83.036 153.1177
194.392685 83.006 153.1744
195.801334 82.975 153.2223
197.220191 82.943 153.2652
198.649330 82.911 153.3071
200.088825 82.880 153.3495
201.538751 82.850 153.3901
202.999184 82.821 153.4249
204.470200 82.792 153.4535
205.951875 82.762 153.4806
207.444287 82.729 153.5128
208.947514 82.695 153.5533
210.461634 82.660 153.6008
211.986726 82.623 153.6529
213.522869 82.584 153.7107
215.070144 82.545 153.7768
216.628631 82.507 153.8517
218.198411 82.469 153.9312
219.779567 82.433 154.0081
221.372180 82.400 154.0777
222.976334 82.367 154.1413
224.592112 82.336 154.2050
226.219600 82.304 154.2763
227.858880 82.272 154.3602
229.510039 82.239 154.4556
231.173164 82.206 154.5563
232.848340 82.173 154.6545
234.535655 82.140 154.7445
236.235197 82.106 154.8247
237.947054 82.072 154.8974
239.671317 82.038 154.9674
241.408074 82.005 155.0401
243.157416 81.972 155.1210
244.919435 81.939 155.2159
246.694223 81.905 155.3280
248.481871 81.871 155.4555
250.282473 81.837 155.5925
252.096123 81.804 155.7313
253.922915 81.771 155.8660
255.762945 81.737 155.9944
257.616309 81.704 156.1179
259.483103 81.670 156.2405
261.363424 81.636 156.3669
263.257372 81.603 156.5009
265.165043 81.570 156.6439
267.086538 81.539 156.7944
269.021957 81.509 156.9487
270.971401 81.479 157.1024
272.934972 81.450 157.2533
274.912771 81.421 157.4007
276.904902 81.391 157.5450
278.911469 81.360 157.6854
280.932577 81.329 157.8216
282.968330 81.298 157.9565
285.018835 81.268 158.0991
287.084199 81.240 158.2644
289.164530 81.214 158.4644
291.259935 81.190 158.6979
293.370525 81.168 158.9535
295.496408 81.148 159.2185
297.637697 81.130 159.4825
299.794503 81.116 159.7352
301.966937 81.106 159.9671
304.155114 81.099 160.1696
306.359147 81.093 160.3381
308.579152 81.088 160.4727
310.815244 81.082 160.5773
313.067539 81.074 160.6588
315.336156 81.063 160.7248
317.621211 81.050 160.7826
319.922826 81.034 160.8381
322.241118 81.015 160.8958
324.576210 80.993 160.9590
326.928223 80.970 161.0303
329.297280 80.946 161.1114
331.683504 80.921 161.2025
334.087019 80.895 161.3029
336.507952 80.869 161.4113
338.946427 80.842 161.5271
341.402572 80.816 161.6498
343.876516 80.790 161.7787
346.368387 80.764 161.9128
348.878315 80.738 162.0512
351.406431 80.713 162.1927
353.952867 80.687 162.3365
356.517756 80.662 162.4825
359.101230 80.637 162.6310
361.703426 80.613 162.7828
364.324478 80.589 162.9381
366.964523 80.565 163.0967
369.623699 80.542 163.2579
372.302145 80.519 163.4208
375.000000 80.497 163.5852
377.717405 80.474 163.7508
380.454501 80.453 163.9175
383.211431 80.431 164.0850
385.988339 80.409 164.2532
388.785369 80.388 164.4223
391.602668 80.367 164.5924
394.440383 80.346 164.7640
397.298660 80.325 164.9371
400.177650 80.304 165.1117
403.077502 80.284 165.2878
405.998368 80.264 165.4653
408.940400 80.244 165.6441
411.903750 80.225 165.8243
414.888575 80.205 166.0061
417.895028 80.187 166.1890
420.923268 80.168 166.3722
423.973452 80.150 166.5551
427.045738 80.131 166.7376
430.140287 80.113 166.9204
433.257261 80.095 167.1040
436.396822 80.077 167.2890
439.559133 80.059 167.4756
442.744360 80.041 167.6641
445.952668 80.023 167.8544
449.184225 80.006 168.0464
452.439199 79.989 168.2397
455.717760 79.972 168.4343
459.020079 79.955 168.6296
462.346327 79.939 168.8257
465.696680 79.923 169.0225
469.071310 79.906 169.2203
472.470394 79.890 169.4193
475.894109 79.874 169.6198
479.342634 79.859 169.8211
482.816148 79.843 170.0231
486.314833 79.827 170.2254
489.838871 79.812 170.4283
493.388445 79.797 170.6321
496.963741 79.782 170.8373
500.564945 79.768 171.0439
504.192245 79.753 171.2523
507.845830 79.739 171.4626
511.525890 79.725 171.6748
515.232618 79.712 171.8888
518.966206 79.698 172.1039
522.726849 79.685 172.3199
526.514743 79.672 172.5365
530.330086 79.659 172.7541
534.173076 79.646 172.9729
538.043915 79.634 173.1928
541.942803 79.621 173.4137
545.869944 79.609 173.6354
549.825542 79.597 173.8581
553.809805 79.585 174.0822
557.822939 79.573 174.3078
561.865154 79.562 174.5352
565.936660 79.551 174.7643
570.037671 79.540 174.9955
574.168399 79.529 175.2286
578.329060 79.518 175.4637
582.519870 79.507 175.7010
586.741049 79.497 175.9407
590.992817 79.487 176.1826
595.275394 79.478 176.4264
599.589005 79.468 176.6720
603.933874 79.460 176.9192
608.310228 79.451 177.1678
612.718295 79.442 177.4178
617.158304 79.434 177.6692
621.630488 79.426 177.9222
626.135079 79.418 178.1767
630.672311 79.410 178.4329
635.242423 79.403 178.6908
639.845651 79.396 178.9508
644.482237 79.389 179.2133
649.152421 79.383 179.4784
653.856447 79.376 179.7456
658.594560 79.371 -179.9854
663.367008 79.366 -179.7148
668.174039 79.361 -179.4423
673.015903 79.356 -179.1676
677.892854 79.352 -178.8901
682.805145 79.349 -178.6095
687.753032 79.345 -178.3256
692.736774 79.342 -178.0388
697.756631 79.340 -177.7493
702.812863 79.338 -177.4574
707.905735 79.336 -177.1630
713.035511 79.335 -176.8663
718.202461 79.335 -176.5672
723.406852 79.335 -176.2657
728.648956 79.335 -175.9619
733.929047 79.336 -175.6556
739.247399 79.338 -175.3470
744.604290 79.340 -175.0362
750.000000 79.343 -174.7229
755.434809 79.346 -174.4070
760.909001 79.350 -174.0882
766.422861 79.354 -173.7663
771.976677 79.359 -173.4412
777.570739 79.365 -173.1127
783.205337 79.372 -172.7813
788.880766 79.380 -172.4475
794.597321 79.388 -172.1120
800.355301 79.397 -171.7751
806.155005 79.408 -171.4365
811.996736 79.419 -171.0960
817.880799 79.431 -170.7534
823.807501 79.444 -170.4086
829.777150 79.458 -170.0617
835.790057 79.473 -169.7130
841.846536 79.489 -169.3625
847.946903 79.506 -169.0105
854.091476 79.524 -168.6572
860.280575 79.543 -168.3028
866.514523 79.563 -167.9475
872.793644 79.584 -167.5916
879.118267 79.607 -167.2352
885.488720 79.631 -166.8783
891.905336 79.656 -166.5211
898.368450 79.682 -166.1642
904.878398 79.710 -165.8080
911.435520 79.739 -165.4528
918.040157 79.769 -165.0989
924.692655 79.800 -164.7465
931.393359 79.833 -164.3958
938.142619 79.868 -164.0469
944.940787 79.903 -163.6998
951.788218 79.940 -163.3548
958.685268 79.979 -163.0125
965.632296 80.018 -162.6734
972.629666 80.059 -162.3378
979.677741 80.102 -162.0057
986.776890 80.146 -161.6770
993.927482 80.191 -161.3516
1001.129891 80.238 -161.0299
1008.384491 80.287 -160.7121
1015.691660 80.337 -160.3988
1023.051781 80.388 -160.0907
1030.465236 80.441 -159.7886
1037.932411 80.496 -159.4928
1045.453698 80.552 -159.2040
1053.029486 80.610 -158.9225
1060.660172 80.670 -158.6490
1068.346153 80.731 -158.3843
1076.087829 80.795 -158.1293
1083.885605 80.860 -157.8854
1091.739887 80.927 -157.6536
1099.651084 80.996 -157.4353
1107.619609 81.067 -157.2317
1115.645878 81.139 -157.0446
1123.730308 81.214 -156.8758
1131.873321 81.289 -156.7274
1140.075341 81.366 -156.6012
1148.336797 81.444 -156.4992
1156.658119 81.522 -156.4227
1165.039741 81.601 -156.3731
1173.482099 81.679 -156.3509
1181.985634 81.756 -156.3563
1190.550789 81.832 -156.3887
1199.178011 81.906 -156.4467
1207.867749 81.977 -156.5287
1216.620457 82.046 -156.6326
1225.436590 82.113 -156.7559
1234.316609 82.176 -156.8960
1243.260976 82.235 -157.0494
1252.270157 82.292 -157.2130
1261.344623 82.345 -157.3837
1270.484846 82.396 -157.5603
1279.691303 82.444 -157.7441
1288.964474 82.490 -157.9395
1298.304842 82.534 -158.1535
1307.712894 82.572 -158.3917
1317.189120 82.604 -158.6533
1326.734016 82.627 -158.9268
1336.348077 82.638 -159.1879
1346.031806 82.637 -159.4026
1355.785708 82.629 -159.5363
1365.610290 82.617 -159.5667
1375.506065 82.609 -159.4944
1385.473549 82.610 -159.3443
1395.513261 82.623 -159.1546
1405.625726 82.648 -158.9620
1415.811469 82.682 -158.7925
1426.071023 82.722 -158.6585
1436.404921 82.765 -158.5621
1446.813703 82.809 -158.4988
1457.297912 82.853 -158.4620
1467.858093 82.896 -158.4448
1478.494798 82.938 -158.4413
1489.208581 82.979 -158.4471
1500.000000 83.019 -158.4586
1510.869618 83.057 -158.4735
1521.818002 83.095 -158.4899
1532.845723 83.132 -158.5068
1543.953355 83.168 -158.5234
1555.141477 83.204 -158.5394
1566.410674 83.240 -158.5549
1577.761531 83.275 -158.5697
1589.194642 83.311 -158.5835
1600.710601 83.346 -158.5963
1612.310010 83.381 -158.6078
1623.993473 83.416 -158.6180
1635.761599 83.451 -158.6272
1647.615002 83.487 -158.6356
1659.554299 83.522 -158.6435
1671.580114 83.558 -158.6509
1683.693072 83.594 -158.6581
1695.893807 83.631 -158.6649
1708.182952 83.667 -158.6717
1720.561150 83.704 -158.6785
1733.029045 83.742 -158.6852
1745.587288 83.779 -158.6920
1758.236533 83.817 -158.6988
1770.977440 83.856 -158.7058
1783.810673 83.895 -158.7132
1796.736900 83.934 -158.7214
1809.756796 83.974 -158.7305
1822.871040 84.014 -158.7408
1836.080315 84.055 -158.7523
1849.385310 84.096 -158.7652
1862.786718 84.137 -158.7797
1876.285239 84.180 -158.7959
1889.881575 84.222 -158.8139
1903.576436 84.265 -158.8336
1917.370535 84.309 -158.8553
1931.264593 84.353 -158.8791
1945.259332 84.397 -158.9050
1959.355483 84.442 -158.9333
1973.553781 84.488 -158.9642
1987.854965 84.534 -158.9978
2002.259781 84.580 -159.0343
2016.768981 84.628 -159.0740
2031.383320 84.675 -159.1172
2046.103561 84.723 -159.1642
2060.930471 84.772 -159.2150
2075.864823 84.822 -159.2697
2090.907395 84.871 -159.3280
2106.058972 84.922 -159.3903
2121.320344 84.973 -159.4566
2136.692305 85.024 -159.5273
2152.175658 85.076 -159.6026
2167.771210 85.128 -159.6828
2183.479774 85.181 -159.7681
2199.302169 85.235 -159.8590
2215.239219 85.288 -159.9555
2231.291755 85.343 -160.0579
2247.460615 85.398 -160.1664
2263.746641 85.453 -160.2809
2280.150683 85.509 -160.4020
2296.673595 85.565 -160.5299
2313.316238 85.622 -160.6649
2330.079481 85.679 -160.8072
2346.964198 85.736 -160.9570
2363.971268 85.794 -161.1144
2381.101578 85.852 -161.2797
2398.356022 85.910 -161.4532
2415.735498 85.968 -161.6350
2433.240913 86.027 -161.8254
2450.873180 86.085 -162.0245
2468.633217 86.144 -162.2324
2486.521951 86.202 -162.4494
2504.540314 86.261 -162.6756
2522.689246 86.319 -162.9111
2540.969692 86.377 -163.1559
2559.382606 86.435 -163.4098
2577.928947 86.492 -163.6727
2596.609683 86.549 -163.9443
2615.425787 86.606 -164.2242
2634.378241 86.662 -164.5121
2653.468031 86.718 -164.8075
2672.696154 86.772 -165.1098
2692.063613 86.826 -165.4181
2711.571415 86.880 -165.7309
2731.220579 86.932 -166.0466
2751.012130 86.984 -166.3633
2770.947098 87.035 -166.6785
2791.026522 87.086 -166.9897
2811.251451 87.138 -167.2948
2831.622938 87.190 -167.5922
2852.142045 87.245 -167.8819
2872.809842 87.304 -168.1659
2893.627406 87.367 -168.4491
2914.595823 87.435 -168.7399
2935.716186 87.510 -169.0496
2956.989596 87.591 -169.3924
2978.417161 87.678 -169.7831
3000.000000 87.769 -170.2354
3021.739237 87.861 -170.7589
3043.636005 87.953 -171.3578
3065.691446 88.042 -172.0303
3087.906710 88.125 -172.7690
3110.282955 88.200 -173.5636
3132.821347 88.268 -174.4020
3155.523062 88.327 -175.2728
3178.389283 88.379 -176.1662
3201.421202 88.422 -177.0745
3224.620020 88.458 -177.9922
3247.986946 88.488 -178.9155
3271.523198 88.512 -179.8420
3295.230004 88.530 179.2297
3319.108599 88.543 178.3002
3343.160228 88.551 177.3698
3367.386145 88.554 176.4384
3391.787613 88.553 175.5061
3416.365904 88.548 174.5726
3441.122300 88.538 173.6381
3466.058091 88.523 172.7023
3491.174576 88.504 171.7654
3516.473066 88.481 170.8278
3541.954880 88.453 169.8900
3567.621345 88.420 168.9530
3593.473800 88.382 168.0178
3619.513592 88.340 167.0856
3645.742080 88.292 166.1577
3672.160630 88.240 165.2351
3698.770620 88.183 164.3190
3725.573436 88.120 163.4105
3752.570477 88.053 162.5105
3779.763150 87.981 161.6201
3807.152872 87.904 160.7404
3834.741071 87.821 159.8722
3862.529185 87.733 159.0169
3890.518664 87.640 158.1758
3918.710966 87.541 157.3511
3947.107561 87.436 156.5453
3975.709929 87.326 155.7621
4004.519563 87.209 155.0058
4033.537962 87.086 154.2816
4062.766641 86.957 153.5954
4092.207123 86.823 152.9532
4121.860942 86.684 152.3605
4151.729646 86.542 151.8218
4181.814790 86.397 151.3398
4212.117944 86.250 150.9147
4242.640687 86.104 150.5447
4273.384610 85.959 150.2255
4304.351317 85.815 149.9514
4335.542421 85.675 149.7165
4366.959549 85.537 149.5148
4398.604338 85.401 149.3410
4430.478438 85.268 149.1910
4462.583511 85.138 149.0615
4494.921231 85.008 148.9504
4527.493283 84.881 148.8569
4560.301365 84.754 148.7814
4593.347189 84.628 148.7250
4626.632476 84.502 148.6898
4660.158962 84.377 148.6780
4693.928395 84.252 148.6921
4727.942535 84.128 148.7345
4762.203156 84.005 148.8079
4796.712043 83.883 148.9144
4831.470996 83.763 149.0555
4866.481826 83.646 149.2316
4901.746360 83.532 149.4423
4937.266434 83.421 149.6862
4973.043902 83.315 149.9613
5009.080628 83.213 150.2655
5045.378492 83.116 150.5966
5081.939384 83.024 150.9525
5118.765212 82.938 151.3315
5155.857894 82.857 151.7326
5193.219366 82.782 152.1548
5230.851574 82.712 152.5976
5268.756481 82.649 153.0607
5306.936062 82.592 153.5434
5345.392309 82.543 154.0449
5384.127225 82.500 154.5643
5423.142830 82.465 155.1003
5462.441159 82.439 155.6513
5502.024259 82.422 156.2149
5541.894195 82.414 156.7879
5582.053045 82.417 157.3664
5622.502902 82.430 157.9453
5663.245876 82.453 158.5189
5704.284090 82.488 159.0810
5745.619684 82.533 159.6261
5787.254813 82.589 160.1500
5829.191647 82.655 160.6520
5871.432373 82.731 161.1362
5913.979192 82.818 161.6104
5956.834323 82.918 162.0837
6000.000000 83.034 162.5581
6043.478473 83.173 163.0197
6087.272010 83.337 163.4323
6131.382892 83.527 163.7405
6175.813420 83.742 163.8836
6220.565910 83.974 163.8129
6265.642695 84.214 163.5033
6311.046124 84.453 162.9556
6356.778566 84.682 162.1908
6402.842404 84.897 161.2432
6449.240040 85.095 160.1523
6495.973891 85.274 158.9592
6543.046396 85.434 157.7022
6590.460007 85.579 156.4152
6638.217197 85.711 155.1254
6686.320456 85.835 153.8522
6734.772290 85.956 152.6064
6783.575226 86.080 151.3895
6832.731809 86.212 150.1942
6882.244600 86.357 149.0048
6932.116181 86.518 147.7978
6982.349153 86.701 146.5433
7032.946133 86.907 145.2056
7083.909760 87.139 143.7451
7135.242690 87.396 142.1190
7186.947600 87.677 140.2837
7239.027185 87.981 138.1953
7291.484160 88.302 135.8120
7344.321260 88.637 133.0955
7397.541239 88.977 130.0133
7451.146872 89.316 126.5402
7505.140954 89.644 122.6604
7559.526299 89.952 118.3683
7614.305743 90.233 113.6692
7669.482141 90.475 108.5786
7725.058371 90.673 103.1212
7781.037328 90.818 97.3299
7837.421932 90.905 91.2434
7894.215122 90.928 84.9068
7951.419859 90.883 78.3709
8009.039125 90.768 71.6930
8067.075924 90.579 64.9360
8125.533282 90.318 58.1676
8184.414245 89.988 51.4562
8243.721885 89.594 44.8662
8303.459292 89.147 38.4528
8363.629581 88.657 32.2578
8424.235888 88.138 26.3079
8485.281374 87.604 20.6134
8546.769221 87.070 15.1707
8608.702634 86.549 9.9646
8671.084842 86.054 4.9723
8733.919097 85.595 0.1667
8797.208675 85.181 -4.4799
8860.956876 84.817 -8.9933
8925.167022 84.508 -13.3956
8989.842461 84.255 -17.7053
9054.986566 84.058 -21.9364
9120.602731 83.916 -26.0994
9186.694378 83.827 -30.2021
9253.264952 83.787 -34.2510
9320.317925 83.793 -38.2515
9387.856790 83.840 -42.2084
9455.885071 83.924 -46.1274
9524.406312 84.039 -50.0142
9593.424086 84.181 -53.8748
9662.941992 84.345 -57.7159
9732.963653 84.526 -61.5449
9803.492719 84.722 -65.3702
9874.532869 84.927 -69.2020
9946.087805 85.138 -73.0526
10018.161257 85.352 -76.9351
10090.756983 85.562 -80.8616
10163.878768 85.766 -84.8407
10237.530423 85.957 -88.8762
10311.715789 86.132 -92.9682
10386.438732 86.287 -97.1132
10461.703149 86.419 -101.3054
10537.512962 86.524 -105.5364
10613.872125 86.600 -109.7957
10690.784618 86.645 -114.0704
10768.254450 86.657 -118.3461
10846.285661 86.636 -122.6074
10924.882318 86.581 -126.8397
11004.048518 86.494 -131.0307
11083.788390 86.374 -135.1709
11164.106090 86.222 -139.2549
11245.005805 86.041 -143.2808
11326.491752 85.829 -147.2490
11408.568180 85.585 -151.1597
11491.239368 85.307 -155.0083
11574.509626 84.993 -158.7814
11658.383294 84.637 -162.4526
11742.864745 84.237 -165.9803
11827.958384 83.790 -169.3090
11913.668646 83.297 -172.3734
12000.000000 82.762 -175.1057
12086.956947 82.193 -177.4448
12174.544019 81.599 -179.3445
12262.765784 80.994 179.2205
12351.626840 80.392 178.2517
12441.131819 79.808 177.7275
12531.285389 79.252 177.6078
12622.092249 78.735 177.8400
12713.557132 78.264 178.3661
12805.684808 77.842 179.1289
12898.480079 77.473 -179.9235
12991.947783 77.156 -178.8358
13086.092792 76.891 -177.6455
13180.920015 76.678 -176.3834
13276.434395 76.515 -175.0768
13372.640911 76.402 -173.7531
13469.544580 76.339 -172.4434
13567.150452 76.324 -171.1840
13665.463617 76.355 -170.0137
13764.489200 76.428 -168.9669
13864.232362 76.538 -168.0663
13964.698305 76.682 -167.3238
14065.892266 76.857 -166.7523
14167.819519 77.063 -166.3767
14270.485380 77.296 -166.2358
14373.895200 77.552 -166.3760
14478.054370 77.825 -166.8408
14582.968320 78.106 -167.6636
14688.642520 78.387 -168.8665
14795.082478 78.661 -170.4686
14902.293745 78.918 -172.4981
15010.281908 79.147 -174.9944
15119.052599 79.326 -177.9865
15228.611486 79.433 178.5431
15338.964283 79.442 174.6760
15450.116741 79.336 170.5480
15562.074656 79.102 166.3241
15674.843864 78.740 162.1731
15788.430244 78.253 158.2485
15902.839718 77.653 154.6758
16018.078250 76.952 151.5456
16134.151848 76.167 148.9111
16251.066563 75.313 146.7855
16368.828491 74.408 145.1389
16487.443769 73.467 143.8982
16606.918584 72.500 142.9561
16727.259161 71.513 142.1951
16848.471777 70.501 141.5120
16970.562748 69.460 140.8250
17093.538442 68.381 140.0627
17217.405268 67.255 139.1464
17342.169684 66.072 137.9751
17467.838194 64.826 136.4101
17594.417350 63.507 134.2500
17721.913751 62.113 131.1819
17850.334044 60.650 126.6731
17979.684923 59.149 119.7253
18109.973131 57.687 108.3160
18241.205462 56.411 88.5675
18373.388756 55.532 57.6242
18506.529905 55.205 25.9146
18640.635849 55.399 4.5767
18775.713581 55.924 -8.9041
18911.770141 56.580 -18.5236
19048.812624 57.236 -26.3966
19186.848172 57.828 -33.5439
19325.883983 58.332 -40.4386
19465.927305 58.741 -47.2125
19606.985439 59.056 -53.7157
19749.065738 59.284 -59.5352
19892.175609 59.429 -64.0460
20036.322514 59.500 -66.5527
