* Measurement data measured by REW V5.31.3
* Source: Headset (CX31993 HIFI AUDIO), MICROPHONE (Master Volume), R, volume: 0.250
* Format: 256k Log Swept Sine, 1 sweep at -12.0 dBFS with no timing reference
* Dated: 01 20, 25 11:20:04 AM
* REW Settings:
*  C-weighting compensation: Off
*  Target level: 75.0 dB
* Note: ; 
* Measurement: Quarks2 No DSP L
* Smoothing: 1/12 octave
* Frequency Step: 96 ppo
* Start Frequency: 0.36621094 Hz
*
* Freq(Hz) SPL(dB) Phase(degrees)
0.366211 62.315 12.6244
0.368865 62.344 12.5378
0.371538 62.385 12.4097
0.374230 62.437 12.2519
0.376942 62.495 12.0744
0.379673 62.557 11.8843
0.382424 62.622 11.6866
0.385196 62.688 11.4842
0.387987 62.756 11.2788
0.390798 62.824 11.0713
0.393630 62.893 10.8624
0.396483 62.963 10.6524
0.399356 63.033 10.4413
0.402250 63.103 10.2293
0.405165 63.174 10.0166
0.408101 63.246 9.8030
0.411058 63.318 9.5887
0.414037 63.391 9.3738
0.417037 63.464 9.1582
0.420059 63.538 8.9419
0.423103 63.612 8.7251
0.426169 63.687 8.5077
0.429257 63.762 8.2897
0.432368 63.838 8.0713
0.435501 63.915 7.8523
0.438656 63.992 7.6329
0.441835 64.069 7.4130
0.445037 64.147 7.1927
0.448262 64.226 6.9719
0.451510 64.305 6.7508
0.454782 64.385 6.5292
0.458077 64.466 6.3073
0.461397 64.547 6.0850
0.464740 64.628 5.8622
0.468108 64.711 5.6391
0.471500 64.793 5.4157
0.474917 64.877 5.1918
0.478358 64.961 4.9675
0.481825 65.045 4.7428
0.485316 65.131 4.5178
0.488833 65.216 4.2922
0.492375 65.303 4.0663
0.495943 65.390 3.8399
0.499537 65.478 3.6130
0.503157 65.566 3.3855
0.506803 65.655 3.1576
0.510475 65.745 2.9291
0.514175 65.835 2.7000
0.517900 65.926 2.4703
0.521653 66.018 2.2399
0.525434 66.110 2.0088
0.529241 66.203 1.7770
0.533076 66.296 1.5444
0.536939 66.391 1.3110
0.540830 66.486 1.0767
0.544749 66.581 0.8415
0.548696 66.678 0.6053
0.552673 66.775 0.3680
0.556677 66.873 0.1297
0.560711 66.971 -0.1098
0.564774 67.070 -0.3504
0.568867 67.170 -0.5924
0.572989 67.271 -0.8357
0.577141 67.372 -1.0804
0.581324 67.474 -1.3267
0.585536 67.577 -1.5744
0.589779 67.681 -1.8238
0.594053 67.785 -2.0750
0.598358 67.890 -2.3279
0.602694 67.996 -2.5827
0.607061 68.103 -2.8395
0.611460 68.210 -3.0983
0.615891 68.318 -3.3593
0.620354 68.427 -3.6226
0.624849 68.537 -3.8882
0.629377 68.648 -4.1562
0.633938 68.759 -4.4268
0.638532 68.871 -4.7000
0.643159 68.984 -4.9760
0.647819 69.098 -5.2549
0.652514 69.213 -5.5367
0.657242 69.328 -5.8217
0.662005 69.444 -6.1099
0.666802 69.562 -6.4014
0.671634 69.680 -6.6964
0.676501 69.798 -6.9950
0.681403 69.918 -7.2973
0.686341 70.039 -7.6035
0.691314 70.160 -7.9137
0.696324 70.282 -8.2280
0.701370 70.405 -8.5466
0.706452 70.528 -8.8694
0.711571 70.651 -9.1966
0.716728 70.774 -9.5282
0.721921 70.895 -9.8639
0.727153 71.015 -10.2035
0.732422 71.132 -10.5465
0.737729 71.246 -10.8923
0.743075 71.357 -11.2403
0.748460 71.466 -11.5898
0.753883 71.573 -11.9404
0.759346 71.680 -12.2917
0.764849 71.785 -12.6435
0.770391 71.890 -12.9956
0.775974 71.995 -13.3479
0.781597 72.099 -13.7001
0.787261 72.203 -14.0523
0.792966 72.307 -14.4044
0.798712 72.411 -14.7563
0.804500 72.514 -15.1080
0.810329 72.618 -15.4594
0.816201 72.721 -15.8105
0.822116 72.824 -16.1612
0.828073 72.927 -16.5116
0.834074 73.029 -16.8617
0.840118 73.132 -17.2114
0.846206 73.234 -17.5608
0.852338 73.336 -17.9099
0.858514 73.438 -18.2586
0.864735 73.540 -18.6071
0.871001 73.641 -18.9554
0.877313 73.743 -19.3035
0.883670 73.844 -19.6514
0.890074 73.946 -19.9993
0.896524 74.047 -20.3472
0.903020 74.148 -20.6952
0.909564 74.248 -21.0433
0.916155 74.349 -21.3916
0.922794 74.450 -21.7403
0.929481 74.551 -22.0894
0.936216 74.651 -22.4391
0.943000 74.752 -22.7894
0.949834 74.852 -23.1405
0.956717 74.953 -23.4925
0.963649 75.053 -23.8456
0.970632 75.154 -24.1998
0.977666 75.254 -24.5554
0.984750 75.355 -24.9124
0.991886 75.456 -25.2711
0.999074 75.557 -25.6315
1.006314 75.658 -25.9940
1.013606 75.759 -26.3586
1.020951 75.860 -26.7256
1.028349 75.962 -27.0951
1.035801 76.063 -27.4674
1.043307 76.165 -27.8426
1.050867 76.268 -28.2211
1.058482 76.370 -28.6029
1.066152 76.473 -28.9884
1.073878 76.576 -29.3777
1.081660 76.680 -29.7711
1.089498 76.784 -30.1688
1.097393 76.887 -30.5709
1.105345 76.991 -30.9775
1.113355 77.095 -31.3885
1.121423 77.199 -31.8040
1.129549 77.302 -32.2236
1.137734 77.405 -32.6472
1.145979 77.508 -33.0746
1.154283 77.610 -33.5055
1.162647 77.712 -33.9396
1.171072 77.813 -34.3768
1.179558 77.914 -34.8167
1.188106 78.015 -35.2590
1.196715 78.116 -35.7037
1.205387 78.216 -36.1504
1.214122 78.316 -36.5990
1.222920 78.415 -37.0491
1.231782 78.514 -37.5007
1.240708 78.613 -37.9535
1.249699 78.711 -38.4074
1.258754 78.809 -38.8621
1.267876 78.907 -39.3175
1.277063 79.005 -39.7734
1.286318 79.102 -40.2298
1.295639 79.199 -40.6864
1.305027 79.296 -41.1431
1.314484 79.393 -41.5998
1.324009 79.490 -42.0564
1.333604 79.586 -42.5128
1.343268 79.682 -42.9689
1.353002 79.779 -43.4246
1.362806 79.875 -43.8799
1.372681 79.971 -44.3347
1.382628 80.067 -44.7889
1.392647 80.162 -45.2425
1.402739 80.258 -45.6955
1.412904 80.354 -46.1480
1.423142 80.450 -46.5999
1.433455 80.547 -47.0516
1.443843 80.643 -47.5031
1.454305 80.739 -47.9548
1.464844 80.835 -48.4072
1.475459 80.930 -48.8607
1.486150 81.026 -49.3159
1.496920 81.121 -49.7729
1.507767 81.215 -50.2321
1.518693 81.309 -50.6935
1.529698 81.403 -51.1570
1.540783 81.496 -51.6226
1.551948 81.588 -52.0902
1.563194 81.680 -52.5596
1.574521 81.772 -53.0307
1.585931 81.863 -53.5034
1.597423 81.954 -53.9775
1.608999 82.044 -54.4530
1.620658 82.133 -54.9297
1.632402 82.222 -55.4075
1.644232 82.311 -55.8864
1.656146 82.400 -56.3663
1.668147 82.488 -56.8470
1.680235 82.575 -57.3285
1.692411 82.662 -57.8108
1.704675 82.749 -58.2938
1.717028 82.836 -58.7775
1.729470 82.923 -59.2619
1.742003 83.009 -59.7469
1.754626 83.095 -60.2327
1.767341 83.181 -60.7192
1.780147 83.266 -61.2066
1.793047 83.352 -61.6952
1.806040 83.437 -62.1852
1.819128 83.522 -62.6773
1.832310 83.606 -63.1720
1.845587 83.691 -63.6699
1.858961 83.774 -64.1718
1.872432 83.858 -64.6778
1.886001 83.940 -65.1882
1.899667 84.022 -65.7027
1.913433 84.103 -66.2213
1.927299 84.184 -66.7435
1.941265 84.264 -67.2690
1.955332 84.344 -67.7973
1.969501 84.422 -68.3280
1.983773 84.500 -68.8607
1.998148 84.578 -69.3950
2.012627 84.655 -69.9304
2.027212 84.732 -70.4666
2.041902 84.808 -71.0030
2.056698 84.884 -71.5394
2.071602 84.959 -72.0752
2.086614 85.033 -72.6103
2.101734 85.108 -73.1441
2.116964 85.182 -73.6766
2.132304 85.256 -74.2074
2.147756 85.329 -74.7366
2.163320 85.402 -75.2643
2.178996 85.475 -75.7909
2.194786 85.547 -76.3172
2.210690 85.619 -76.8439
2.226710 85.690 -77.3720
2.242845 85.760 -77.9023
2.259098 85.830 -78.4350
2.275468 85.899 -78.9704
2.291957 85.967 -79.5082
2.308566 86.035 -80.0483
2.325295 86.102 -80.5903
2.342145 86.168 -81.1337
2.359117 86.234 -81.6781
2.376212 86.299 -82.2231
2.393431 86.363 -82.7681
2.410775 86.427 -83.3128
2.428244 86.491 -83.8565
2.445840 86.553 -84.3988
2.463564 86.616 -84.9394
2.481416 86.678 -85.4777
2.499397 86.740 -86.0136
2.517509 86.801 -86.5470
2.535752 86.862 -87.0778
2.554127 86.922 -87.6067
2.572635 86.982 -88.1341
2.591277 87.042 -88.6609
2.610055 87.101 -89.1877
2.628968 87.159 -89.7152
2.648019 87.216 -90.2434
2.667208 87.273 -90.7724
2.686535 87.329 -91.3022
2.706003 87.384 -91.8323
2.725612 87.439 -92.3626
2.745363 87.493 -92.8927
2.765257 87.547 -93.4221
2.785295 87.600 -93.9506
2.805478 87.653 -94.4775
2.825808 87.705 -95.0027
2.846285 87.757 -95.5257
2.866910 87.809 -96.0462
2.887685 87.860 -96.5643
2.908611 87.911 -97.0798
2.929688 87.962 -97.5932
2.950917 88.012 -98.1048
2.972301 88.062 -98.6153
2.993839 88.111 -99.1249
3.015534 88.160 -99.6341
3.037386 88.208 -100.1428
3.059396 88.255 -100.6511
3.081565 88.302 -101.1588
3.103896 88.349 -101.6657
3.126388 88.395 -102.1717
3.149043 88.441 -102.6763
3.171862 88.487 -103.1794
3.194847 88.532 -103.6807
3.217998 88.577 -104.1799
3.241317 88.622 -104.6768
3.264805 88.667 -105.1714
3.288463 88.711 -105.6637
3.312293 88.755 -106.1539
3.336295 88.799 -106.6422
3.360471 88.843 -107.1288
3.384822 88.886 -107.6142
3.409350 88.929 -108.0983
3.434056 88.971 -108.5814
3.458940 89.013 -109.0635
3.484005 89.055 -109.5447
3.509252 89.097 -110.0249
3.534681 89.139 -110.5042
3.560295 89.180 -110.9826
3.586094 89.221 -111.4601
3.612081 89.262 -111.9367
3.638255 89.303 -112.4124
3.664620 89.343 -112.8873
3.691175 89.384 -113.3615
3.717923 89.424 -113.8351
3.744864 89.464 -114.3082
3.772001 89.504 -114.7810
3.799335 89.544 -115.2534
3.826866 89.583 -115.7255
3.854597 89.623 -116.1973
3.882529 89.662 -116.6690
3.910664 89.700 -117.1404
3.939002 89.739 -117.6117
3.967546 89.777 -118.0829
3.996296 89.815 -118.5541
4.025255 89.853 -119.0253
4.054423 89.891 -119.4968
4.083804 89.928 -119.9686
4.113396 89.965 -120.4408
4.143204 90.002 -120.9134
4.173227 90.039 -121.3864
4.203468 90.075 -121.8597
4.233928 90.111 -122.3334
4.264609 90.146 -122.8073
4.295512 90.182 -123.2815
4.326639 90.216 -123.7559
4.357992 90.251 -124.2307
4.389572 90.285 -124.7059
4.421380 90.319 -125.1818
4.453419 90.352 -125.6584
4.485691 90.385 -126.1359
4.518196 90.417 -126.6142
4.550936 90.449 -127.0931
4.583914 90.480 -127.5723
4.617131 90.511 -128.0516
4.650589 90.542 -128.5308
4.684289 90.571 -129.0096
4.718233 90.601 -129.4880
4.752424 90.630 -129.9659
4.786862 90.658 -130.4436
4.821549 90.686 -130.9212
4.856488 90.713 -131.3987
4.891680 90.739 -131.8761
4.927127 90.765 -132.3532
4.962831 90.790 -132.8297
4.998794 90.815 -133.3053
5.035017 90.839 -133.7796
5.071503 90.863 -134.2523
5.108253 90.886 -134.7235
5.145270 90.909 -135.1930
5.182555 90.931 -135.6610
5.220110 90.952 -136.1275
5.257937 90.973 -136.5927
5.296038 90.994 -137.0562
5.334415 91.013 -137.5182
5.373071 91.033 -137.9781
5.412006 91.052 -138.4360
5.451224 91.070 -138.8915
5.490725 91.088 -139.3446
5.530514 91.106 -139.7953
5.570590 91.123 -140.2435
5.610957 91.140 -140.6895
5.651616 91.157 -141.1333
5.692570 91.173 -141.5748
5.733821 91.189 -142.0143
5.775370 91.204 -142.4515
5.817221 91.220 -142.8866
5.859375 91.235 -143.3194
5.901834 91.250 -143.7501
5.944602 91.264 -144.1785
5.987679 91.279 -144.6050
6.031068 91.293 -145.0296
6.074771 91.307 -145.4525
6.118792 91.321 -145.8740
6.163131 91.335 -146.2942
6.207792 91.349 -146.7132
6.252776 91.362 -147.1311
6.298086 91.376 -147.5480
6.343725 91.389 -147.9639
6.389694 91.402 -148.3789
6.435996 91.415 -148.7932
6.482634 91.428 -149.2071
6.529610 91.440 -149.6205
6.576926 91.452 -150.0338
6.624585 91.464 -150.4469
6.672590 91.476 -150.8600
6.720942 91.488 -151.2730
6.769645 91.499 -151.6859
6.818700 91.510 -152.0987
6.868111 91.521 -152.5115
6.917881 91.531 -152.9242
6.968010 91.541 -153.3369
7.018504 91.550 -153.7496
7.069362 91.560 -154.1623
7.120590 91.568 -154.5747
7.172189 91.576 -154.9868
7.224161 91.584 -155.3984
7.276511 91.591 -155.8093
7.329239 91.598 -156.2195
7.382350 91.604 -156.6288
7.435845 91.610 -157.0372
7.489729 91.615 -157.4445
7.544002 91.620 -157.8505
7.598669 91.624 -158.2551
7.653732 91.628 -158.6581
7.709194 91.632 -159.0594
7.765058 91.635 -159.4588
7.821327 91.637 -159.8564
7.878004 91.639 -160.2520
7.935091 91.641 -160.6456
7.992592 91.642 -161.0372
8.050510 91.643 -161.4266
8.108847 91.644 -161.8139
8.167607 91.644 -162.1991
8.226793 91.644 -162.5822
8.286408 91.644 -162.9634
8.346454 91.644 -163.3427
8.406936 91.643 -163.7202
8.467856 91.643 -164.0961
8.529218 91.642 -164.4704
8.591024 91.641 -164.8432
8.653278 91.639 -165.2147
8.715983 91.638 -165.5851
8.779143 91.636 -165.9545
8.842760 91.634 -166.3231
8.906839 91.632 -166.6908
8.971381 91.630 -167.0579
9.036392 91.628 -167.4244
9.101873 91.625 -167.7905
9.167829 91.622 -168.1561
9.234263 91.619 -168.5213
9.301178 91.616 -168.8862
9.368578 91.612 -169.2507
9.436467 91.608 -169.6147
9.504847 91.603 -169.9783
9.573723 91.598 -170.3414
9.643099 91.593 -170.7038
9.712976 91.587 -171.0657
9.783361 91.581 -171.4267
9.854255 91.575 -171.7869
9.925663 91.568 -172.1461
9.997588 91.561 -172.5042
10.070035 91.554 -172.8612
10.143007 91.546 -173.2169
10.216507 91.537 -173.5713
10.290540 91.529 -173.9242
10.365109 91.520 -174.2757
10.440219 91.510 -174.6257
10.515873 91.501 -174.9742
10.592076 91.491 -175.3212
10.668830 91.481 -175.6666
10.746141 91.470 -176.0105
10.824012 91.459 -176.3529
10.902447 91.448 -176.6938
10.981451 91.437 -177.0333
11.061027 91.425 -177.3714
11.141180 91.414 -177.7081
11.221913 91.401 -178.0435
11.303232 91.389 -178.3776
11.385140 91.377 -178.7104
11.467641 91.364 -179.0420
11.550741 91.351 -179.3723
11.634442 91.338 -179.7014
11.718750 91.324 179.9706
11.803669 91.310 179.6439
11.889203 91.296 179.3183
11.975357 91.282 178.9938
12.062136 91.268 178.6706
12.149543 91.253 178.3484
12.237583 91.238 178.0274
12.326262 91.223 177.7074
12.415583 91.208 177.3885
12.505552 91.193 177.0707
12.596172 91.177 176.7538
12.687449 91.161 176.4380
12.779387 91.145 176.1231
12.871992 91.128 175.8092
12.965268 91.112 175.4962
13.059220 91.095 175.1842
13.153852 91.078 174.8731
13.249170 91.060 174.5630
13.345179 91.042 174.2540
13.441884 91.024 173.9460
13.539289 91.006 173.6391
13.637401 90.988 173.3334
13.736223 90.969 173.0290
13.835761 90.950 172.7259
13.936021 90.931 172.4241
14.037007 90.911 172.1238
14.138725 90.891 171.8250
14.241180 90.871 171.5276
14.344377 90.851 171.2318
14.448323 90.830 170.9374
14.553021 90.809 170.6446
14.658478 90.788 170.3533
14.764700 90.767 170.0635
14.871691 90.745 169.7751
14.979457 90.724 169.4881
15.088005 90.702 169.2025
15.197339 90.679 168.9183
15.307465 90.657 168.6355
15.418389 90.634 168.3541
15.530117 90.612 168.0740
15.642655 90.589 167.7954
15.756008 90.565 167.5182
15.870182 90.542 167.2426
15.985184 90.518 166.9684
16.101019 90.494 166.6957
16.217694 90.470 166.4246
16.335214 90.445 166.1551
16.453586 90.420 165.8872
16.572815 90.395 165.6208
16.692909 90.370 165.3561
16.813872 90.345 165.0930
16.935713 90.319 164.8313
17.058436 90.293 164.5712
17.182048 90.267 164.3126
17.306556 90.241 164.0555
17.431967 90.215 163.7999
17.558286 90.188 163.5459
17.685521 90.161 163.2933
17.813677 90.134 163.0422
17.942762 90.107 162.7927
18.072783 90.079 162.5447
18.203746 90.052 162.2982
18.335658 90.024 162.0530
18.468526 89.996 161.8094
18.602356 89.967 161.5671
18.737156 89.939 161.3260
18.872934 89.910 161.0862
19.009695 89.881 160.8477
19.147447 89.852 160.6102
19.286197 89.823 160.3738
19.425953 89.794 160.1386
19.566721 89.764 159.9047
19.708510 89.734 159.6720
19.851326 89.704 159.4409
19.995177 89.673 159.2115
20.140070 89.642 158.9841
20.286013 89.611 158.7587
20.433014 89.580 158.5356
20.581080 89.548 158.3148
20.730219 89.517 158.0965
20.880439 89.485 157.8805
21.031747 89.453 157.6665
21.184152 89.422 157.4543
21.337661 89.390 157.2436
21.492282 89.358 157.0338
21.648024 89.327 156.8245
21.804895 89.295 156.6153
21.962902 89.264 156.4059
22.122054 89.232 156.1963
22.282360 89.199 155.9865
22.443827 89.167 155.7770
22.606464 89.134 155.5684
22.770280 89.100 155.3613
22.935283 89.066 155.1566
23.101481 89.031 154.9552
23.268884 88.996 154.7578
23.437500 88.961 154.5646
23.607338 88.926 154.3759
23.778406 88.890 154.1913
23.950714 88.855 154.0101
24.124271 88.821 153.8312
24.299086 88.786 153.6537
24.475167 88.752 153.4765
24.652524 88.718 153.2988
24.831166 88.684 153.1201
25.011103 88.649 152.9406
25.192344 88.614 152.7609
25.374898 88.579 152.5820
25.558775 88.543 152.4054
25.743984 88.506 152.2321
25.930536 88.469 152.0632
26.118439 88.432 151.8992
26.307704 88.396 151.7397
26.498341 88.359 151.5840
26.690359 88.323 151.4304
26.883768 88.288 151.2770
27.078579 88.252 151.1221
27.274801 88.218 150.9643
27.472446 88.183 150.8027
27.671522 88.147 150.6375
27.872042 88.111 150.4696
28.074014 88.074 150.3008
28.277450 88.036 150.1331
28.482360 87.997 149.9688
28.688755 87.957 149.8096
28.896645 87.917 149.6567
29.106042 87.876 149.5107
29.316957 87.836 149.3709
29.529400 87.795 149.2366
29.743382 87.756 149.1062
29.958915 87.716 148.9783
30.176009 87.677 148.8516
30.394677 87.639 148.7253
30.614929 87.601 148.5987
30.836778 87.562 148.4719
31.060234 87.524 148.3449
31.285309 87.486 148.2182
31.512015 87.447 148.0919
31.740364 87.408 147.9664
31.970368 87.369 147.8420
32.202039 87.330 147.7189
32.435388 87.291 147.5972
32.670428 87.252 147.4770
32.907171 87.212 147.3586
33.145630 87.172 147.2422
33.385817 87.132 147.1277
33.627745 87.092 147.0155
33.871425 87.052 146.9058
34.116871 87.012 146.7986
34.364096 86.971 146.6943
34.613113 86.931 146.5931
34.863934 86.890 146.4949
35.116572 86.850 146.3998
35.371041 86.809 146.3073
35.627354 86.769 146.2169
35.885525 86.729 146.1277
36.145566 86.689 146.0393
36.407492 86.650 145.9513
36.671316 86.610 145.8636
36.937051 86.570 145.7766
37.204712 86.530 145.6905
37.474313 86.490 145.6058
37.745867 86.450 145.5229
38.019389 86.409 145.4417
38.294893 86.369 145.3619
38.572394 86.329 145.2834
38.851905 86.288 145.2060
39.133442 86.247 145.1300
39.417019 86.206 145.0558
39.702651 86.165 144.9838
39.990353 86.124 144.9144
40.280140 86.083 144.8477
40.572026 86.042 144.7833
40.866028 86.001 144.7208
41.162160 85.960 144.6599
41.460438 85.919 144.6003
41.760877 85.878 144.5420
42.063494 85.836 144.4854
42.368303 85.795 144.4309
42.675322 85.754 144.3785
42.984565 85.713 144.3282
43.296048 85.671 144.2796
43.609789 85.630 144.2321
43.925804 85.589 144.1856
44.244108 85.548 144.1399
44.564719 85.507 144.0953
44.887654 85.466 144.0521
45.212928 85.425 144.0104
45.540560 85.384 143.9704
45.870565 85.343 143.9317
46.202962 85.302 143.8940
46.537768 85.261 143.8569
46.875000 85.220 143.8208
47.214676 85.179 143.7859
47.556813 85.138 143.7527
47.901429 85.097 143.7219
48.248542 85.056 143.6937
48.598171 85.015 143.6682
48.950334 84.974 143.6450
49.305048 84.933 143.6238
49.662333 84.892 143.6044
50.022206 84.851 143.5865
50.384688 84.811 143.5701
50.749796 84.770 143.5550
51.117550 84.730 143.5412
51.487969 84.689 143.5287
51.861072 84.649 143.5173
52.236879 84.608 143.5071
52.615409 84.568 143.4981
52.996681 84.528 143.4901
53.380717 84.487 143.4832
53.767536 84.447 143.4773
54.157158 84.407 143.4725
54.549603 84.367 143.4688
54.944892 84.327 143.4664
55.343045 84.287 143.4652
55.744084 84.247 143.4654
56.148028 84.207 143.4670
56.554900 84.167 143.4706
56.964720 84.127 143.4764
57.377510 84.087 143.4846
57.793291 84.048 143.4949
58.212085 84.008 143.5064
58.633914 83.969 143.5185
59.058799 83.929 143.5313
59.486764 83.889 143.5458
59.917829 83.849 143.5631
60.352019 83.809 143.5840
60.789354 83.769 143.6085
61.229859 83.729 143.6354
61.673556 83.690 143.6637
62.120468 83.651 143.6923
62.570618 83.612 143.7209
63.024031 83.573 143.7496
63.480729 83.535 143.7786
63.940736 83.496 143.8080
64.404077 83.458 143.8384
64.870776 83.420 143.8706
65.340856 83.381 143.9052
65.814343 83.343 143.9424
66.291261 83.306 143.9821
66.771635 83.268 144.0238
67.255489 83.231 144.0675
67.742850 83.195 144.1129
68.233743 83.158 144.1592
68.728193 83.122 144.2042
69.226226 83.087 144.2454
69.727867 83.051 144.2816
70.233144 83.014 144.3146
70.742083 82.975 144.3485
71.254709 82.936 144.3878
71.771050 82.896 144.4350
72.291132 82.856 144.4897
72.814984 82.817 144.5496
73.342631 82.779 144.6117
73.874102 82.741 144.6739
74.409424 82.704 144.7352
74.948626 82.667 144.7955
75.491734 82.630 144.8554
76.038779 82.594 144.9157
76.589787 82.557 144.9770
77.144788 82.521 145.0395
77.703811 82.485 145.1033
78.266885 82.450 145.1686
78.834039 82.414 145.2360
79.405303 82.378 145.3055
79.980706 82.343 145.3770
80.560280 82.308 145.4500
81.144053 82.272 145.5239
81.732056 82.237 145.5984
82.324320 82.202 145.6732
82.920876 82.168 145.7481
83.521755 82.133 145.8230
84.126988 82.099 145.8977
84.736607 82.065 145.9723
85.350643 82.031 146.0466
85.969129 81.997 146.1209
86.592097 81.963 146.1954
87.219579 81.929 146.2706
87.851608 81.896 146.3473
88.488217 81.862 146.4260
89.129439 81.828 146.5068
89.775308 81.795 146.5897
90.425856 81.761 146.6744
91.081119 81.728 146.7607
91.741131 81.695 146.8481
92.405925 81.662 146.9357
93.075536 81.629 147.0233
93.750000 81.597 147.1108
94.429351 81.564 147.1986
95.113625 81.532 147.2871
95.802858 81.499 147.3759
96.497085 81.467 147.4642
97.196342 81.434 147.5521
97.900667 81.401 147.6401
98.610096 81.368 147.7294
99.324665 81.335 147.8204
100.044413 81.301 147.9131
100.769376 81.269 148.0072
101.499592 81.236 148.1025
102.235100 81.204 148.1993
102.975938 81.173 148.2975
103.722144 81.141 148.3978
104.473757 81.111 148.5004
105.230817 81.080 148.6055
105.993363 81.049 148.7129
106.761435 81.018 148.8217
107.535072 80.987 148.9307
108.314315 80.956 149.0388
109.099206 80.926 149.1451
109.889783 80.895 149.2501
110.686090 80.865 149.3549
111.488167 80.836 149.4617
112.296056 80.809 149.5726
113.109800 80.782 149.6900
113.929440 80.757 149.8159
114.755020 80.732 149.9517
115.586582 80.708 150.0976
116.424170 80.683 150.2525
117.267827 80.658 150.4135
118.117598 80.632 150.5733
118.973527 80.606 150.7195
119.835658 80.579 150.8397
120.704037 80.549 150.9324
121.578708 80.516 151.0089
122.459718 80.481 151.0818
123.347111 80.445 151.1578
124.240935 80.411 151.2391
125.141236 80.379 151.3264
126.048061 80.348 151.4200
126.961458 80.319 151.5208
127.881473 80.290 151.6293
128.808154 80.262 151.7451
129.741551 80.235 151.8669
130.681712 80.207 151.9924
131.628686 80.179 152.1186
132.582521 80.151 152.2422
133.543269 80.123 152.3607
134.510979 80.094 152.4732
135.485701 80.065 152.5804
136.467486 80.036 152.6847
137.456386 80.007 152.7897
138.452451 79.979 152.8997
139.455735 79.953 153.0179
140.466288 79.929 153.1435
141.484165 79.907 153.2737
142.509418 79.885 153.4080
143.542100 79.863 153.5498
144.582265 79.839 153.7006
145.629968 79.815 153.8574
146.685262 79.791 154.0143
147.748204 79.765 154.1664
148.818849 79.739 154.3116
149.897251 79.714 154.4500
150.983469 79.688 154.5836
152.077557 79.663 154.7153
153.179574 79.638 154.8481
154.289576 79.614 154.9837
155.407622 79.589 155.1231
156.533770 79.565 155.2664
157.668078 79.541 155.4129
158.810606 79.516 155.5610
159.961413 79.493 155.7084
161.120559 79.470 155.8532
162.288105 79.447 155.9946
163.464112 79.425 156.1321
164.648640 79.403 156.2664
165.841752 79.381 156.3990
167.043510 79.359 156.5320
168.253976 79.337 156.6670
169.473213 79.314 156.8041
170.701286 79.292 156.9435
171.938258 79.269 157.0850
173.184194 79.247 157.2284
174.439158 79.224 157.3734
175.703216 79.202 157.5192
176.976434 79.180 157.6650
178.258878 79.158 157.8102
179.550615 79.136 157.9540
180.851713 79.114 158.0964
182.162239 79.092 158.2387
183.482262 79.070 158.3824
184.811850 79.048 158.5290
186.151073 79.027 158.6791
187.500000 79.007 158.8328
188.858702 78.987 158.9891
190.227250 78.967 159.1470
191.605715 78.946 159.3058
192.994169 78.926 159.4644
194.392685 78.905 159.6216
195.801334 78.884 159.7760
197.220191 78.863 159.9270
198.649330 78.843 160.0750
200.088825 78.822 160.2214
201.538751 78.801 160.3674
202.999184 78.779 160.5145
204.470200 78.756 160.6632
205.951875 78.733 160.8145
207.444287 78.711 160.9685
208.947514 78.689 161.1257
210.461634 78.669 161.2844
211.986726 78.650 161.4406
213.522869 78.633 161.5914
215.070144 78.616 161.7391
216.628631 78.599 161.8894
218.198411 78.581 162.0470
219.779567 78.563 162.2122
221.372180 78.545 162.3820
222.976334 78.527 162.5528
224.592112 78.508 162.7221
226.219600 78.490 162.8886
227.858880 78.472 163.0519
229.510039 78.455 163.2122
231.173164 78.439 163.3701
232.848340 78.423 163.5272
234.535655 78.409 163.6854
236.235197 78.394 163.8459
237.947054 78.378 164.0092
239.671317 78.360 164.1750
241.408074 78.341 164.3442
243.157416 78.320 164.5159
244.919435 78.298 164.6881
246.694223 78.277 164.8593
248.481871 78.256 165.0300
250.282473 78.236 165.2014
252.096123 78.216 165.3746
253.922915 78.196 165.5502
255.762945 78.177 165.7280
257.616309 78.158 165.9073
259.483103 78.138 166.0874
261.363424 78.119 166.2678
263.257372 78.100 166.4485
265.165043 78.080 166.6292
267.086538 78.061 166.8098
269.021957 78.041 166.9899
270.971401 78.021 167.1693
272.934972 78.002 167.3483
274.912771 77.983 167.5280
276.904902 77.964 167.7100
278.911469 77.946 167.8953
280.932577 77.928 168.0846
282.968330 77.910 168.2780
285.018835 77.892 168.4747
287.084199 77.873 168.6738
289.164530 77.854 168.8749
291.259935 77.834 169.0788
293.370525 77.814 169.2864
295.496408 77.793 169.4987
297.637697 77.773 169.7164
299.794503 77.752 169.9396
301.966937 77.731 170.1678
304.155114 77.711 170.4008
306.359147 77.690 170.6384
308.579152 77.668 170.8823
310.815244 77.647 171.1354
313.067539 77.626 171.4016
315.336156 77.605 171.6853
317.621211 77.585 171.9900
319.922826 77.566 172.3177
322.241118 77.550 172.6688
324.576210 77.537 173.0424
326.928223 77.529 173.4372
329.297280 77.525 173.8500
331.683504 77.528 174.2735
334.087019 77.535 174.6960
336.507952 77.549 175.1046
338.946427 77.569 175.4857
341.402572 77.594 175.8257
343.876516 77.623 176.1132
346.368387 77.656 176.3424
348.878315 77.692 176.5151
351.406431 77.728 176.6373
353.952867 77.760 176.7158
356.517756 77.786 176.7574
359.101230 77.805 176.7696
361.703426 77.817 176.7639
364.324478 77.822 176.7548
366.964523 77.822 176.7535
369.623699 77.817 176.7670
372.302145 77.808 176.7985
375.000000 77.795 176.8481
377.717405 77.780 176.9146
380.454501 77.763 176.9968
383.211431 77.746 177.0947
385.988339 77.729 177.2072
388.785369 77.712 177.3321
391.602668 77.695 177.4664
394.440383 77.679 177.6083
397.298660 77.663 177.7577
400.177650 77.648 177.9162
403.077502 77.634 178.0845
405.998368 77.620 178.2618
408.940400 77.607 178.4472
411.903750 77.595 178.6401
414.888575 77.581 178.8390
417.895028 77.568 179.0412
420.923268 77.555 179.2447
423.973452 77.543 179.4513
427.045738 77.531 179.6644
430.140287 77.520 179.8835
433.257261 77.510 -179.8969
436.396822 77.500 -179.6821
439.559133 77.491 -179.4724
442.744360 77.481 -179.2648
445.952668 77.470 -179.0553
449.184225 77.459 -178.8407
452.439199 77.448 -178.6193
455.717760 77.436 -178.3904
459.020079 77.425 -178.1539
462.346327 77.414 -177.9107
465.696680 77.404 -177.6620
469.071310 77.394 -177.4092
472.470394 77.384 -177.1544
475.894109 77.375 -176.9000
479.342634 77.367 -176.6497
482.816148 77.360 -176.4066
486.314833 77.353 -176.1714
489.838871 77.347 -175.9415
493.388445 77.340 -175.7121
496.963741 77.334 -175.4792
500.564945 77.327 -175.2416
504.192245 77.320 -174.9999
507.845830 77.313 -174.7556
511.525890 77.306 -174.5089
515.232618 77.299 -174.2592
518.966206 77.293 -174.0055
522.726849 77.286 -173.7477
526.514743 77.280 -173.4864
530.330086 77.274 -173.2221
534.173076 77.268 -172.9556
538.043915 77.263 -172.6875
541.942803 77.257 -172.4183
545.869944 77.252 -172.1474
549.825542 77.247 -171.8739
553.809805 77.242 -171.5976
557.822939 77.237 -171.3184
561.865154 77.233 -171.0366
565.936660 77.229 -170.7523
570.037671 77.226 -170.4658
574.168399 77.222 -170.1776
578.329060 77.219 -169.8876
582.519870 77.216 -169.5956
586.741049 77.214 -169.3010
590.992817 77.211 -169.0034
595.275394 77.209 -168.7027
599.589005 77.207 -168.3993
603.933874 77.205 -168.0935
608.310228 77.203 -167.7853
612.718295 77.202 -167.4748
617.158304 77.201 -167.1618
621.630488 77.200 -166.8463
626.135079 77.200 -166.5279
630.672311 77.200 -166.2061
635.242423 77.201 -165.8814
639.845651 77.202 -165.5543
644.482237 77.203 -165.2253
649.152421 77.205 -164.8941
653.856447 77.207 -164.5596
658.594560 77.209 -164.2215
663.367008 77.212 -163.8796
668.174039 77.216 -163.5344
673.015903 77.220 -163.1862
677.892854 77.224 -162.8353
682.805145 77.229 -162.4815
687.753032 77.234 -162.1238
692.736774 77.240 -161.7617
697.756631 77.246 -161.3953
702.812863 77.253 -161.0254
707.905735 77.260 -160.6521
713.035511 77.268 -160.2758
718.202461 77.277 -159.8970
723.406852 77.286 -159.5166
728.648956 77.296 -159.1350
733.929047 77.307 -158.7518
739.247399 77.318 -158.3665
744.604290 77.330 -157.9781
750.000000 77.342 -157.5858
755.434809 77.356 -157.1890
760.909001 77.370 -156.7883
766.422861 77.385 -156.3839
771.976677 77.401 -155.9761
777.570739 77.419 -155.5650
783.205337 77.437 -155.1509
788.880766 77.455 -154.7345
794.597321 77.475 -154.3159
800.355301 77.496 -153.8953
806.155005 77.518 -153.4726
811.996736 77.540 -153.0476
817.880799 77.564 -152.6199
823.807501 77.589 -152.1893
829.777150 77.616 -151.7565
835.790057 77.643 -151.3228
841.846536 77.672 -150.8895
847.946903 77.702 -150.4573
854.091476 77.733 -150.0259
860.280575 77.766 -149.5946
866.514523 77.800 -149.1631
872.793644 77.835 -148.7314
879.118267 77.871 -148.2996
885.488720 77.910 -147.8677
891.905336 77.949 -147.4364
898.368450 77.991 -147.0072
904.878398 78.035 -146.5817
911.435520 78.080 -146.1609
918.040157 78.127 -145.7455
924.692655 78.176 -145.3355
931.393359 78.226 -144.9304
938.142619 78.276 -144.5298
944.940787 78.329 -144.1326
951.788218 78.382 -143.7386
958.685268 78.436 -143.3478
965.632296 78.490 -142.9612
972.629666 78.546 -142.5804
979.677741 78.603 -142.2068
986.776890 78.660 -141.8416
993.927482 78.718 -141.4852
1001.129891 78.777 -141.1374
1008.384491 78.837 -140.7982
1015.691660 78.898 -140.4677
1023.051781 78.959 -140.1459
1030.465236 79.022 -139.8326
1037.932411 79.085 -139.5280
1045.453698 79.148 -139.2322
1053.029486 79.212 -138.9455
1060.660172 79.277 -138.6682
1068.346153 79.342 -138.4002
1076.087829 79.407 -138.1414
1083.885605 79.472 -137.8917
1091.739887 79.537 -137.6511
1099.651084 79.602 -137.4196
1107.619609 79.667 -137.1971
1115.645878 79.732 -136.9833
1123.730308 79.796 -136.7780
1131.873321 79.861 -136.5805
1140.075341 79.925 -136.3901
1148.336797 79.988 -136.2062
1156.658119 80.051 -136.0283
1165.039741 80.114 -135.8562
1173.482099 80.176 -135.6897
1181.985634 80.237 -135.5286
1190.550789 80.298 -135.3723
1199.178011 80.358 -135.2206
1207.867749 80.418 -135.0735
1216.620457 80.477 -134.9316
1225.436590 80.536 -134.7950
1234.316609 80.594 -134.6632
1243.260976 80.652 -134.5354
1252.270157 80.709 -134.4107
1261.344623 80.766 -134.2885
1270.484846 80.822 -134.1684
1279.691303 80.878 -134.0498
1288.964474 80.933 -133.9325
1298.304842 80.988 -133.8161
1307.712894 81.041 -133.7006
1317.189120 81.094 -133.5859
1326.734016 81.147 -133.4718
1336.348077 81.198 -133.3578
1346.031806 81.249 -133.2433
1355.785708 81.300 -133.1280
1365.610290 81.350 -133.0118
1375.506065 81.400 -132.8947
1385.473549 81.450 -132.7766
1395.513261 81.499 -132.6573
1405.625726 81.547 -132.5365
1415.811469 81.596 -132.4144
1426.071023 81.644 -132.2921
1436.404921 81.693 -132.1713
1446.813703 81.742 -132.0542
1457.297912 81.790 -131.9427
1467.858093 81.839 -131.8380
1478.494798 81.887 -131.7409
1489.208581 81.935 -131.6511
1500.000000 81.982 -131.5679
1510.869618 82.030 -131.4899
1521.818002 82.079 -131.4154
1532.845723 82.127 -131.3430
1543.953355 82.177 -131.2714
1555.141477 82.226 -131.2001
1566.410674 82.276 -131.1286
1577.761531 82.326 -131.0565
1589.194642 82.377 -130.9837
1600.710601 82.429 -130.9106
1612.310010 82.481 -130.8375
1623.993473 82.533 -130.7649
1635.761599 82.586 -130.6930
1647.615002 82.640 -130.6218
1659.554299 82.694 -130.5513
1671.580114 82.749 -130.4816
1683.693072 82.805 -130.4127
1695.893807 82.861 -130.3450
1708.182952 82.918 -130.2785
1720.561150 82.976 -130.2135
1733.029045 83.035 -130.1504
1745.587288 83.094 -130.0892
1758.236533 83.155 -130.0301
1770.977440 83.216 -129.9735
1783.810673 83.278 -129.9198
1796.736900 83.341 -129.8696
1809.756796 83.405 -129.8232
1822.871040 83.470 -129.7810
1836.080315 83.536 -129.7430
1849.385310 83.602 -129.7095
1862.786718 83.670 -129.6806
1876.285239 83.738 -129.6566
1889.881575 83.807 -129.6380
1903.576436 83.878 -129.6249
1917.370535 83.949 -129.6176
1931.264593 84.021 -129.6163
1945.259332 84.094 -129.6215
1959.355483 84.169 -129.6334
1973.553781 84.244 -129.6528
1987.854965 84.320 -129.6800
2002.259781 84.398 -129.7156
2016.768981 84.476 -129.7600
2031.383320 84.556 -129.8137
2046.103561 84.636 -129.8769
2060.930471 84.717 -129.9500
2075.864823 84.799 -130.0335
2090.907395 84.882 -130.1277
2106.058972 84.966 -130.2333
2121.320344 85.051 -130.3508
2136.692305 85.136 -130.4812
2152.175658 85.222 -130.6249
2167.771210 85.309 -130.7826
2183.479774 85.396 -130.9546
2199.302169 85.484 -131.1410
2215.239219 85.573 -131.3421
2231.291755 85.662 -131.5585
2247.460615 85.752 -131.7906
2263.746641 85.843 -132.0392
2280.150683 85.933 -132.3050
2296.673595 86.025 -132.5887
2313.316238 86.116 -132.8908
2330.079481 86.207 -133.2119
2346.964198 86.299 -133.5523
2363.971268 86.390 -133.9126
2381.101578 86.481 -134.2933
2398.356022 86.572 -134.6946
2415.735498 86.662 -135.1172
2433.240913 86.752 -135.5615
2450.873180 86.841 -136.0282
2468.633217 86.929 -136.5175
2486.521951 87.016 -137.0298
2504.540314 87.101 -137.5655
2522.689246 87.185 -138.1246
2540.969692 87.268 -138.7073
2559.382606 87.349 -139.3139
2577.928947 87.428 -139.9443
2596.609683 87.504 -140.5985
2615.425787 87.578 -141.2764
2634.378241 87.650 -141.9776
2653.468031 87.718 -142.7020
2672.696154 87.784 -143.4493
2692.063613 87.846 -144.2189
2711.571415 87.905 -145.0100
2731.220579 87.960 -145.8218
2751.012130 88.010 -146.6530
2770.947098 88.057 -147.5025
2791.026522 88.099 -148.3688
2811.251451 88.136 -149.2507
2831.622938 88.169 -150.1469
2852.142045 88.196 -151.0561
2872.809842 88.218 -151.9766
2893.627406 88.235 -152.9068
2914.595823 88.247 -153.8448
2935.716186 88.253 -154.7884
2956.989596 88.253 -155.7356
2978.417161 88.247 -156.6842
3000.000000 88.236 -157.6321
3021.739237 88.219 -158.5771
3043.636005 88.195 -159.5169
3065.691446 88.166 -160.4492
3087.906710 88.132 -161.3716
3110.282955 88.091 -162.2816
3132.821347 88.045 -163.1771
3155.523062 87.994 -164.0557
3178.389283 87.937 -164.9152
3201.421202 87.875 -165.7532
3224.620020 87.809 -166.5672
3247.986946 87.738 -167.3551
3271.523198 87.662 -168.1148
3295.230004 87.583 -168.8442
3319.108599 87.500 -169.5416
3343.160228 87.415 -170.2055
3367.386145 87.327 -170.8350
3391.787613 87.237 -171.4299
3416.365904 87.147 -171.9911
3441.122300 87.056 -172.5208
3466.058091 86.965 -173.0224
3491.174576 86.875 -173.5000
3516.473066 86.786 -173.9585
3541.954880 86.698 -174.4025
3567.621345 86.610 -174.8359
3593.473800 86.522 -175.2611
3619.513592 86.433 -175.6793
3645.742080 86.344 -176.0896
3672.160630 86.252 -176.4903
3698.770620 86.159 -176.8787
3725.573436 86.063 -177.2520
3752.570477 85.965 -177.6075
3779.763150 85.865 -177.9426
3807.152872 85.764 -178.2555
3834.741071 85.661 -178.5446
3862.529185 85.557 -178.8090
3890.518664 85.452 -179.0481
3918.710966 85.346 -179.2618
3947.107561 85.240 -179.4503
3975.709929 85.134 -179.6136
4004.519563 85.028 -179.7517
4033.537962 84.922 -179.8642
4062.766641 84.816 -179.9509
4092.207123 84.711 179.9886
4121.860942 84.606 179.9542
4151.729646 84.503 179.9457
4181.814790 84.401 179.9629
4212.117944 84.301 -179.9954
4242.640687 84.203 -179.9305
4273.384610 84.108 -179.8444
4304.351317 84.015 -179.7394
4335.542421 83.924 -179.6177
4366.959549 83.837 -179.4814
4398.604338 83.752 -179.3323
4430.478438 83.670 -179.1719
4462.583511 83.590 -179.0014
4494.921231 83.513 -178.8219
4527.493283 83.438 -178.6343
4560.301365 83.365 -178.4394
4593.347189 83.295 -178.2376
4626.632476 83.226 -178.0288
4660.158962 83.160 -177.8129
4693.928395 83.095 -177.5895
4727.942535 83.033 -177.3585
4762.203156 82.972 -177.1197
4796.712043 82.914 -176.8730
4831.470996 82.857 -176.6182
4866.481826 82.803 -176.3553
4901.746360 82.751 -176.0848
4937.266434 82.702 -175.8074
4973.043902 82.656 -175.5242
5009.080628 82.612 -175.2363
5045.378492 82.571 -174.9447
5081.939384 82.533 -174.6501
5118.765212 82.498 -174.3533
5155.857894 82.466 -174.0549
5193.219366 82.436 -173.7551
5230.851574 82.409 -173.4540
5268.756481 82.384 -173.1517
5306.936062 82.363 -172.8483
5345.392309 82.344 -172.5441
5384.127225 82.328 -172.2397
5423.142830 82.315 -171.9355
5462.441159 82.306 -171.6324
5502.024259 82.300 -171.3310
5541.894195 82.297 -171.0324
5582.053045 82.299 -170.7381
5622.502902 82.303 -170.4497
5663.245876 82.312 -170.1689
5704.284090 82.325 -169.8974
5745.619684 82.341 -169.6361
5787.254813 82.361 -169.3859
5829.191647 82.385 -169.1474
5871.432373 82.412 -168.9213
5913.979192 82.443 -168.7086
5956.834323 82.479 -168.5103
6000.000000 82.518 -168.3280
6043.478473 82.562 -168.1634
6087.272010 82.609 -168.0189
6131.382892 82.662 -167.8974
6175.813420 82.719 -167.8022
6220.565910 82.781 -167.7366
6265.642695 82.847 -167.7043
6311.046124 82.917 -167.7087
6356.778566 82.991 -167.7532
6402.842404 83.069 -167.8405
6449.240040 83.151 -167.9734
6495.973891 83.236 -168.1544
6543.046396 83.323 -168.3862
6590.460007 83.413 -168.6715
6638.217197 83.505 -169.0131
6686.320456 83.599 -169.4138
6734.772290 83.694 -169.8764
6783.575226 83.789 -170.4032
6832.731809 83.884 -170.9961
6882.244600 83.979 -171.6563
6932.116181 84.072 -172.3849
6982.349153 84.164 -173.1828
7032.946133 84.253 -174.0511
7083.909760 84.338 -174.9913
7135.242690 84.421 -176.0053
7186.947600 84.499 -177.0948
7239.027185 84.571 -178.2609
7291.484160 84.637 -179.5034
7344.321260 84.695 179.1794
7397.541239 84.745 177.7903
7451.146872 84.785 176.3335
7505.140954 84.815 174.8132
7559.526299 84.834 173.2343
7614.305743 84.843 171.6009
7669.482141 84.840 169.9167
7725.058371 84.827 168.1839
7781.037328 84.803 166.4034
7837.421932 84.768 164.5740
7894.215122 84.723 162.6922
7951.419859 84.667 160.7524
8009.039125 84.599 158.7471
8067.075924 84.518 156.6679
8125.533282 84.422 154.5077
8184.414245 84.308 152.2625
8243.721885 84.171 149.9343
8303.459292 84.007 147.5330
8363.629581 83.812 145.0772
8424.235888 83.581 142.5953
8485.281374 83.311 140.1235
8546.769221 83.001 137.7044
8608.702634 82.650 135.3831
8671.084842 82.260 133.2040
8733.919097 81.832 131.2076
8797.208675 81.373 129.4275
8860.956876 80.887 127.8891
8925.167022 80.381 126.6086
8989.842461 79.859 125.5934
9054.986566 79.328 124.8429
9120.602731 78.793 124.3496
9186.694378 78.259 124.1010
9253.264952 77.729 124.0811
9320.317925 77.208 124.2717
9387.856790 76.697 124.6540
9455.885071 76.199 125.2084
9524.406312 75.715 125.9159
9593.424086 75.247 126.7587
9662.941992 74.795 127.7211
9732.963653 74.358 128.7896
9803.492719 73.938 129.9526
9874.532869 73.532 131.1998
9946.087805 73.142 132.5224
10018.161257 72.765 133.9126
10090.756983 72.403 135.3640
10163.878768 72.053 136.8718
10237.530423 71.716 138.4317
10311.715789 71.391 140.0403
10386.438732 71.079 141.6939
10461.703149 70.778 143.3888
10537.512962 70.489 145.1219
10613.872125 70.211 146.8918
10690.784618 69.944 148.6976
10768.254450 69.687 150.5385
10846.285661 69.442 152.4130
10924.882318 69.207 154.3193
11004.048518 68.984 156.2556
11083.788390 68.771 158.2201
11164.106090 68.570 160.2121
11245.005805 68.379 162.2315
11326.491752 68.198 164.2783
11408.568180 68.029 166.3517
11491.239368 67.871 168.4514
11574.509626 67.725 170.5767
11658.383294 67.590 172.7274
11742.864745 67.466 174.9034
11827.958384 67.354 177.1037
11913.668646 67.254 179.3272
12000.000000 67.166 -178.4257
12086.956947 67.091 -176.1536
12174.544019 67.029 -173.8546
12262.765784 66.982 -171.5263
12351.626840 66.949 -169.1667
12441.131819 66.931 -166.7740
12531.285389 66.931 -164.3468
12622.092249 66.949 -161.8843
12713.557132 66.987 -159.3867
12805.684808 67.048 -156.8558
12898.480079 67.133 -154.2960
12991.947783 67.245 -151.7153
13086.092792 67.389 -149.1252
13180.920015 67.566 -146.5421
13276.434395 67.780 -143.9898
13372.640911 68.032 -141.5008
13469.544580 68.324 -139.1158
13567.150452 68.657 -136.8800
13665.463617 69.029 -134.8390
13764.489200 69.436 -133.0341
13864.232362 69.877 -131.4991
13964.698305 70.346 -130.2589
14065.892266 70.840 -129.3321
14167.819519 71.355 -128.7343
14270.485380 71.890 -128.4829
14373.895200 72.442 -128.6009
14478.054370 73.008 -129.1182
14582.968320 73.582 -130.0711
14688.642520 74.158 -131.4993
14795.082478 74.725 -133.4407
14902.293745 75.270 -135.9252
15010.281908 75.778 -138.9657
15119.052599 76.230 -142.5512
15228.611486 76.610 -146.6409
15338.964283 76.900 -151.1611
15450.116741 77.084 -156.0064
15562.074656 77.153 -161.0444
15674.843864 77.100 -166.1254
15788.430244 76.927 -171.0948
15902.839718 76.641 -175.8069
16018.078250 76.255 179.8634
16134.151848 75.782 176.0129
16251.066563 75.243 172.7067
16368.828491 74.655 169.9788
16487.443769 74.037 167.8360
16606.918584 73.406 166.2626
16727.259161 72.776 165.2258
16848.471777 72.160 164.6810
16970.562748 71.568 164.5763
17093.538442 71.007 164.8561
17217.405268 70.485 165.4648
17342.169684 70.004 166.3489
17467.838194 69.569 167.4591
17594.417350 69.180 168.7509
17721.913751 68.839 170.1828
17850.334044 68.546 171.7152
17979.684923 68.304 173.3090
18109.973131 68.111 174.9243
18241.205462 67.969 176.5194
18373.388756 67.876 178.0488
18506.529905 67.832 179.4615
18640.635849 67.835 -179.2979
18775.713581 67.881 -178.2889
18911.770141 67.964 -177.5715
19048.812624 68.079 -177.2010
19186.848172 68.214 -177.2215
19325.883983 68.361 -177.6528
19465.927305 68.506 -178.4715
19606.985439 68.637 -179.5892
19749.065738 68.743 179.1682
19892.175609 68.818 178.0623
20036.322514 68.855 177.3959

