* Measurement data measured by REW V5.31.3
* Source: Headset (CX31993 HIFI AUDIO), MICROPHONE (Master Volume), R, volume: 0.250
* Format: 256k Log Swept Sine, 1 sweep at -12.0 dBFS with no timing reference
* Dated: 01 11, 25 3:48:18 PM
* REW Settings:
*  C-weighting compensation: Off
*  Target level: 75.0 dB
* Note: ; 
* Measurement: Softears Volume S high L
* Smoothing: 1/12 octave
* Frequency Step: 96 ppo
* Start Frequency: 0.36621094 Hz
*
* Freq(Hz) SPL(dB) Phase(degrees)
0.366211 41.045 -9.9518
0.368865 41.039 -10.0176
0.371538 41.031 -10.1157
0.374230 41.021 -10.2384
0.376942 41.010 -10.3787
0.379673 40.997 -10.5318
0.382424 40.985 -10.6942
0.385196 40.971 -10.8641
0.387987 40.958 -11.0402
0.390798 40.944 -11.2220
0.393630 40.931 -11.4091
0.396483 40.917 -11.6015
0.399356 40.903 -11.7991
0.402250 40.889 -12.0019
0.405165 40.875 -12.2101
0.408101 40.861 -12.4237
0.411058 40.846 -12.6428
0.414037 40.832 -12.8674
0.417037 40.817 -13.0978
0.420059 40.803 -13.3339
0.423103 40.788 -13.5759
0.426169 40.773 -13.8238
0.429257 40.758 -14.0779
0.432368 40.743 -14.3381
0.435501 40.728 -14.6047
0.438656 40.713 -14.8776
0.441835 40.697 -15.1571
0.445037 40.682 -15.4433
0.448262 40.666 -15.7362
0.451510 40.650 -16.0361
0.454782 40.635 -16.3430
0.458077 40.619 -16.6570
0.461397 40.603 -16.9784
0.464740 40.586 -17.3072
0.468108 40.570 -17.6436
0.471500 40.554 -17.9877
0.474917 40.537 -18.3397
0.478358 40.520 -18.6999
0.481825 40.504 -19.0682
0.485316 40.487 -19.4450
0.488833 40.470 -19.8303
0.492375 40.452 -20.2244
0.495943 40.435 -20.6275
0.499537 40.418 -21.0397
0.503157 40.400 -21.4613
0.506803 40.383 -21.8925
0.510475 40.365 -22.3335
0.514175 40.347 -22.7845
0.517900 40.329 -23.2458
0.521653 40.311 -23.7177
0.525434 40.292 -24.2003
0.529241 40.274 -24.6940
0.533076 40.255 -25.1991
0.536939 40.237 -25.7158
0.540830 40.218 -26.2445
0.544749 40.199 -26.7854
0.548696 40.180 -27.3390
0.552673 40.160 -27.9055
0.556677 40.141 -28.4853
0.560711 40.121 -29.0789
0.564774 40.102 -29.6865
0.568867 40.082 -30.3087
0.572989 40.062 -30.9458
0.577141 40.042 -31.5982
0.581324 40.022 -32.2666
0.585536 40.001 -32.9513
0.589779 39.981 -33.6528
0.594053 39.960 -34.3717
0.598358 39.939 -35.1085
0.602694 39.918 -35.8637
0.607061 39.897 -36.6381
0.611460 39.876 -37.4321
0.615891 39.854 -38.2465
0.620354 39.833 -39.0818
0.624849 39.811 -39.9387
0.629377 39.789 -40.8180
0.633938 39.767 -41.7203
0.638532 39.744 -42.6465
0.643159 39.722 -43.5971
0.647819 39.700 -44.5731
0.652514 39.677 -45.5751
0.657242 39.654 -46.6040
0.662005 39.631 -47.6606
0.666802 39.608 -48.7457
0.671634 39.584 -49.8600
0.676501 39.561 -51.0044
0.681403 39.537 -52.1796
0.686341 39.513 -53.3865
0.691314 39.490 -54.6257
0.696324 39.466 -55.8978
0.701370 39.443 -57.2036
0.706452 39.422 -58.5435
0.711571 39.402 -59.9178
0.716728 39.387 -61.3266
0.721921 39.378 -62.7698
0.727153 39.378 -64.2464
0.732422 39.390 -65.7551
0.737729 39.417 -67.2937
0.743075 39.458 -68.8594
0.748460 39.511 -70.4487
0.753883 39.574 -72.0582
0.759346 39.645 -73.6843
0.764849 39.722 -75.3232
0.770391 39.806 -76.9713
0.775974 39.896 -78.6250
0.781597 39.990 -80.2807
0.787261 40.090 -81.9351
0.792966 40.195 -83.5847
0.798712 40.305 -85.2264
0.804500 40.419 -86.8573
0.810329 40.538 -88.4748
0.816201 40.662 -90.0762
0.822116 40.791 -91.6594
0.828073 40.924 -93.2223
0.834074 41.061 -94.7634
0.840118 41.203 -96.2811
0.846206 41.350 -97.7744
0.852338 41.500 -99.2421
0.858514 41.655 -100.6838
0.864735 41.814 -102.0990
0.871001 41.976 -103.4873
0.877313 42.143 -104.8488
0.883670 42.313 -106.1836
0.890074 42.487 -107.4920
0.896524 42.665 -108.7744
0.903020 42.845 -110.0313
0.909564 43.029 -111.2634
0.916155 43.216 -112.4715
0.922794 43.405 -113.6562
0.929481 43.598 -114.8186
0.936216 43.792 -115.9596
0.943000 43.989 -117.0800
0.949834 44.189 -118.1809
0.956717 44.390 -119.2633
0.963649 44.592 -120.3282
0.970632 44.796 -121.3766
0.977666 45.002 -122.4096
0.984750 45.208 -123.4281
0.991886 45.415 -124.4331
0.999074 45.622 -125.4257
1.006314 45.829 -126.4068
1.013606 46.036 -127.3774
1.020951 46.243 -128.3383
1.028349 46.449 -129.2905
1.035801 46.654 -130.2348
1.043307 46.857 -131.1720
1.050867 47.059 -132.1028
1.058482 47.258 -133.0278
1.066152 47.456 -133.9474
1.073878 47.651 -134.8618
1.081660 47.843 -135.7706
1.089498 48.034 -136.6731
1.097393 48.223 -137.5677
1.105345 48.412 -138.4527
1.113355 48.600 -139.3258
1.121423 48.788 -140.1855
1.129549 48.977 -141.0304
1.137734 49.167 -141.8598
1.145979 49.359 -142.6734
1.154283 49.551 -143.4713
1.162647 49.745 -144.2536
1.171072 49.940 -145.0206
1.179558 50.136 -145.7731
1.188106 50.334 -146.5113
1.196715 50.532 -147.2359
1.205387 50.731 -147.9476
1.214122 50.932 -148.6470
1.222920 51.133 -149.3348
1.231782 51.335 -150.0116
1.240708 51.538 -150.6782
1.249699 51.742 -151.3351
1.258754 51.946 -151.9832
1.267876 52.150 -152.6231
1.277063 52.355 -153.2555
1.286318 52.561 -153.8812
1.295639 52.766 -154.5007
1.305027 52.972 -155.1149
1.314484 53.178 -155.7243
1.324009 53.384 -156.3297
1.333604 53.589 -156.9317
1.343268 53.795 -157.5309
1.353002 53.999 -158.1281
1.362806 54.204 -158.7239
1.372681 54.407 -159.3189
1.382628 54.610 -159.9137
1.392647 54.812 -160.5089
1.402739 55.013 -161.1050
1.412904 55.213 -161.7026
1.423142 55.411 -162.3020
1.433455 55.608 -162.9033
1.443843 55.804 -163.5065
1.454305 55.998 -164.1111
1.464844 56.190 -164.7163
1.475459 56.381 -165.3210
1.486150 56.570 -165.9239
1.496920 56.757 -166.5241
1.507767 56.943 -167.1208
1.518693 57.127 -167.7138
1.529698 57.310 -168.3028
1.540783 57.492 -168.8880
1.551948 57.672 -169.4694
1.563194 57.850 -170.0474
1.574521 58.027 -170.6222
1.585931 58.203 -171.1942
1.597423 58.378 -171.7638
1.608999 58.552 -172.3313
1.620658 58.724 -172.8973
1.632402 58.896 -173.4621
1.644232 59.066 -174.0261
1.656146 59.235 -174.5898
1.668147 59.404 -175.1538
1.680235 59.572 -175.7184
1.692411 59.739 -176.2843
1.704675 59.905 -176.8518
1.717028 60.071 -177.4216
1.729470 60.236 -177.9941
1.742003 60.401 -178.5699
1.754626 60.565 -179.1495
1.767341 60.730 -179.7334
1.780147 60.894 179.6779
1.793047 61.057 179.0840
1.806040 61.221 178.4846
1.819128 61.384 177.8796
1.832310 61.547 177.2690
1.845587 61.709 176.6532
1.858961 61.870 176.0327
1.872432 62.030 175.4082
1.886001 62.189 174.7804
1.899667 62.347 174.1499
1.913433 62.503 173.5173
1.927299 62.658 172.8831
1.941265 62.812 172.2478
1.955332 62.965 171.6118
1.969501 63.116 170.9755
1.983773 63.266 170.3390
1.998148 63.415 169.7026
2.012627 63.564 169.0666
2.027212 63.711 168.4308
2.041902 63.857 167.7956
2.056698 64.002 167.1606
2.071602 64.147 166.5261
2.086614 64.290 165.8918
2.101734 64.433 165.2574
2.116964 64.576 164.6229
2.132304 64.718 163.9877
2.147756 64.859 163.3514
2.163320 64.999 162.7135
2.178996 65.139 162.0732
2.194786 65.279 161.4296
2.210690 65.417 160.7821
2.226710 65.554 160.1301
2.242845 65.690 159.4732
2.259098 65.825 158.8117
2.275468 65.959 158.1461
2.291957 66.091 157.4768
2.308566 66.222 156.8047
2.325295 66.351 156.1304
2.342145 66.480 155.4548
2.359117 66.607 154.7784
2.376212 66.733 154.1019
2.393431 66.857 153.4260
2.410775 66.981 152.7512
2.428244 67.104 152.0778
2.445840 67.225 151.4064
2.463564 67.346 150.7371
2.481416 67.466 150.0701
2.499397 67.585 149.4052
2.517509 67.703 148.7421
2.535752 67.820 148.0801
2.554127 67.936 147.4182
2.572635 68.052 146.7550
2.591277 68.165 146.0891
2.610055 68.278 145.4197
2.628968 68.389 144.7463
2.648019 68.499 144.0692
2.667208 68.607 143.3887
2.686535 68.714 142.7057
2.706003 68.820 142.0212
2.725612 68.924 141.3362
2.745363 69.027 140.6518
2.765257 69.128 139.9690
2.785295 69.229 139.2888
2.805478 69.328 138.6120
2.825808 69.426 137.9396
2.846285 69.523 137.2720
2.866910 69.619 136.6097
2.887685 69.714 135.9525
2.908611 69.809 135.2997
2.929688 69.901 134.6504
2.950917 69.993 134.0028
2.972301 70.083 133.3558
2.993839 70.172 132.7083
3.015534 70.259 132.0599
3.037386 70.345 131.4110
3.059396 70.430 130.7622
3.081565 70.513 130.1143
3.103896 70.594 129.4684
3.126388 70.675 128.8258
3.149043 70.754 128.1876
3.171862 70.832 127.5550
3.194847 70.910 126.9291
3.217998 70.986 126.3107
3.241317 71.062 125.7005
3.264805 71.136 125.0985
3.288463 71.210 124.5043
3.312293 71.283 123.9170
3.336295 71.354 123.3354
3.360471 71.425 122.7585
3.384822 71.494 122.1858
3.409350 71.561 121.6171
3.434056 71.628 121.0526
3.458940 71.694 120.4930
3.484005 71.758 119.9389
3.509252 71.822 119.3911
3.534681 71.886 118.8506
3.560295 71.948 118.3184
3.586094 72.011 117.7950
3.612081 72.073 117.2813
3.638255 72.135 116.7776
3.664620 72.196 116.2839
3.691175 72.258 115.8000
3.717923 72.318 115.3251
3.744864 72.378 114.8589
3.772001 72.438 114.4008
3.799335 72.497 113.9503
3.826866 72.556 113.5072
3.854597 72.614 113.0714
3.882529 72.673 112.6428
3.910664 72.732 112.2214
3.939002 72.791 111.8073
3.967546 72.851 111.4009
3.996296 72.912 111.0024
4.025255 72.973 110.6123
4.054423 73.035 110.2307
4.083804 73.097 109.8578
4.113396 73.160 109.4932
4.143204 73.223 109.1363
4.173227 73.287 108.7861
4.203468 73.352 108.4416
4.233928 73.417 108.1015
4.264609 73.484 107.7648
4.295512 73.551 107.4305
4.326639 73.619 107.0979
4.357992 73.689 106.7667
4.389572 73.759 106.4369
4.421380 73.831 106.1088
4.453419 73.905 105.7828
4.485691 73.979 105.4588
4.518196 74.055 105.1361
4.550936 74.132 104.8137
4.583914 74.209 104.4902
4.617131 74.288 104.1642
4.650589 74.368 103.8341
4.684289 74.448 103.4987
4.718233 74.530 103.1571
4.752424 74.612 102.8089
4.786862 74.695 102.4542
4.821549 74.779 102.0931
4.856488 74.864 101.7260
4.891680 74.950 101.3527
4.927127 75.036 100.9727
4.962831 75.123 100.5853
4.998794 75.210 100.1897
5.035017 75.297 99.7849
5.071503 75.384 99.3702
5.108253 75.471 98.9450
5.145270 75.557 98.5089
5.182555 75.644 98.0622
5.220110 75.730 97.6050
5.257937 75.816 97.1379
5.296038 75.901 96.6613
5.334415 75.986 96.1757
5.373071 76.069 95.6812
5.412006 76.152 95.1780
5.451224 76.234 94.6660
5.490725 76.314 94.1448
5.530514 76.393 93.6143
5.570590 76.470 93.0746
5.610957 76.546 92.5262
5.651616 76.621 91.9699
5.692570 76.694 91.4070
5.733821 76.765 90.8385
5.775370 76.835 90.2656
5.817221 76.903 89.6888
5.859375 76.968 89.1083
5.901834 77.032 88.5239
5.944602 77.094 87.9357
5.987679 77.153 87.3441
6.031068 77.211 86.7502
6.074771 77.267 86.1554
6.118792 77.321 85.5610
6.163131 77.372 84.9683
6.207792 77.422 84.3782
6.252776 77.470 83.7907
6.298086 77.515 83.2061
6.343725 77.559 82.6243
6.389694 77.601 82.0460
6.435996 77.641 81.4720
6.482634 77.680 80.9033
6.529610 77.717 80.3412
6.576926 77.752 79.7863
6.624585 77.786 79.2389
6.672590 77.819 78.6990
6.720942 77.850 78.1667
6.769645 77.881 77.6418
6.818700 77.910 77.1246
6.868111 77.939 76.6154
6.917881 77.966 76.1143
6.968010 77.994 75.6216
7.018504 78.020 75.1373
7.069362 78.047 74.6610
7.120590 78.073 74.1923
7.172189 78.099 73.7305
7.224161 78.124 73.2750
7.276511 78.150 72.8253
7.329239 78.176 72.3809
7.382350 78.202 71.9416
7.435845 78.228 71.5069
7.489729 78.254 71.0760
7.544002 78.281 70.6483
7.598669 78.307 70.2226
7.653732 78.334 69.7983
7.709194 78.361 69.3747
7.765058 78.388 68.9515
7.821327 78.415 68.5282
7.878004 78.442 68.1046
7.935091 78.469 67.6802
7.992592 78.496 67.2547
8.050510 78.522 66.8277
8.108847 78.548 66.3990
8.167607 78.574 65.9688
8.226793 78.599 65.5374
8.286408 78.623 65.1051
8.346454 78.647 64.6724
8.406936 78.669 64.2398
8.467856 78.691 63.8076
8.529218 78.712 63.3763
8.591024 78.732 62.9467
8.653278 78.751 62.5197
8.715983 78.769 62.0961
8.779143 78.786 61.6771
8.842760 78.802 61.2631
8.906839 78.817 60.8549
8.971381 78.832 60.4529
9.036392 78.847 60.0580
9.101873 78.861 59.6706
9.167829 78.874 59.2914
9.234263 78.888 58.9205
9.301178 78.902 58.5579
9.368578 78.917 58.2034
9.436467 78.931 57.8565
9.504847 78.947 57.5168
9.573723 78.964 57.1838
9.643099 78.982 56.8565
9.712976 79.001 56.5339
9.783361 79.021 56.2146
9.854255 79.043 55.8970
9.925663 79.067 55.5797
9.997588 79.092 55.2615
10.070035 79.118 54.9409
10.143007 79.146 54.6162
10.216507 79.175 54.2859
10.290540 79.206 53.9487
10.365109 79.237 53.6035
10.440219 79.269 53.2495
10.515873 79.302 52.8859
10.592076 79.335 52.5124
10.668830 79.368 52.1284
10.746141 79.400 51.7343
10.824012 79.432 51.3305
10.902447 79.463 50.9176
10.981451 79.494 50.4967
11.061027 79.522 50.0687
11.141180 79.550 49.6350
11.221913 79.575 49.1972
11.303232 79.599 48.7571
11.385140 79.622 48.3166
11.467641 79.642 47.8772
11.550741 79.661 47.4409
11.634442 79.677 47.0095
11.718750 79.692 46.5849
11.803669 79.706 46.1688
11.889203 79.718 45.7627
11.975357 79.729 45.3678
12.062136 79.740 44.9855
12.149543 79.749 44.6168
12.237583 79.758 44.2623
12.326262 79.767 43.9225
12.415583 79.776 43.5978
12.505552 79.785 43.2882
12.596172 79.795 42.9933
12.687449 79.806 42.7128
12.779387 79.819 42.4456
12.871992 79.832 42.1909
12.965268 79.848 41.9473
13.059220 79.865 41.7132
13.153852 79.885 41.4866
13.249170 79.907 41.2656
13.345179 79.931 41.0479
13.441884 79.958 40.8309
13.539289 79.986 40.6119
13.637401 80.018 40.3882
13.736223 80.051 40.1572
13.835761 80.086 39.9163
13.936021 80.123 39.6630
14.037007 80.161 39.3953
14.138725 80.199 39.1115
14.241180 80.238 38.8107
14.344377 80.276 38.4923
14.448323 80.313 38.1566
14.553021 80.348 37.8048
14.658478 80.381 37.4387
14.764700 80.411 37.0607
14.871691 80.438 36.6744
14.979457 80.461 36.2834
15.088005 80.481 35.8922
15.197339 80.497 35.5050
15.307465 80.509 35.1262
15.418389 80.519 34.7598
15.530117 80.525 34.4092
15.642655 80.530 34.0769
15.756008 80.534 33.7643
15.870182 80.537 33.4714
15.985184 80.540 33.1968
16.101019 80.545 32.9377
16.217694 80.551 32.6901
16.335214 80.560 32.4490
16.453586 80.571 32.2086
16.572815 80.583 31.9632
16.692909 80.597 31.7075
16.813872 80.613 31.4372
16.935713 80.628 31.1494
17.058436 80.642 30.8430
17.182048 80.653 30.5193
17.306556 80.662 30.1813
17.431967 80.666 29.8344
17.558286 80.666 29.4855
17.685521 80.660 29.1428
17.813677 80.650 28.8148
17.942762 80.636 28.5100
18.072783 80.619 28.2359
18.203746 80.600 27.9980
18.335658 80.581 27.7992
18.468526 80.564 27.6393
18.602356 80.551 27.5144
18.737156 80.543 27.4174
18.872934 80.542 27.3381
19.009695 80.549 27.2639
19.147447 80.563 27.1814
19.286197 80.583 27.0775
19.425953 80.610 26.9407
19.566721 80.640 26.7623
19.708510 80.673 26.5375
19.851326 80.705 26.2654
19.995177 80.735 25.9490
20.140070 80.760 25.5957
20.286013 80.780 25.2151
20.433014 80.794 24.8192
20.581080 80.802 24.4209
20.730219 80.803 24.0322
20.880439 80.800 23.6641
21.031747 80.793 23.3250
21.184152 80.784 23.0197
21.337661 80.776 22.7495
21.492282 80.769 22.5121
21.648024 80.765 22.3015
21.804895 80.766 22.1093
21.962902 80.772 21.9254
22.122054 80.782 21.7399
22.282360 80.796 21.5436
22.443827 80.813 21.3297
22.606464 80.831 21.0944
22.770280 80.848 20.8371
22.935283 80.865 20.5605
23.101481 80.878 20.2700
23.268884 80.888 19.9733
23.437500 80.894 19.6783
23.607338 80.897 19.3935
23.778406 80.896 19.1255
23.950714 80.894 18.8791
24.124271 80.891 18.6559
24.299086 80.889 18.4547
24.475167 80.888 18.2714
24.652524 80.890 18.1000
24.831166 80.893 17.9335
25.011103 80.898 17.7654
25.192344 80.904 17.5906
25.374898 80.910 17.4071
25.558775 80.915 17.2156
25.743984 80.918 17.0200
25.930536 80.918 16.8264
26.118439 80.915 16.6416
26.307704 80.911 16.4719
26.498341 80.906 16.3212
26.690359 80.902 16.1899
26.883768 80.900 16.0742
27.078579 80.901 15.9667
27.274801 80.906 15.8571
27.472446 80.914 15.7349
27.671522 80.924 15.5909
27.872042 80.935 15.4200
28.074014 80.945 15.2218
28.277450 80.952 15.0010
28.482360 80.955 14.7668
28.688755 80.954 14.5305
28.896645 80.950 14.3032
29.106042 80.943 14.0934
29.316957 80.936 13.9048
29.529400 80.931 13.7356
29.743382 80.929 13.5785
29.958915 80.931 13.4229
30.176009 80.937 13.2570
30.394677 80.946 13.0708
30.614929 80.957 12.8584
30.836778 80.967 12.6193
31.060234 80.975 12.3582
31.285309 80.981 12.0834
31.512015 80.983 11.8052
31.740364 80.982 11.5331
31.970368 80.979 11.2740
32.202039 80.976 11.0313
32.435388 80.973 10.8038
32.670428 80.972 10.5873
32.907171 80.974 10.3756
33.145630 80.977 10.1625
33.385817 80.980 9.9434
33.627745 80.985 9.7163
33.871425 80.988 9.4822
34.116871 80.989 9.2450
34.364096 80.989 9.0104
34.613113 80.986 8.7847
34.863934 80.982 8.5735
35.116572 80.977 8.3807
35.371041 80.972 8.2069
35.627354 80.968 8.0502
35.885525 80.967 7.9058
36.145566 80.968 7.7667
36.407492 80.971 7.6257
36.671316 80.976 7.4756
36.937051 80.982 7.3107
37.204712 80.989 7.1274
37.474313 80.995 6.9243
37.745867 80.999 6.7028
38.019389 81.000 6.4664
38.294893 80.997 6.2215
38.572394 80.990 5.9761
38.851905 80.979 5.7391
39.133442 80.965 5.5198
39.417019 80.949 5.3251
39.702651 80.932 5.1584
39.990353 80.918 5.0186
40.280140 80.907 4.8994
40.572026 80.900 4.7910
40.866028 80.898 4.6812
41.162160 80.901 4.5585
41.460438 80.907 4.4142
41.760877 80.915 4.2437
42.063494 80.924 4.0472
42.368303 80.931 3.8296
42.675322 80.935 3.5992
42.984565 80.938 3.3658
43.296048 80.937 3.1386
43.609789 80.935 2.9239
43.925804 80.933 2.7244
44.244108 80.930 2.5400
44.564719 80.928 2.3700
44.887654 80.925 2.2159
45.212928 80.923 2.0817
45.540560 80.922 1.9717
45.870565 80.923 1.8848
46.202962 80.931 1.8099
46.537768 80.944 1.7252
46.875000 80.964 1.6027
47.214676 80.985 1.4199
47.556813 81.002 1.1713
47.901429 81.009 0.8727
48.248542 81.005 0.5570
48.598171 80.989 0.2609
48.950334 80.965 0.0105
49.305048 80.939 -0.1876
49.662333 80.915 -0.3463
50.022206 80.894 -0.4882
50.384688 80.877 -0.6333
50.749796 80.860 -0.7910
51.117550 80.844 -0.9598
51.487969 80.826 -1.1342
51.861072 80.809 -1.3096
52.236879 80.792 -1.4857
52.615409 80.776 -1.6637
52.996681 80.760 -1.8431
53.380717 80.743 -2.0200
53.767536 80.727 -2.1895
54.157158 80.711 -2.3484
54.549603 80.697 -2.4969
54.944892 80.685 -2.6376
55.343045 80.675 -2.7729
55.744084 80.666 -2.9048
56.148028 80.658 -3.0352
56.554900 80.652 -3.1672
56.964720 80.646 -3.3045
57.377510 80.640 -3.4482
57.793291 80.633 -3.5955
58.212085 80.624 -3.7395
58.633914 80.613 -3.8745
59.058799 80.603 -3.9996
59.486764 80.594 -4.1213
59.917829 80.587 -4.2498
60.352019 80.581 -4.3934
60.789354 80.573 -4.5538
61.229859 80.565 -4.7266
61.673556 80.554 -4.9048
62.120468 80.542 -5.0836
62.570618 80.529 -5.2609
63.024031 80.516 -5.4359
63.480729 80.503 -5.6082
63.940736 80.490 -5.7782
64.404077 80.478 -5.9487
64.870776 80.467 -6.1237
65.340856 80.456 -6.3059
65.814343 80.444 -6.4944
66.291261 80.432 -6.6851
66.771635 80.419 -6.8738
67.255489 80.407 -7.0590
67.742850 80.394 -7.2405
68.233743 80.382 -7.4185
68.728193 80.371 -7.5916
69.226226 80.360 -7.7584
69.727867 80.351 -7.9188
70.233144 80.343 -8.0746
70.742083 80.337 -8.2294
71.254709 80.332 -8.3856
71.771050 80.326 -8.5425
72.291132 80.319 -8.6971
72.814984 80.311 -8.8453
73.342631 80.301 -8.9851
73.874102 80.289 -9.1162
74.409424 80.276 -9.2404
74.948626 80.262 -9.3597
75.491734 80.246 -9.4766
76.038779 80.229 -9.5931
76.589787 80.211 -9.7113
77.144788 80.193 -9.8340
77.703811 80.175 -9.9672
78.266885 80.158 -10.1166
78.834039 80.140 -10.2838
79.405303 80.121 -10.4630
79.980706 80.102 -10.6456
80.560280 80.082 -10.8262
81.144053 80.064 -11.0040
81.732056 80.045 -11.1791
82.324320 80.027 -11.3501
82.920876 80.009 -11.5155
83.521755 79.991 -11.6747
84.126988 79.972 -11.8267
84.736607 79.952 -11.9691
85.350643 79.931 -12.1010
85.969129 79.910 -12.2237
86.592097 79.889 -12.3382
87.219579 79.868 -12.4449
87.851608 79.848 -12.5467
88.488217 79.830 -12.6506
89.129439 79.813 -12.7655
89.775308 79.797 -12.8951
90.425856 79.779 -13.0349
91.081119 79.761 -13.1770
91.741131 79.741 -13.3159
92.405925 79.722 -13.4507
93.075536 79.702 -13.5823
93.750000 79.682 -13.7121
94.429351 79.662 -13.8435
95.113625 79.642 -13.9813
95.802858 79.621 -14.1283
96.497085 79.598 -14.2827
97.196342 79.574 -14.4399
97.900667 79.549 -14.5960
98.610096 79.522 -14.7504
99.324665 79.494 -14.9049
100.044413 79.465 -15.0570
100.769376 79.433 -15.1981
101.499592 79.400 -15.3201
102.235100 79.365 -15.4186
102.975938 79.330 -15.4902
103.722144 79.295 -15.5310
104.473757 79.263 -15.5456
105.230817 79.235 -15.5521
105.993363 79.213 -15.5745
106.761435 79.194 -15.6324
107.535072 79.177 -15.7357
108.314315 79.162 -15.8857
109.099206 79.147 -16.0781
109.889783 79.131 -16.3024
110.686090 79.114 -16.5414
111.488167 79.094 -16.7704
112.296056 79.072 -16.9622
113.109800 79.047 -17.0945
113.929440 79.019 -17.1554
114.755020 78.989 -17.1454
115.586582 78.956 -17.0787
116.424170 78.921 -16.9814
117.267827 78.883 -16.8857
118.117598 78.843 -16.8212
118.973527 78.803 -16.8096
119.835658 78.764 -16.8636
120.704037 78.729 -16.9825
121.578708 78.702 -17.1504
122.459718 78.687 -17.3497
123.347111 78.683 -17.5747
124.240935 78.688 -17.8215
125.141236 78.694 -18.0717
126.048061 78.694 -18.2993
126.961458 78.683 -18.4850
127.881473 78.657 -18.6225
128.808154 78.617 -18.7189
129.741551 78.565 -18.7896
130.681712 78.505 -18.8516
131.628686 78.441 -18.9204
132.582521 78.379 -19.0051
133.543269 78.321 -19.1056
134.510979 78.270 -19.2116
135.485701 78.225 -19.3064
136.467486 78.184 -19.3732
137.456386 78.145 -19.4014
138.452451 78.105 -19.3885
139.455735 78.063 -19.3375
140.466288 78.018 -19.2543
141.484165 77.969 -19.1473
142.509418 77.919 -19.0228
143.542100 77.869 -18.8832
144.582265 77.822 -18.7288
145.629968 77.779 -18.5608
146.685262 77.741 -18.3812
147.748204 77.711 -18.1918
148.818849 77.688 -17.9958
149.897251 77.674 -17.8030
150.983469 77.668 -17.6295
152.077557 77.670 -17.4936
153.179574 77.677 -17.4084
154.289576 77.686 -17.3781
155.407622 77.694 -17.3987
156.533770 77.700 -17.4628
157.668078 77.701 -17.5632
158.810606 77.696 -17.6938
159.961413 77.686 -17.8483
161.120559 77.667 -18.0179
162.288105 77.642 -18.1924
163.464112 77.610 -18.3620
164.648640 77.573 -18.5193
165.841752 77.530 -18.6577
167.043510 77.484 -18.7714
168.253976 77.435 -18.8539
169.473213 77.383 -18.8991
170.701286 77.331 -18.9027
171.938258 77.279 -18.8640
173.184194 77.229 -18.7855
174.439158 77.184 -18.6718
175.703216 77.143 -18.5287
176.976434 77.108 -18.3652
178.258878 77.078 -18.1947
179.550615 77.053 -18.0327
180.851713 77.032 -17.8934
182.162239 77.013 -17.7856
183.482262 76.997 -17.7094
184.811850 76.981 -17.6572
186.151073 76.967 -17.6166
187.500000 76.953 -17.5768
188.858702 76.938 -17.5322
190.227250 76.924 -17.4844
191.605715 76.909 -17.4464
192.994169 76.896 -17.4407
194.392685 76.884 -17.4847
195.801334 76.870 -17.5758
197.220191 76.854 -17.6927
198.649330 76.833 -17.8102
200.088825 76.807 -17.9117
201.538751 76.776 -17.9936
202.999184 76.739 -18.0604
204.470200 76.699 -18.1185
205.951875 76.656 -18.1711
207.444287 76.612 -18.2156
208.947514 76.569 -18.2457
210.461634 76.526 -18.2565
211.986726 76.484 -18.2474
213.522869 76.441 -18.2227
215.070144 76.397 -18.1866
216.628631 76.354 -18.1415
218.198411 76.310 -18.0869
219.779567 76.266 -18.0225
221.372180 76.222 -17.9498
222.976334 76.176 -17.8721
224.592112 76.131 -17.7926
226.219600 76.085 -17.7120
227.858880 76.040 -17.6274
229.510039 75.996 -17.5329
231.173164 75.952 -17.4232
232.848340 75.909 -17.2971
234.535655 75.867 -17.1577
236.235197 75.825 -17.0115
237.947054 75.785 -16.8643
239.671317 75.746 -16.7185
241.408074 75.710 -16.5745
243.157416 75.675 -16.4323
244.919435 75.642 -16.2918
246.694223 75.609 -16.1522
248.481871 75.576 -16.0126
250.282473 75.542 -15.8715
252.096123 75.507 -15.7275
253.922915 75.472 -15.5804
255.762945 75.435 -15.4310
257.616309 75.398 -15.2794
259.483103 75.360 -15.1228
261.363424 75.322 -14.9586
263.257372 75.284 -14.7865
265.165043 75.245 -14.6099
267.086538 75.206 -14.4331
269.021957 75.165 -14.2601
270.971401 75.123 -14.0914
272.934972 75.079 -13.9242
274.912771 75.035 -13.7522
276.904902 74.991 -13.5662
278.911469 74.948 -13.3552
280.932577 74.905 -13.1113
282.968330 74.865 -12.8321
285.018835 74.828 -12.5242
287.084199 74.796 -12.2031
289.164530 74.768 -11.8855
291.259935 74.742 -11.5815
293.370525 74.719 -11.2929
295.496408 74.696 -11.0157
297.637697 74.675 -10.7445
299.794503 74.655 -10.4749
301.966937 74.635 -10.2048
304.155114 74.615 -9.9333
306.359147 74.596 -9.6605
308.579152 74.578 -9.3883
310.815244 74.559 -9.1199
313.067539 74.540 -8.8582
315.336156 74.521 -8.6038
317.621211 74.502 -8.3549
319.922826 74.483 -8.1082
322.241118 74.463 -7.8608
324.576210 74.442 -7.6121
326.928223 74.420 -7.3611
329.297280 74.398 -7.1062
331.683504 74.377 -6.8451
334.087019 74.356 -6.5760
336.507952 74.335 -6.2981
338.946427 74.317 -6.0121
341.402572 74.300 -5.7203
343.876516 74.284 -5.4261
346.368387 74.269 -5.1322
348.878315 74.256 -4.8416
351.406431 74.245 -4.5565
353.952867 74.234 -4.2776
356.517756 74.223 -4.0033
359.101230 74.213 -3.7307
361.703426 74.203 -3.4570
364.324478 74.192 -3.1808
366.964523 74.181 -2.9026
369.623699 74.170 -2.6236
372.302145 74.159 -2.3450
375.000000 74.148 -2.0681
377.717405 74.138 -1.7943
380.454501 74.127 -1.5242
383.211431 74.117 -1.2572
385.988339 74.107 -0.9916
388.785369 74.097 -0.7258
391.602668 74.086 -0.4587
394.440383 74.076 -0.1908
397.298660 74.066 0.0771
400.177650 74.055 0.3452
403.077502 74.045 0.6150
405.998368 74.035 0.8884
408.940400 74.025 1.1672
411.903750 74.015 1.4521
414.888575 74.006 1.7432
417.895028 73.997 2.0400
420.923268 73.988 2.3417
423.973452 73.980 2.6468
427.045738 73.973 2.9525
430.140287 73.967 3.2560
433.257261 73.962 3.5553
436.396822 73.958 3.8499
439.559133 73.954 4.1411
442.744360 73.951 4.4312
445.952668 73.948 4.7232
449.184225 73.944 5.0191
452.439199 73.940 5.3186
455.717760 73.937 5.6200
459.020079 73.934 5.9224
462.346327 73.930 6.2262
465.696680 73.927 6.5325
469.071310 73.924 6.8423
472.470394 73.921 7.1557
475.894109 73.918 7.4727
479.342634 73.915 7.7931
482.816148 73.913 8.1168
486.314833 73.912 8.4438
489.838871 73.911 8.7742
493.388445 73.911 9.1080
496.963741 73.912 9.4449
500.564945 73.915 9.7844
504.192245 73.919 10.1247
507.845830 73.925 10.4637
511.525890 73.933 10.7991
515.232618 73.942 11.1289
518.966206 73.952 11.4517
522.726849 73.962 11.7671
526.514743 73.973 12.0757
530.330086 73.983 12.3785
534.173076 73.993 12.6768
538.043915 74.002 12.9716
541.942803 74.011 13.2639
545.869944 74.020 13.5552
549.825542 74.028 13.8473
553.809805 74.036 14.1420
557.822939 74.044 14.4404
561.865154 74.052 14.7423
565.936660 74.059 15.0471
570.037671 74.066 15.3540
574.168399 74.073 15.6622
578.329060 74.081 15.9713
582.519870 74.089 16.2814
586.741049 74.097 16.5927
590.992817 74.105 16.9054
595.275394 74.114 17.2192
599.589005 74.124 17.5345
603.933874 74.134 17.8515
608.310228 74.144 18.1708
612.718295 74.154 18.4927
617.158304 74.165 18.8174
621.630488 74.176 19.1452
626.135079 74.188 19.4762
630.672311 74.200 19.8099
635.242423 74.212 20.1456
639.845651 74.226 20.4823
644.482237 74.240 20.8195
649.152421 74.254 21.1570
653.856447 74.269 21.4951
658.594560 74.284 21.8337
663.367008 74.300 22.1736
668.174039 74.316 22.5161
673.015903 74.332 22.8622
677.892854 74.348 23.2120
682.805145 74.364 23.5649
687.753032 74.381 23.9200
692.736774 74.398 24.2773
697.756631 74.416 24.6376
702.812863 74.434 25.0015
707.905735 74.453 25.3693
713.035511 74.472 25.7405
718.202461 74.492 26.1144
723.406852 74.513 26.4899
728.648956 74.535 26.8665
733.929047 74.558 27.2440
739.247399 74.581 27.6219
744.604290 74.606 27.9998
750.000000 74.631 28.3771
755.434809 74.657 28.7539
760.909001 74.684 29.1308
766.422861 74.711 29.5085
771.976677 74.739 29.8875
777.570739 74.768 30.2685
783.205337 74.798 30.6523
788.880766 74.828 31.0393
794.597321 74.860 31.4295
800.355301 74.892 31.8225
806.155005 74.925 32.2181
811.996736 74.959 32.6159
817.880799 74.995 33.0154
823.807501 75.031 33.4163
829.777150 75.069 33.8182
835.790057 75.107 34.2210
841.846536 75.148 34.6248
847.946903 75.189 35.0293
854.091476 75.232 35.4345
860.280575 75.276 35.8401
866.514523 75.322 36.2456
872.793644 75.370 36.6502
879.118267 75.419 37.0534
885.488720 75.470 37.4547
891.905336 75.522 37.8532
898.368450 75.576 38.2480
904.878398 75.632 38.6378
911.435520 75.689 39.0211
918.040157 75.749 39.3967
924.692655 75.809 39.7642
931.393359 75.871 40.1240
938.142619 75.934 40.4764
944.940787 75.998 40.8217
951.788218 76.064 41.1597
958.685268 76.130 41.4903
965.632296 76.197 41.8134
972.629666 76.266 42.1288
979.677741 76.336 42.4357
986.776890 76.407 42.7336
993.927482 76.479 43.0220
1001.129891 76.552 43.3008
1008.384491 76.626 43.5700
1015.691660 76.700 43.8294
1023.051781 76.776 44.0786
1030.465236 76.852 44.3170
1037.932411 76.929 44.5442
1045.453698 77.006 44.7599
1053.029486 77.084 44.9643
1060.660172 77.162 45.1572
1068.346153 77.240 45.3382
1076.087829 77.318 45.5065
1083.885605 77.396 45.6618
1091.739887 77.475 45.8043
1099.651084 77.553 45.9347
1107.619609 77.631 46.0540
1115.645878 77.709 46.1628
1123.730308 77.786 46.2615
1131.873321 77.864 46.3507
1140.075341 77.941 46.4311
1148.336797 78.018 46.5027
1156.658119 78.095 46.5645
1165.039741 78.172 46.6150
1173.482099 78.249 46.6537
1181.985634 78.325 46.6815
1190.550789 78.400 46.7003
1199.178011 78.474 46.7127
1207.867749 78.546 46.7209
1216.620457 78.618 46.7263
1225.436590 78.687 46.7291
1234.316609 78.755 46.7286
1243.260976 78.822 46.7239
1252.270157 78.887 46.7146
1261.344623 78.952 46.7011
1270.484846 79.015 46.6848
1279.691303 79.078 46.6663
1288.964474 79.139 46.6463
1298.304842 79.200 46.6252
1307.712894 79.260 46.6030
1317.189120 79.319 46.5801
1326.734016 79.377 46.5570
1336.348077 79.435 46.5339
1346.031806 79.492 46.5114
1355.785708 79.548 46.4895
1365.610290 79.604 46.4683
1375.506065 79.660 46.4479
1385.473549 79.714 46.4288
1395.513261 79.769 46.4113
1405.625726 79.823 46.3959
1415.811469 79.877 46.3827
1426.071023 79.930 46.3715
1436.404921 79.984 46.3623
1446.813703 80.037 46.3549
1457.297912 80.090 46.3495
1467.858093 80.143 46.3463
1478.494798 80.197 46.3458
1489.208581 80.250 46.3478
1500.000000 80.303 46.3524
1510.869618 80.357 46.3590
1521.818002 80.411 46.3669
1532.845723 80.465 46.3759
1543.953355 80.520 46.3854
1555.141477 80.574 46.3954
1566.410674 80.630 46.4057
1577.761531 80.685 46.4166
1589.194642 80.741 46.4283
1600.710601 80.798 46.4412
1612.310010 80.855 46.4552
1623.993473 80.913 46.4701
1635.761599 80.972 46.4854
1647.615002 81.031 46.5007
1659.554299 81.091 46.5156
1671.580114 81.153 46.5298
1683.693072 81.215 46.5430
1695.893807 81.278 46.5549
1708.182952 81.342 46.5652
1720.561150 81.407 46.5738
1733.029045 81.473 46.5800
1745.587288 81.540 46.5836
1758.236533 81.608 46.5841
1770.977440 81.676 46.5809
1783.810673 81.746 46.5735
1796.736900 81.817 46.5612
1809.756796 81.888 46.5435
1822.871040 81.961 46.5204
1836.080315 82.034 46.4915
1849.385310 82.109 46.4569
1862.786718 82.185 46.4164
1876.285239 82.261 46.3696
1889.881575 82.339 46.3165
1903.576436 82.418 46.2566
1917.370535 82.498 46.1893
1931.264593 82.579 46.1138
1945.259332 82.661 46.0295
1959.355483 82.745 45.9358
1973.553781 82.829 45.8323
1987.854965 82.915 45.7187
2002.259781 83.001 45.5944
2016.768981 83.088 45.4587
2031.383320 83.177 45.3107
2046.103561 83.266 45.1496
2060.930471 83.356 44.9746
2075.864823 83.448 44.7852
2090.907395 83.540 44.5805
2106.058972 83.633 44.3601
2121.320344 83.727 44.1233
2136.692305 83.822 43.8694
2152.175658 83.918 43.5977
2167.771210 84.014 43.3074
2183.479774 84.110 42.9975
2199.302169 84.207 42.6673
2215.239219 84.304 42.3155
2231.291755 84.401 41.9411
2247.460615 84.498 41.5432
2263.746641 84.595 41.1210
2280.150683 84.691 40.6743
2296.673595 84.786 40.2025
2313.316238 84.881 39.7054
2330.079481 84.974 39.1827
2346.964198 85.065 38.6343
2363.971268 85.155 38.0600
2381.101578 85.244 37.4595
2398.356022 85.330 36.8326
2415.735498 85.413 36.1794
2433.240913 85.494 35.4998
2450.873180 85.572 34.7937
2468.633217 85.647 34.0613
2486.521951 85.718 33.3032
2504.540314 85.786 32.5199
2522.689246 85.849 31.7121
2540.969692 85.908 30.8806
2559.382606 85.962 30.0265
2577.928947 86.010 29.1508
2596.609683 86.053 28.2553
2615.425787 86.091 27.3418
2634.378241 86.122 26.4127
2653.468031 86.146 25.4707
2672.696154 86.164 24.5189
2692.063613 86.175 23.5605
2711.571415 86.180 22.5984
2731.220579 86.177 21.6359
2751.012130 86.168 20.6756
2770.947098 86.151 19.7207
2791.026522 86.128 18.7739
2811.251451 86.098 17.8382
2831.622938 86.061 16.9161
2852.142045 86.017 16.0107
2872.809842 85.968 15.1251
2893.627406 85.912 14.2619
2914.595823 85.851 13.4238
2935.716186 85.784 12.6133
2956.989596 85.712 11.8323
2978.417161 85.636 11.0829
3000.000000 85.556 10.3666
3021.739237 85.471 9.6849
3043.636005 85.384 9.0389
3065.691446 85.293 8.4294
3087.906710 85.200 7.8575
3110.282955 85.104 7.3236
3132.821347 85.007 6.8285
3155.523062 84.909 6.3727
3178.389283 84.809 5.9563
3201.421202 84.709 5.5795
3224.620020 84.608 5.2419
3247.986946 84.507 4.9432
3271.523198 84.407 4.6827
3295.230004 84.307 4.4595
3319.108599 84.209 4.2728
3343.160228 84.111 4.1216
3367.386145 84.015 4.0048
3391.787613 83.921 3.9216
3416.365904 83.828 3.8711
3441.122300 83.738 3.8527
3466.058091 83.650 3.8654
3491.174576 83.564 3.9081
3516.473066 83.481 3.9798
3541.954880 83.401 4.0792
3567.621345 83.324 4.2053
3593.473800 83.250 4.3567
3619.513592 83.180 4.5321
3645.742080 83.112 4.7303
3672.160630 83.049 4.9502
3698.770620 82.989 5.1905
3725.573436 82.933 5.4503
3752.570477 82.881 5.7285
3779.763150 82.833 6.0237
3807.152872 82.789 6.3342
3834.741071 82.750 6.6588
3862.529185 82.715 6.9960
3890.518664 82.684 7.3450
3918.710966 82.658 7.7042
3947.107561 82.637 8.0720
3975.709929 82.621 8.4465
4004.519563 82.610 8.8262
4033.537962 82.604 9.2089
4062.766641 82.604 9.5928
4092.207123 82.608 9.9752
4121.860942 82.618 10.3538
4151.729646 82.633 10.7257
4181.814790 82.654 11.0883
4212.117944 82.680 11.4390
4242.640687 82.711 11.7751
4273.384610 82.748 12.0941
4304.351317 82.789 12.3927
4335.542421 82.836 12.6680
4366.959549 82.887 12.9169
4398.604338 82.943 13.1365
4430.478438 83.004 13.3234
4462.583511 83.068 13.4738
4494.921231 83.137 13.5842
4527.493283 83.208 13.6508
4560.301365 83.283 13.6700
4593.347189 83.359 13.6385
4626.632476 83.437 13.5536
4660.158962 83.516 13.4122
4693.928395 83.595 13.2122
4727.942535 83.674 12.9518
4762.203156 83.750 12.6296
4796.712043 83.823 12.2450
4831.470996 83.893 11.7982
4866.481826 83.957 11.2903
4901.746360 84.015 10.7236
4937.266434 84.066 10.1011
4973.043902 84.108 9.4271
5009.080628 84.140 8.7070
5045.378492 84.162 7.9471
5081.939384 84.171 7.1549
5118.765212 84.169 6.3392
5155.857894 84.154 5.5095
5193.219366 84.125 4.6763
5230.851574 84.083 3.8501
5268.756481 84.027 3.0424
5306.936062 83.958 2.2642
5345.392309 83.876 1.5270
5384.127225 83.781 0.8414
5423.142830 83.676 0.2180
5462.441159 83.560 -0.3336
5502.024259 83.436 -0.8049
5541.894195 83.304 -1.1889
5582.053045 83.166 -1.4795
5622.502902 83.024 -1.6719
5663.245876 82.879 -1.7627
5704.284090 82.734 -1.7495
5745.619684 82.590 -1.6314
5787.254813 82.450 -1.4086
5829.191647 82.314 -1.0825
5871.432373 82.185 -0.6562
5913.979192 82.065 -0.1339
5956.834323 81.956 0.4791
6000.000000 81.859 1.1761
6043.478473 81.777 1.9496
6087.272010 81.710 2.7906
6131.382892 81.661 3.6887
6175.813420 81.632 4.6321
6220.565910 81.624 5.6067
6265.642695 81.639 6.5965
6311.046124 81.678 7.5831
6356.778566 81.744 8.5453
6402.842404 81.836 9.4585
6449.240040 81.956 10.2953
6495.973891 82.103 11.0244
6543.046396 82.278 11.6122
6590.460007 82.478 12.0223
6638.217197 82.699 12.2179
6686.320456 82.939 12.1631
6734.772290 83.190 11.8254
6783.575226 83.445 11.1792
6832.731809 83.697 10.2086
6882.244600 83.934 8.9106
6932.116181 84.147 7.2975
6982.349153 84.326 5.3977
7032.946133 84.464 3.2554
7083.909760 84.552 0.9276
7135.242690 84.587 -1.5193
7186.947600 84.567 -4.0153
7239.027185 84.493 -6.4916
7291.484160 84.366 -8.8848
7344.321260 84.193 -11.1389
7397.541239 83.978 -13.2075
7451.146872 83.729 -15.0548
7505.140954 83.454 -16.6564
7559.526299 83.161 -18.0012
7614.305743 82.858 -19.0905
7669.482141 82.553 -19.9368
7725.058371 82.252 -20.5609
7781.037328 81.962 -20.9899
7837.421932 81.685 -21.2550
7894.215122 81.424 -21.3895
7951.419859 81.182 -21.4263
8009.039125 80.957 -21.3966
8067.075924 80.749 -21.3290
8125.533282 80.557 -21.2477
8184.414245 80.378 -21.1722
8243.721885 80.211 -21.1172
8303.459292 80.052 -21.0925
8363.629581 79.899 -21.1038
8424.235888 79.749 -21.1530
8485.281374 79.599 -21.2382
8546.769221 79.448 -21.3542
8608.702634 79.292 -21.4938
8671.084842 79.131 -21.6467
8733.919097 78.964 -21.8019
8797.208675 78.788 -21.9479
8860.956876 78.605 -22.0734
8925.167022 78.413 -22.1678
8989.842461 78.212 -22.2212
9054.986566 78.002 -22.2231
9120.602731 77.783 -22.1632
9186.694378 77.555 -22.0310
9253.264952 77.320 -21.8163
9320.317925 77.078 -21.5088
9387.856790 76.830 -21.0978
9455.885071 76.578 -20.5729
9524.406312 76.323 -19.9253
9593.424086 76.067 -19.1477
9662.941992 75.812 -18.2359
9732.963653 75.560 -17.1886
9803.492719 75.313 -16.0072
9874.532869 75.075 -14.6954
9946.087805 74.845 -13.2588
10018.161257 74.628 -11.7046
10090.756983 74.424 -10.0415
10163.878768 74.236 -8.2795
10237.530423 74.064 -6.4299
10311.715789 73.909 -4.5050
10386.438732 73.774 -2.5172
10461.703149 73.658 -0.4791
10537.512962 73.563 1.5970
10613.872125 73.490 3.6992
10690.784618 73.439 5.8146
10768.254450 73.412 7.9297
10846.285661 73.408 10.0293
10924.882318 73.428 12.0964
11004.048518 73.474 14.1119
11083.788390 73.544 16.0541
11164.106090 73.640 17.8979
11245.005805 73.761 19.6150
11326.491752 73.906 21.1738
11408.568180 74.073 22.5406
11491.239368 74.260 23.6807
11574.509626 74.462 24.5602
11658.383294 74.674 25.1492
11742.864745 74.887 25.4257
11827.958384 75.093 25.3810
11913.668646 75.282 25.0233
12000.000000 75.444 24.3794
12086.956947 75.573 23.4946
12174.544019 75.660 22.4314
12262.765784 75.703 21.2637
12351.626840 75.700 20.0707
12441.131819 75.657 18.9280
12531.285389 75.578 17.9003
12622.092249 75.473 17.0348
12713.557132 75.351 16.3585
12805.684808 75.222 15.8782
12898.480079 75.096 15.5844
12991.947783 74.978 15.4570
13086.092792 74.875 15.4714
13180.920015 74.790 15.6030
13276.434395 74.726 15.8299
13372.640911 74.684 16.1340
13469.544580 74.668 16.5005
13567.150452 74.680 16.9152
13665.463617 74.723 17.3625
13764.489200 74.800 17.8228
13864.232362 74.914 18.2684
13964.698305 75.070 18.6619
14065.892266 75.270 18.9532
14167.819519 75.514 19.0796
14270.485380 75.799 18.9672
14373.895200 76.120 18.5370
14478.054370 76.466 17.7153
14582.968320 76.821 16.4452
14688.642520 77.170 14.6959
14795.082478 77.495 12.4675
14902.293745 77.780 9.7891
15010.281908 78.010 6.7134
15119.052599 78.177 3.3069
15228.611486 78.275 -0.3615
15338.964283 78.302 -4.2314
15450.116741 78.256 -8.2588
15562.074656 78.139 -12.4161
15674.843864 77.947 -16.6869
15788.430244 77.676 -21.0521
15902.839718 77.315 -25.4751
16018.078250 76.856 -29.8900
16134.151848 76.290 -34.1996
16251.066563 75.611 -38.2830
16368.828491 74.820 -42.0118
16487.443769 73.923 -45.2689
16606.918584 72.931 -47.9613
16727.259161 71.858 -50.0293
16848.471777 70.720 -51.4451
16970.562748 69.530 -52.2051
17093.538442 68.304 -52.3113
17217.405268 67.051 -51.7366
17342.169684 65.781 -50.3719
17467.838194 64.509 -47.9504
17594.417350 63.264 -43.9790
17721.913751 62.116 -37.8045
17850.334044 61.186 -29.1422
17979.684923 60.613 -19.1421
18109.973131 60.447 -10.3977
18241.205462 60.581 -4.7507
18373.388756 60.838 -2.0879
18506.529905 61.089 -1.3394
18640.635849 61.281 -1.4845
18775.713581 61.417 -1.8497
18911.770141 61.518 -2.0762
19048.812624 61.607 -2.0193
19186.848172 61.698 -1.6627
19325.883983 61.796 -1.0596
19465.927305 61.896 -0.2972
19606.985439 61.992 0.5225
19749.065738 62.072 1.2894
19892.175609 62.130 1.8909
20036.322514 62.160 2.2247
