* Measurement data measured by REW V5.31.3
* Source: Headset (CX31993 HIFI AUDIO), MICROPHONE (Master Volume), R, volume: 0.250
* Format: 256k Log Swept Sine, 1 sweep at -12.0 dBFS with no timing reference
* Dated: 01 11, 25 3:44:03 PM
* REW Settings:
*  C-weighting compensation: Off
*  Target level: 75.0 dB
* Note: ; 
* Measurement: Softears Volume S low L
* Smoothing: 1/12 octave
* Frequency Step: 96 ppo
* Start Frequency: 0.36621094 Hz
*
* Freq(Hz) SPL(dB) Phase(degrees)
0.366211 55.518 -58.4223
0.368865 55.531 -58.5510
0.371538 55.549 -58.7430
0.374230 55.572 -58.9827
0.376942 55.598 -59.2566
0.379673 55.626 -59.5550
0.382424 55.654 -59.8712
0.385196 55.684 -60.2014
0.387987 55.714 -60.5432
0.390798 55.744 -60.8953
0.393630 55.775 -61.2571
0.396483 55.806 -61.6282
0.399356 55.837 -62.0086
0.402250 55.869 -62.3982
0.405165 55.900 -62.7970
0.408101 55.932 -63.2050
0.411058 55.964 -63.6223
0.414037 55.997 -64.0489
0.417037 56.029 -64.4849
0.420059 56.062 -64.9302
0.423103 56.095 -65.3849
0.426169 56.129 -65.8491
0.429257 56.162 -66.3227
0.432368 56.196 -66.8057
0.435501 56.230 -67.2981
0.438656 56.264 -67.8000
0.441835 56.299 -68.3112
0.445037 56.334 -68.8319
0.448262 56.369 -69.3619
0.451510 56.404 -69.9012
0.454782 56.439 -70.4498
0.458077 56.475 -71.0076
0.461397 56.511 -71.5745
0.464740 56.548 -72.1505
0.468108 56.584 -72.7355
0.471500 56.621 -73.3294
0.474917 56.658 -73.9320
0.478358 56.696 -74.5433
0.481825 56.733 -75.1631
0.485316 56.771 -75.7914
0.488833 56.810 -76.4279
0.492375 56.848 -77.0726
0.495943 56.887 -77.7252
0.499537 56.926 -78.3857
0.503157 56.965 -79.0538
0.506803 57.005 -79.7293
0.510475 57.045 -80.4121
0.514175 57.085 -81.1020
0.517900 57.125 -81.7987
0.521653 57.166 -82.5021
0.525434 57.207 -83.2119
0.529241 57.249 -83.9280
0.533076 57.290 -84.6500
0.536939 57.332 -85.3778
0.540830 57.375 -86.1112
0.544749 57.417 -86.8498
0.548696 57.460 -87.5935
0.552673 57.503 -88.3421
0.556677 57.547 -89.0952
0.560711 57.591 -89.8526
0.564774 57.635 -90.6141
0.568867 57.679 -91.3795
0.572989 57.724 -92.1485
0.577141 57.769 -92.9209
0.581324 57.815 -93.6965
0.585536 57.861 -94.4749
0.589779 57.907 -95.2561
0.594053 57.953 -96.0397
0.598358 58.000 -96.8256
0.602694 58.047 -97.6136
0.607061 58.094 -98.4034
0.611460 58.142 -99.1949
0.615891 58.190 -99.9879
0.620354 58.239 -100.7822
0.624849 58.288 -101.5776
0.629377 58.337 -102.3740
0.633938 58.387 -103.1713
0.638532 58.437 -103.9693
0.643159 58.487 -104.7679
0.647819 58.537 -105.5669
0.652514 58.589 -106.3663
0.657242 58.640 -107.1660
0.662005 58.692 -107.9659
0.666802 58.744 -108.7659
0.671634 58.796 -109.5659
0.676501 58.849 -110.3660
0.681403 58.903 -111.1661
0.686341 58.956 -111.9661
0.691314 59.011 -112.7660
0.696324 59.065 -113.5659
0.701370 59.121 -114.3657
0.706452 59.177 -115.1654
0.711571 59.234 -115.9649
0.716728 59.293 -116.7642
0.721921 59.354 -117.5631
0.727153 59.419 -118.3613
0.732422 59.487 -119.1582
0.737729 59.560 -119.9534
0.743075 59.637 -120.7460
0.748460 59.719 -121.5355
0.753883 59.803 -122.3211
0.759346 59.891 -123.1022
0.764849 59.981 -123.8785
0.770391 60.074 -124.6495
0.775974 60.168 -125.4149
0.781597 60.265 -126.1742
0.787261 60.364 -126.9274
0.792966 60.465 -127.6741
0.798712 60.568 -128.4142
0.804500 60.673 -129.1475
0.810329 60.780 -129.8738
0.816201 60.889 -130.5931
0.822116 60.999 -131.3053
0.828073 61.112 -132.0103
0.834074 61.227 -132.7081
0.840118 61.343 -133.3987
0.846206 61.461 -134.0822
0.852338 61.581 -134.7586
0.858514 61.703 -135.4279
0.864735 61.826 -136.0903
0.871001 61.951 -136.7457
0.877313 62.077 -137.3945
0.883670 62.205 -138.0367
0.890074 62.335 -138.6724
0.896524 62.466 -139.3018
0.903020 62.598 -139.9252
0.909564 62.731 -140.5426
0.916155 62.866 -141.1543
0.922794 63.002 -141.7605
0.929481 63.139 -142.3615
0.936216 63.277 -142.9574
0.943000 63.416 -143.5485
0.949834 63.556 -144.1350
0.956717 63.697 -144.7173
0.963649 63.838 -145.2954
0.970632 63.980 -145.8699
0.977666 64.123 -146.4407
0.984750 64.265 -147.0084
0.991886 64.409 -147.5731
0.999074 64.552 -148.1351
1.006314 64.695 -148.6947
1.013606 64.839 -149.2522
1.020951 64.982 -149.8078
1.028349 65.124 -150.3620
1.035801 65.267 -150.9149
1.043307 65.409 -151.4668
1.050867 65.550 -152.0180
1.058482 65.690 -152.5688
1.066152 65.830 -153.1194
1.073878 65.968 -153.6699
1.081660 66.105 -154.2203
1.089498 66.242 -154.7706
1.097393 66.378 -155.3205
1.105345 66.513 -155.8695
1.113355 66.647 -156.4172
1.121423 66.781 -156.9631
1.129549 66.916 -157.5068
1.137734 67.050 -158.0480
1.145979 67.184 -158.5867
1.154283 67.318 -159.1226
1.162647 67.453 -159.6556
1.171072 67.587 -160.1859
1.179558 67.722 -160.7132
1.188106 67.856 -161.2377
1.196715 67.991 -161.7594
1.205387 68.126 -162.2783
1.214122 68.261 -162.7944
1.222920 68.396 -163.3078
1.231782 68.531 -163.8186
1.240708 68.666 -164.3267
1.249699 68.802 -164.8323
1.258754 68.937 -165.3355
1.267876 69.072 -165.8363
1.277063 69.208 -166.3348
1.286318 69.343 -166.8312
1.295639 69.479 -167.3255
1.305027 69.615 -167.8179
1.314484 69.750 -168.3084
1.324009 69.886 -168.7972
1.333604 70.022 -169.2843
1.343268 70.158 -169.7701
1.353002 70.294 -170.2545
1.362806 70.430 -170.7377
1.372681 70.566 -171.2199
1.382628 70.702 -171.7011
1.392647 70.838 -172.1816
1.402739 70.974 -172.6615
1.412904 71.111 -173.1408
1.423142 71.247 -173.6197
1.433455 71.383 -174.0982
1.443843 71.520 -174.5762
1.454305 71.656 -175.0537
1.464844 71.792 -175.5303
1.475459 71.928 -176.0057
1.486150 72.063 -176.4795
1.496920 72.199 -176.9515
1.507767 72.334 -177.4215
1.518693 72.468 -177.8895
1.529698 72.603 -178.3555
1.540783 72.736 -178.8196
1.551948 72.870 -179.2820
1.563194 73.003 -179.7430
1.574521 73.136 179.7975
1.585931 73.268 179.3390
1.597423 73.400 178.8813
1.608999 73.532 178.4243
1.620658 73.664 177.9678
1.632402 73.795 177.5113
1.644232 73.926 177.0547
1.656146 74.056 176.5977
1.668147 74.187 176.1401
1.680235 74.317 175.6816
1.692411 74.447 175.2219
1.704675 74.577 174.7606
1.717028 74.707 174.2976
1.729470 74.837 173.8325
1.742003 74.966 173.3651
1.754626 75.096 172.8950
1.767341 75.225 172.4219
1.780147 75.355 171.9457
1.793047 75.484 171.4661
1.806040 75.614 170.9830
1.819128 75.743 170.4963
1.832310 75.872 170.0062
1.845587 76.001 169.5128
1.858961 76.129 169.0165
1.872432 76.257 168.5176
1.886001 76.385 168.0164
1.899667 76.512 167.5134
1.913433 76.639 167.0086
1.927299 76.765 166.5024
1.941265 76.890 165.9949
1.955332 77.015 165.4863
1.969501 77.140 164.9768
1.983773 77.264 164.4664
1.998148 77.387 163.9552
2.012627 77.511 163.4434
2.027212 77.633 162.9309
2.041902 77.756 162.4178
2.056698 77.878 161.9040
2.071602 77.999 161.3896
2.086614 78.121 160.8744
2.101734 78.242 160.3585
2.116964 78.363 159.8416
2.132304 78.483 159.3236
2.147756 78.604 158.8044
2.163320 78.724 158.2836
2.178996 78.844 157.7610
2.194786 78.963 157.2362
2.210690 79.082 156.7090
2.226710 79.201 156.1791
2.242845 79.318 155.6464
2.259098 79.436 155.1110
2.275468 79.552 154.5731
2.291957 79.668 154.0330
2.308566 79.784 153.4908
2.325295 79.898 152.9470
2.342145 80.012 152.4018
2.359117 80.126 151.8555
2.376212 80.238 151.3083
2.393431 80.351 150.7606
2.410775 80.462 150.2125
2.428244 80.574 149.6641
2.445840 80.684 149.1157
2.463564 80.794 148.5672
2.481416 80.904 148.0187
2.499397 81.014 147.4702
2.517509 81.122 146.9215
2.535752 81.231 146.3722
2.554127 81.339 145.8218
2.572635 81.446 145.2699
2.591277 81.553 144.7158
2.610055 81.659 144.1592
2.628968 81.764 143.5999
2.648019 81.868 143.0380
2.667208 81.972 142.4737
2.686535 82.075 141.9075
2.706003 82.177 141.3396
2.725612 82.278 140.7706
2.745363 82.379 140.2009
2.765257 82.479 139.6309
2.785295 82.578 139.0611
2.805478 82.676 138.4917
2.825808 82.774 137.9232
2.846285 82.872 137.3556
2.866910 82.969 136.7891
2.887685 83.065 136.2235
2.908611 83.161 135.6585
2.929688 83.256 135.0934
2.950917 83.350 134.5277
2.972301 83.444 133.9607
2.993839 83.537 133.3919
3.015534 83.628 132.8213
3.037386 83.719 132.2490
3.059396 83.810 131.6754
3.081565 83.899 131.1010
3.103896 83.987 130.5263
3.126388 84.075 129.9519
3.149043 84.162 129.3784
3.171862 84.249 128.8062
3.194847 84.334 128.2358
3.217998 84.420 127.6677
3.241317 84.504 127.1019
3.264805 84.588 126.5383
3.288463 84.672 125.9768
3.312293 84.755 125.4166
3.336295 84.837 124.8571
3.360471 84.918 124.2978
3.384822 84.998 123.7385
3.409350 85.078 123.1791
3.434056 85.157 122.6199
3.458940 85.235 122.0612
3.484005 85.312 121.5035
3.509252 85.389 120.9471
3.534681 85.465 120.3926
3.560295 85.540 119.8403
3.586094 85.615 119.2907
3.612081 85.690 118.7438
3.638255 85.764 118.1997
3.664620 85.838 117.6581
3.691175 85.911 117.1186
3.717923 85.983 116.5808
3.744864 86.055 116.0443
3.772001 86.126 115.5089
3.799335 86.196 114.9747
3.826866 86.266 114.4419
3.854597 86.336 113.9106
3.882529 86.405 113.3812
3.910664 86.473 112.8539
3.939002 86.541 112.3289
3.967546 86.609 111.8065
3.996296 86.677 111.2867
4.025255 86.744 110.7695
4.054423 86.811 110.2547
4.083804 86.877 109.7421
4.113396 86.943 109.2313
4.143204 87.009 108.7222
4.173227 87.074 108.2147
4.203468 87.139 107.7086
4.233928 87.204 107.2040
4.264609 87.268 106.7007
4.295512 87.333 106.1989
4.326639 87.396 105.6985
4.357992 87.460 105.1994
4.389572 87.524 104.7016
4.421380 87.587 104.2051
4.453419 87.650 103.7096
4.485691 87.713 103.2151
4.518196 87.776 102.7214
4.550936 87.838 102.2284
4.583914 87.901 101.7358
4.617131 87.962 101.2437
4.650589 88.024 100.7519
4.684289 88.086 100.2602
4.718233 88.147 99.7685
4.752424 88.208 99.2766
4.786862 88.269 98.7845
4.821549 88.329 98.2921
4.856488 88.390 97.7992
4.891680 88.450 97.3059
4.927127 88.510 96.8121
4.962831 88.569 96.3178
4.998794 88.628 95.8230
5.035017 88.687 95.3275
5.071503 88.745 94.8314
5.108253 88.803 94.3344
5.145270 88.860 93.8364
5.182555 88.917 93.3372
5.220110 88.974 92.8368
5.257937 89.030 92.3353
5.296038 89.085 91.8329
5.334415 89.140 91.3298
5.373071 89.195 90.8263
5.412006 89.249 90.3224
5.451224 89.302 89.8183
5.490725 89.354 89.3138
5.530514 89.406 88.8089
5.570590 89.457 88.3034
5.610957 89.507 87.7975
5.651616 89.557 87.2913
5.692570 89.606 86.7854
5.733821 89.654 86.2802
5.775370 89.702 85.7759
5.817221 89.748 85.2731
5.859375 89.794 84.7716
5.901834 89.839 84.2716
5.944602 89.884 83.7729
5.987679 89.927 83.2757
6.031068 89.970 82.7802
6.074771 90.012 82.2868
6.118792 90.054 81.7961
6.163131 90.094 81.3083
6.207792 90.134 80.8239
6.252776 90.174 80.3429
6.298086 90.212 79.8652
6.343725 90.250 79.3910
6.389694 90.288 78.9202
6.435996 90.325 78.4530
6.482634 90.362 77.9897
6.529610 90.398 77.5304
6.576926 90.434 77.0754
6.624585 90.469 76.6246
6.672590 90.505 76.1782
6.720942 90.540 75.7358
6.769645 90.575 75.2974
6.818700 90.609 74.8628
6.868111 90.644 74.4317
6.917881 90.679 74.0042
6.968010 90.714 73.5799
7.018504 90.748 73.1590
7.069362 90.783 72.7411
7.120590 90.818 72.3260
7.172189 90.853 71.9132
7.224161 90.889 71.5022
7.276511 90.924 71.0927
7.329239 90.960 70.6844
7.382350 90.995 70.2769
7.435845 91.031 69.8701
7.489729 91.068 69.4637
7.544002 91.104 69.0573
7.598669 91.140 68.6505
7.653732 91.177 68.2428
7.709194 91.213 67.8340
7.765058 91.250 67.4240
7.821327 91.286 67.0125
7.878004 91.322 66.5997
7.935091 91.358 66.1852
7.992592 91.394 65.7692
8.050510 91.430 65.3514
8.108847 91.465 64.9319
8.167607 91.499 64.5109
8.226793 91.534 64.0883
8.286408 91.567 63.6647
8.346454 91.601 63.2403
8.406936 91.633 62.8154
8.467856 91.665 62.3902
8.529218 91.696 61.9650
8.591024 91.726 61.5401
8.653278 91.756 61.1161
8.715983 91.785 60.6936
8.779143 91.814 60.2729
8.842760 91.841 59.8543
8.906839 91.868 59.4383
8.971381 91.894 59.0251
9.036392 91.920 58.6151
9.101873 91.945 58.2086
9.167829 91.970 57.8061
9.234263 91.994 57.4075
9.301178 92.018 57.0131
9.368578 92.042 56.6228
9.436467 92.065 56.2366
9.504847 92.089 55.8545
9.573723 92.112 55.4763
9.643099 92.135 55.1020
9.712976 92.158 54.7311
9.783361 92.182 54.3634
9.854255 92.205 53.9985
9.925663 92.229 53.6359
9.997588 92.253 53.2754
10.070035 92.276 52.9164
10.143007 92.300 52.5587
10.216507 92.325 52.2018
10.290540 92.349 51.8452
10.365109 92.373 51.4888
10.440219 92.397 51.1323
10.515873 92.421 50.7755
10.592076 92.445 50.4182
10.668830 92.469 50.0606
10.746141 92.492 49.7025
10.824012 92.515 49.3441
10.902447 92.538 48.9857
10.981451 92.560 48.6275
11.061027 92.582 48.2698
11.141180 92.603 47.9130
11.221913 92.624 47.5575
11.303232 92.644 47.2037
11.385140 92.664 46.8521
11.467641 92.683 46.5029
11.550741 92.701 46.1567
11.634442 92.719 45.8136
11.718750 92.737 45.4740
11.803669 92.754 45.1380
11.889203 92.771 44.8057
11.975357 92.788 44.4772
12.062136 92.805 44.1523
12.149543 92.822 43.8308
12.237583 92.838 43.5127
12.326262 92.855 43.1976
12.415583 92.872 42.8852
12.505552 92.888 42.5751
12.596172 92.905 42.2671
12.687449 92.922 41.9608
12.779387 92.938 41.6559
12.871992 92.955 41.3522
12.965268 92.972 41.0496
13.059220 92.988 40.7479
13.153852 93.005 40.4472
13.249170 93.021 40.1475
13.345179 93.037 39.8489
13.441884 93.053 39.5516
13.539289 93.068 39.2559
13.637401 93.084 38.9618
13.736223 93.099 38.6697
13.835761 93.114 38.3796
13.936021 93.128 38.0917
14.037007 93.143 37.8059
14.138725 93.158 37.5223
14.241180 93.173 37.2405
14.344377 93.187 36.9603
14.448323 93.202 36.6813
14.553021 93.217 36.4030
14.658478 93.233 36.1249
14.764700 93.248 35.8465
14.871691 93.264 35.5671
14.979457 93.279 35.2864
15.088005 93.295 35.0038
15.197339 93.310 34.7192
15.307465 93.326 34.4323
15.418389 93.341 34.1432
15.530117 93.355 33.8521
15.642655 93.369 33.5593
15.756008 93.383 33.2654
15.870182 93.395 32.9709
15.985184 93.407 32.6765
16.101019 93.419 32.3831
16.217694 93.430 32.0912
16.335214 93.440 31.8014
16.453586 93.449 31.5144
16.572815 93.459 31.2303
16.692909 93.468 30.9495
16.813872 93.477 30.6718
16.935713 93.486 30.3971
17.058436 93.495 30.1249
17.182048 93.504 29.8547
17.306556 93.513 29.5858
17.431967 93.522 29.3175
17.558286 93.532 29.0493
17.685521 93.542 28.7805
17.813677 93.551 28.5108
17.942762 93.561 28.2397
18.072783 93.570 27.9674
18.203746 93.580 27.6938
18.335658 93.588 27.4194
18.468526 93.597 27.1448
18.602356 93.605 26.8704
18.737156 93.612 26.5971
18.872934 93.619 26.3256
19.009695 93.626 26.0565
19.147447 93.632 25.7905
19.286197 93.638 25.5280
19.425953 93.644 25.2690
19.566721 93.650 25.0138
19.708510 93.656 24.7618
19.851326 93.662 24.5128
19.995177 93.669 24.2660
20.140070 93.676 24.0206
20.286013 93.683 23.7758
20.433014 93.691 23.5308
20.581080 93.699 23.2848
20.730219 93.708 23.0374
20.880439 93.716 22.7880
21.031747 93.724 22.5367
21.184152 93.732 22.2836
21.337661 93.740 22.0291
21.492282 93.747 21.7739
21.648024 93.754 21.5188
21.804895 93.760 21.2646
21.962902 93.765 21.0125
22.122054 93.770 20.7631
22.282360 93.775 20.5170
22.443827 93.779 20.2747
22.606464 93.784 20.0363
22.770280 93.788 19.8017
22.935283 93.792 19.5704
23.101481 93.797 19.3419
23.268884 93.802 19.1155
23.437500 93.807 18.8902
23.607338 93.813 18.6654
23.778406 93.819 18.4404
23.950714 93.824 18.2148
24.124271 93.830 17.9880
24.299086 93.836 17.7601
24.475167 93.842 17.5310
24.652524 93.848 17.3006
24.831166 93.853 17.0692
25.011103 93.858 16.8368
25.192344 93.863 16.6037
25.374898 93.867 16.3701
25.558775 93.871 16.1362
25.743984 93.875 15.9022
25.930536 93.878 15.6687
26.118439 93.881 15.4359
26.307704 93.883 15.2045
26.498341 93.885 14.9747
26.690359 93.886 14.7473
26.883768 93.888 14.5223
27.078579 93.889 14.2999
27.274801 93.890 14.0800
27.472446 93.891 13.8622
27.671522 93.893 13.6460
27.872042 93.894 13.4308
28.074014 93.896 13.2161
28.277450 93.897 13.0011
28.482360 93.899 12.7858
28.688755 93.901 12.5698
28.896645 93.902 12.3533
29.106042 93.904 12.1367
29.316957 93.905 11.9203
29.529400 93.906 11.7047
29.743382 93.907 11.4902
29.958915 93.907 11.2771
30.176009 93.907 11.0656
30.394677 93.908 10.8555
30.614929 93.908 10.6469
30.836778 93.908 10.4396
31.060234 93.908 10.2335
31.285309 93.909 10.0284
31.512015 93.909 9.8241
31.740364 93.909 9.6205
31.970368 93.909 9.4175
32.202039 93.909 9.2150
32.435388 93.909 9.0125
32.670428 93.909 8.8099
32.907171 93.909 8.6071
33.145630 93.909 8.4038
33.385817 93.908 8.2002
33.627745 93.907 7.9964
33.871425 93.906 7.7927
34.116871 93.905 7.5896
34.364096 93.903 7.3872
34.613113 93.901 7.1858
34.863934 93.899 6.9852
35.116572 93.897 6.7853
35.371041 93.895 6.5856
35.627354 93.893 6.3857
35.885525 93.891 6.1854
36.145566 93.889 5.9844
36.407492 93.886 5.7828
36.671316 93.884 5.5809
36.937051 93.881 5.3792
37.204712 93.878 5.1780
37.474313 93.875 4.9774
37.745867 93.872 4.7773
38.019389 93.869 4.5776
38.294893 93.867 4.3777
38.572394 93.864 4.1774
38.851905 93.861 3.9764
39.133442 93.858 3.7753
39.417019 93.855 3.5746
39.702651 93.851 3.3753
39.990353 93.847 3.1783
40.280140 93.843 2.9840
40.572026 93.839 2.7924
40.866028 93.835 2.6028
41.162160 93.831 2.4147
41.460438 93.826 2.2273
41.760877 93.822 2.0405
42.063494 93.818 1.8544
42.368303 93.813 1.6691
42.675322 93.808 1.4850
42.984565 93.803 1.3018
43.296048 93.797 1.1193
43.609789 93.791 0.9368
43.925804 93.786 0.7540
44.244108 93.779 0.5707
44.564719 93.773 0.3861
44.887654 93.766 0.1997
45.212928 93.759 0.0106
45.540560 93.751 -0.1815
45.870565 93.743 -0.3759
46.202962 93.733 -0.5696
46.537768 93.722 -0.7583
46.875000 93.711 -0.9378
47.214676 93.700 -1.1062
47.556813 93.690 -1.2654
47.901429 93.683 -1.4215
48.248542 93.678 -1.5824
48.598171 93.675 -1.7551
48.950334 93.672 -1.9427
49.305048 93.669 -2.1435
49.662333 93.665 -2.3519
50.022206 93.659 -2.5620
50.384688 93.652 -2.7689
50.749796 93.645 -2.9711
51.117550 93.637 -3.1687
51.487969 93.630 -3.3630
51.861072 93.622 -3.5546
52.236879 93.614 -3.7434
52.615409 93.606 -3.9290
52.996681 93.597 -4.1113
53.380717 93.588 -4.2909
53.767536 93.579 -4.4685
54.157158 93.570 -4.6447
54.549603 93.561 -4.8196
54.944892 93.551 -4.9935
55.343045 93.542 -5.1667
55.744084 93.532 -5.3403
56.148028 93.521 -5.5146
56.554900 93.511 -5.6901
56.964720 93.500 -5.8663
57.377510 93.489 -6.0428
57.793291 93.478 -6.2196
58.212085 93.467 -6.3968
58.633914 93.456 -6.5752
59.058799 93.445 -6.7548
59.486764 93.434 -6.9348
59.917829 93.422 -7.1136
60.352019 93.410 -7.2900
60.789354 93.398 -7.4639
61.229859 93.387 -7.6361
61.673556 93.375 -7.8079
62.120468 93.364 -7.9802
62.570618 93.352 -8.1527
63.024031 93.340 -8.3250
63.480729 93.327 -8.4965
63.940736 93.315 -8.6673
64.404077 93.302 -8.8378
64.870776 93.288 -9.0081
65.340856 93.275 -9.1782
65.814343 93.261 -9.3483
66.291261 93.247 -9.5183
66.771635 93.233 -9.6888
67.255489 93.219 -9.8596
67.742850 93.204 -10.0306
68.233743 93.189 -10.2013
68.728193 93.174 -10.3712
69.226226 93.159 -10.5399
69.727867 93.144 -10.7075
70.233144 93.128 -10.8741
70.742083 93.113 -11.0399
71.254709 93.097 -11.2053
71.771050 93.081 -11.3705
72.291132 93.065 -11.5356
72.814984 93.049 -11.7009
73.342631 93.032 -11.8663
73.874102 93.016 -12.0316
74.409424 92.998 -12.1967
74.948626 92.981 -12.3614
75.491734 92.963 -12.5256
76.038779 92.945 -12.6891
76.589787 92.927 -12.8511
77.144788 92.909 -13.0116
77.703811 92.890 -13.1705
78.266885 92.872 -13.3282
78.834039 92.853 -13.4852
79.405303 92.834 -13.6418
79.980706 92.815 -13.7980
80.560280 92.796 -13.9535
81.144053 92.776 -14.1084
81.732056 92.756 -14.2629
82.324320 92.736 -14.4173
82.920876 92.715 -14.5720
83.521755 92.694 -14.7267
84.126988 92.673 -14.8812
84.736607 92.652 -15.0349
85.350643 92.630 -15.1871
85.969129 92.608 -15.3374
86.592097 92.585 -15.4846
87.219579 92.563 -15.6287
87.851608 92.541 -15.7709
88.488217 92.519 -15.9141
89.129439 92.497 -16.0611
89.775308 92.475 -16.2115
90.425856 92.451 -16.3612
91.081119 92.426 -16.5057
91.741131 92.400 -16.6430
92.405925 92.375 -16.7748
93.075536 92.350 -16.9036
93.750000 92.326 -17.0308
94.429351 92.301 -17.1572
95.113625 92.277 -17.2830
95.802858 92.253 -17.4079
96.497085 92.228 -17.5318
97.196342 92.204 -17.6544
97.900667 92.179 -17.7759
98.610096 92.154 -17.8976
99.324665 92.130 -18.0205
100.044413 92.104 -18.1449
100.769376 92.078 -18.2700
101.499592 92.052 -18.3948
102.235100 92.026 -18.5188
102.975938 91.999 -18.6424
103.722144 91.973 -18.7670
104.473757 91.947 -18.8939
105.230817 91.920 -19.0236
105.993363 91.893 -19.1552
106.761435 91.865 -19.2871
107.535072 91.836 -19.4170
108.314315 91.807 -19.5431
109.099206 91.777 -19.6647
109.889783 91.746 -19.7827
110.686090 91.715 -19.8984
111.488167 91.684 -20.0128
112.296056 91.652 -20.1264
113.109800 91.618 -20.2407
113.929440 91.584 -20.3579
114.755020 91.549 -20.4799
115.586582 91.512 -20.6067
116.424170 91.474 -20.7365
117.267827 91.434 -20.8646
118.117598 91.392 -20.9846
118.973527 91.349 -21.0875
119.835658 91.306 -21.1653
120.704037 91.262 -21.2136
121.578708 91.219 -21.2336
122.459718 91.178 -21.2288
123.347111 91.137 -21.2017
124.240935 91.097 -21.1542
125.141236 91.059 -21.0906
126.048061 91.022 -21.0178
126.961458 90.988 -20.9447
127.881473 90.957 -20.8788
128.808154 90.928 -20.8236
129.741551 90.901 -20.7781
130.681712 90.876 -20.7373
131.628686 90.853 -20.6953
132.582521 90.832 -20.6484
133.543269 90.814 -20.5984
134.510979 90.800 -20.5524
135.485701 90.789 -20.5218
136.467486 90.780 -20.5190
137.456386 90.773 -20.5537
138.452451 90.765 -20.6288
139.455735 90.755 -20.7399
140.466288 90.740 -20.8768
141.484165 90.721 -21.0269
142.509418 90.698 -21.1779
143.542100 90.670 -21.3209
144.582265 90.640 -21.4512
145.629968 90.607 -21.5670
146.685262 90.572 -21.6688
147.748204 90.536 -21.7580
148.818849 90.500 -21.8373
149.897251 90.464 -21.9096
150.983469 90.426 -21.9773
152.077557 90.387 -22.0408
153.179574 90.347 -22.0983
154.289576 90.304 -22.1456
155.407622 90.260 -22.1771
156.533770 90.214 -22.1865
157.668078 90.167 -22.1685
158.810606 90.120 -22.1194
159.961413 90.075 -22.0387
161.120559 90.033 -21.9286
162.288105 89.996 -21.7945
163.464112 89.963 -21.6442
164.648640 89.937 -21.4875
165.841752 89.917 -21.3362
167.043510 89.903 -21.2029
168.253976 89.895 -21.0999
169.473213 89.890 -21.0366
170.701286 89.887 -21.0179
171.938258 89.882 -21.0430
173.184194 89.875 -21.1066
174.439158 89.863 -21.2012
175.703216 89.847 -21.3175
176.976434 89.826 -21.4457
178.258878 89.801 -21.5759
179.550615 89.771 -21.6996
180.851713 89.737 -21.8104
182.162239 89.701 -21.9044
183.482262 89.663 -21.9807
184.811850 89.624 -22.0399
186.151073 89.583 -22.0846
187.500000 89.543 -22.1183
188.858702 89.502 -22.1445
190.227250 89.461 -22.1653
191.605715 89.420 -22.1807
192.994169 89.379 -22.1888
194.392685 89.337 -22.1866
195.801334 89.294 -22.1711
197.220191 89.250 -22.1396
198.649330 89.205 -22.0900
200.088825 89.161 -22.0214
201.538751 89.118 -21.9344
202.999184 89.077 -21.8313
204.470200 89.038 -21.7162
205.951875 89.003 -21.5951
207.444287 88.971 -21.4747
208.947514 88.942 -21.3613
210.461634 88.915 -21.2604
211.986726 88.890 -21.1755
213.522869 88.866 -21.1079
215.070144 88.842 -21.0574
216.628631 88.817 -21.0222
218.198411 88.790 -20.9998
219.779567 88.762 -20.9862
221.372180 88.732 -20.9771
222.976334 88.699 -20.9681
224.592112 88.664 -20.9558
226.219600 88.627 -20.9375
227.858880 88.589 -20.9124
229.510039 88.549 -20.8801
231.173164 88.508 -20.8405
232.848340 88.467 -20.7928
234.535655 88.425 -20.7360
236.235197 88.382 -20.6685
237.947054 88.339 -20.5897
239.671317 88.296 -20.4988
241.408074 88.252 -20.3959
243.157416 88.209 -20.2809
244.919435 88.166 -20.1548
246.694223 88.123 -20.0195
248.481871 88.080 -19.8768
250.282473 88.039 -19.7289
252.096123 87.998 -19.5776
253.922915 87.957 -19.4243
255.762945 87.917 -19.2692
257.616309 87.878 -19.1111
259.483103 87.839 -18.9479
261.363424 87.799 -18.7770
263.257372 87.760 -18.5965
265.165043 87.721 -18.4058
267.086538 87.682 -18.2048
269.021957 87.644 -17.9918
270.971401 87.606 -17.7640
272.934972 87.569 -17.5197
274.912771 87.533 -17.2594
276.904902 87.499 -16.9865
278.911469 87.468 -16.7052
280.932577 87.439 -16.4194
282.968330 87.414 -16.1324
285.018835 87.393 -15.8472
287.084199 87.375 -15.5673
289.164530 87.360 -15.2972
291.259935 87.348 -15.0424
293.370525 87.337 -14.8074
295.496408 87.328 -14.5947
297.637697 87.318 -14.4042
299.794503 87.308 -14.2333
301.966937 87.296 -14.0786
304.155114 87.283 -13.9359
306.359147 87.268 -13.8005
308.579152 87.251 -13.6678
310.815244 87.233 -13.5336
313.067539 87.213 -13.3948
315.336156 87.192 -13.2501
317.621211 87.169 -13.0990
319.922826 87.146 -12.9413
322.241118 87.121 -12.7769
324.576210 87.097 -12.6053
326.928223 87.072 -12.4270
329.297280 87.047 -12.2419
331.683504 87.022 -12.0504
334.087019 86.997 -11.8529
336.507952 86.972 -11.6498
338.946427 86.948 -11.4414
341.402572 86.924 -11.2277
343.876516 86.901 -11.0090
346.368387 86.878 -10.7855
348.878315 86.855 -10.5574
351.406431 86.833 -10.3250
353.952867 86.812 -10.0883
356.517756 86.791 -9.8475
359.101230 86.771 -9.6025
361.703426 86.752 -9.3533
364.324478 86.734 -9.0995
366.964523 86.716 -8.8409
369.623699 86.699 -8.5776
372.302145 86.684 -8.3098
375.000000 86.669 -8.0383
377.717405 86.656 -7.7644
380.454501 86.644 -7.4895
383.211431 86.634 -7.2157
385.988339 86.625 -6.9448
388.785369 86.616 -6.6783
391.602668 86.609 -6.4173
394.440383 86.603 -6.1619
397.298660 86.598 -5.9119
400.177650 86.592 -5.6671
403.077502 86.587 -5.4266
405.998368 86.582 -5.1901
408.940400 86.578 -4.9564
411.903750 86.573 -4.7251
414.888575 86.568 -4.4957
417.895028 86.564 -4.2677
420.923268 86.560 -4.0408
423.973452 86.556 -3.8152
427.045738 86.553 -3.5912
430.140287 86.549 -3.3693
433.257261 86.546 -3.1493
436.396822 86.543 -2.9313
439.559133 86.540 -2.7153
442.744360 86.537 -2.5013
445.952668 86.534 -2.2890
449.184225 86.531 -2.0780
452.439199 86.527 -1.8680
455.717760 86.524 -1.6587
459.020079 86.520 -1.4496
462.346327 86.517 -1.2405
465.696680 86.513 -1.0314
469.071310 86.508 -0.8220
472.470394 86.504 -0.6124
475.894109 86.500 -0.4020
479.342634 86.496 -0.1904
482.816148 86.491 0.0227
486.314833 86.487 0.2373
489.838871 86.483 0.4532
493.388445 86.479 0.6700
496.963741 86.475 0.8871
500.564945 86.471 1.1045
504.192245 86.467 1.3224
507.845830 86.463 1.5409
511.525890 86.459 1.7605
515.232618 86.456 1.9813
518.966206 86.452 2.2035
522.726849 86.449 2.4274
526.514743 86.446 2.6527
530.330086 86.443 2.8795
534.173076 86.440 3.1080
538.043915 86.437 3.3381
541.942803 86.434 3.5698
545.869944 86.431 3.8027
549.825542 86.428 4.0367
553.809805 86.426 4.2720
557.822939 86.423 4.5085
561.865154 86.420 4.7465
565.936660 86.418 4.9858
570.037671 86.416 5.2267
574.168399 86.414 5.4697
578.329060 86.411 5.7154
582.519870 86.409 5.9647
586.741049 86.407 6.2181
590.992817 86.406 6.4766
595.275394 86.404 6.7403
599.589005 86.404 7.0095
603.933874 86.404 7.2841
608.310228 86.405 7.5634
612.718295 86.407 7.8459
617.158304 86.411 8.1292
621.630488 86.416 8.4104
626.135079 86.422 8.6871
630.672311 86.429 8.9573
635.242423 86.436 9.2200
639.845651 86.444 9.4756
644.482237 86.450 9.7254
649.152421 86.457 9.9711
653.856447 86.463 10.2148
658.594560 86.468 10.4585
663.367008 86.473 10.7036
668.174039 86.478 10.9517
673.015903 86.482 11.2036
677.892854 86.487 11.4600
682.805145 86.491 11.7214
687.753032 86.495 11.9880
692.736774 86.500 12.2595
697.756631 86.504 12.5355
702.812863 86.509 12.8154
707.905735 86.514 13.0989
713.035511 86.519 13.3857
718.202461 86.525 13.6760
723.406852 86.531 13.9695
728.648956 86.538 14.2663
733.929047 86.546 14.5665
739.247399 86.554 14.8702
744.604290 86.563 15.1775
750.000000 86.572 15.4883
755.434809 86.583 15.8022
760.909001 86.593 16.1194
766.422861 86.605 16.4393
771.976677 86.617 16.7621
777.570739 86.630 17.0874
783.205337 86.643 17.4150
788.880766 86.657 17.7451
794.597321 86.672 18.0778
800.355301 86.688 18.4131
806.155005 86.705 18.7512
811.996736 86.723 19.0919
817.880799 86.742 19.4351
823.807501 86.762 19.7804
829.777150 86.782 20.1277
835.790057 86.804 20.4764
841.846536 86.828 20.8265
847.946903 86.852 21.1774
854.091476 86.878 21.5290
860.280575 86.904 21.8810
866.514523 86.933 22.2336
872.793644 86.962 22.5867
879.118267 86.993 22.9401
885.488720 87.026 23.2934
891.905336 87.060 23.6458
898.368450 87.095 23.9966
904.878398 87.132 24.3447
911.435520 87.170 24.6895
918.040157 87.210 25.0300
924.692655 87.252 25.3656
931.393359 87.294 25.6957
938.142619 87.338 26.0198
944.940787 87.384 26.3375
951.788218 87.430 26.6489
958.685268 87.478 26.9537
965.632296 87.527 27.2518
972.629666 87.577 27.5425
979.677741 87.628 27.8251
986.776890 87.681 28.0989
993.927482 87.735 28.3633
1001.129891 87.789 28.6177
1008.384491 87.845 28.8614
1015.691660 87.901 29.0939
1023.051781 87.958 29.3150
1030.465236 88.016 29.5247
1037.932411 88.074 29.7230
1045.453698 88.132 29.9101
1053.029486 88.191 30.0860
1060.660172 88.249 30.2511
1068.346153 88.308 30.4054
1076.087829 88.367 30.5492
1083.885605 88.425 30.6825
1091.739887 88.483 30.8054
1099.651084 88.541 30.9181
1107.619609 88.599 31.0207
1115.645878 88.657 31.1133
1123.730308 88.714 31.1962
1131.873321 88.771 31.2697
1140.075341 88.827 31.3340
1148.336797 88.882 31.3896
1156.658119 88.937 31.4369
1165.039741 88.991 31.4761
1173.482099 89.043 31.5081
1181.985634 89.095 31.5336
1190.550789 89.146 31.5536
1199.178011 89.195 31.5687
1207.867749 89.244 31.5796
1216.620457 89.291 31.5867
1225.436590 89.338 31.5902
1234.316609 89.383 31.5906
1243.260976 89.427 31.5884
1252.270157 89.471 31.5841
1261.344623 89.513 31.5780
1270.484846 89.554 31.5706
1279.691303 89.595 31.5622
1288.964474 89.634 31.5531
1298.304842 89.673 31.5437
1307.712894 89.710 31.5343
1317.189120 89.747 31.5253
1326.734016 89.784 31.5172
1336.348077 89.819 31.5107
1346.031806 89.854 31.5063
1355.785708 89.888 31.5045
1365.610290 89.921 31.5060
1375.506065 89.953 31.5110
1385.473549 89.985 31.5198
1395.513261 90.016 31.5325
1405.625726 90.046 31.5490
1415.811469 90.076 31.5688
1426.071023 90.106 31.5923
1436.404921 90.136 31.6191
1446.813703 90.165 31.6497
1457.297912 90.195 31.6840
1467.858093 90.224 31.7223
1478.494798 90.254 31.7646
1489.208581 90.284 31.8112
1500.000000 90.314 31.8620
1510.869618 90.344 31.9171
1521.818002 90.374 31.9765
1532.845723 90.405 32.0400
1543.953355 90.435 32.1073
1555.141477 90.467 32.1783
1566.410674 90.499 32.2529
1577.761531 90.531 32.3311
1589.194642 90.564 32.4128
1600.710601 90.597 32.4981
1612.310010 90.631 32.5866
1623.993473 90.666 32.6782
1635.761599 90.701 32.7727
1647.615002 90.737 32.8701
1659.554299 90.774 32.9700
1671.580114 90.812 33.0722
1683.693072 90.851 33.1764
1695.893807 90.890 33.2823
1708.182952 90.931 33.3896
1720.561150 90.972 33.4980
1733.029045 91.014 33.6075
1745.587288 91.058 33.7178
1758.236533 91.103 33.8285
1770.977440 91.148 33.9393
1783.810673 91.195 34.0499
1796.736900 91.243 34.1600
1809.756796 91.292 34.2693
1822.871040 91.343 34.3777
1836.080315 91.395 34.4848
1849.385310 91.448 34.5905
1862.786718 91.502 34.6945
1876.285239 91.558 34.7967
1889.881575 91.616 34.8968
1903.576436 91.675 34.9941
1917.370535 91.735 35.0880
1931.264593 91.797 35.1778
1945.259332 91.861 35.2628
1959.355483 91.926 35.3426
1973.553781 91.993 35.4168
1987.854965 92.062 35.4850
2002.259781 92.132 35.5468
2016.768981 92.204 35.6017
2031.383320 92.278 35.6490
2046.103561 92.353 35.6882
2060.930471 92.430 35.7188
2075.864823 92.509 35.7401
2090.907395 92.589 35.7513
2106.058972 92.672 35.7514
2121.320344 92.756 35.7393
2136.692305 92.843 35.7137
2152.175658 92.931 35.6732
2167.771210 93.022 35.6162
2183.479774 93.115 35.5411
2199.302169 93.210 35.4462
2215.239219 93.306 35.3299
2231.291755 93.404 35.1906
2247.460615 93.504 35.0268
2263.746641 93.604 34.8373
2280.150683 93.706 34.6212
2296.673595 93.808 34.3776
2313.316238 93.911 34.1061
2330.079481 94.014 33.8065
2346.964198 94.118 33.4783
2363.971268 94.221 33.1214
2381.101578 94.324 32.7350
2398.356022 94.426 32.3186
2415.735498 94.528 31.8712
2433.240913 94.629 31.3920
2450.873180 94.729 30.8797
2468.633217 94.828 30.3334
2486.521951 94.926 29.7523
2504.540314 95.021 29.1359
2522.689246 95.114 28.4841
2540.969692 95.204 27.7966
2559.382606 95.290 27.0737
2577.928947 95.373 26.3157
2596.609683 95.453 25.5229
2615.425787 95.527 24.6965
2634.378241 95.597 23.8373
2653.468031 95.662 22.9465
2672.696154 95.721 22.0255
2692.063613 95.773 21.0763
2711.571415 95.820 20.1008
2731.220579 95.859 19.1020
2751.012130 95.891 18.0825
2770.947098 95.915 17.0454
2791.026522 95.932 15.9940
2811.251451 95.940 14.9316
2831.622938 95.941 13.8623
2852.142045 95.933 12.7899
2872.809842 95.917 11.7188
2893.627406 95.892 10.6533
2914.595823 95.859 9.5976
2935.716186 95.818 8.5559
2956.989596 95.769 7.5323
2978.417161 95.712 6.5306
3000.000000 95.647 5.5546
3021.739237 95.576 4.6074
3043.636005 95.498 3.6925
3065.691446 95.414 2.8129
3087.906710 95.324 1.9714
3110.282955 95.229 1.1707
3132.821347 95.128 0.4130
3155.523062 95.024 -0.2999
3178.389283 94.915 -0.9667
3201.421202 94.803 -1.5861
3224.620020 94.688 -2.1575
3247.986946 94.571 -2.6804
3271.523198 94.452 -3.1544
3295.230004 94.331 -3.5797
3319.108599 94.210 -3.9564
3343.160228 94.088 -4.2848
3367.386145 93.966 -4.5654
3391.787613 93.845 -4.7991
3416.365904 93.724 -4.9866
3441.122300 93.605 -5.1290
3466.058091 93.487 -5.2275
3491.174576 93.372 -5.2833
3516.473066 93.258 -5.2978
3541.954880 93.147 -5.2723
3567.621345 93.039 -5.2084
3593.473800 92.934 -5.1075
3619.513592 92.833 -4.9714
3645.742080 92.735 -4.8015
3672.160630 92.641 -4.5995
3698.770620 92.551 -4.3672
3725.573436 92.466 -4.1068
3752.570477 92.384 -3.8200
3779.763150 92.308 -3.5090
3807.152872 92.236 -3.1757
3834.741071 92.169 -2.8221
3862.529185 92.107 -2.4502
3890.518664 92.050 -2.0621
3918.710966 91.998 -1.6595
3947.107561 91.952 -1.2443
3975.709929 91.911 -0.8183
4004.519563 91.876 -0.3834
4033.537962 91.846 0.0581
4062.766641 91.822 0.5040
4092.207123 91.804 0.9518
4121.860942 91.792 1.3991
4151.729646 91.786 1.8435
4181.814790 91.785 2.2825
4212.117944 91.790 2.7136
4242.640687 91.801 3.1339
4273.384610 91.818 3.5405
4304.351317 91.841 3.9305
4335.542421 91.869 4.3008
4366.959549 91.904 4.6480
4398.604338 91.943 4.9688
4430.478438 91.988 5.2595
4462.583511 92.039 5.5164
4494.921231 92.094 5.7352
4527.493283 92.155 5.9119
4560.301365 92.219 6.0420
4593.347189 92.287 6.1216
4626.632476 92.358 6.1469
4660.158962 92.431 6.1145
4693.928395 92.505 6.0211
4727.942535 92.579 5.8641
4762.203156 92.652 5.6412
4796.712043 92.723 5.3506
4831.470996 92.791 4.9916
4866.481826 92.855 4.5645
4901.746360 92.913 4.0706
4937.266434 92.965 3.5128
4973.043902 93.009 2.8951
5009.080628 93.043 2.2229
5045.378492 93.067 1.5028
5081.939384 93.080 0.7430
5118.765212 93.080 -0.0472
5155.857894 93.067 -0.8578
5193.219366 93.041 -1.6777
5230.851574 93.000 -2.4950
5268.756481 92.946 -3.2977
5306.936062 92.877 -4.0735
5345.392309 92.795 -4.8105
5384.127225 92.701 -5.4976
5423.142830 92.595 -6.1237
5462.441159 92.478 -6.6793
5502.024259 92.352 -7.1555
5541.894195 92.219 -7.5451
5582.053045 92.080 -7.8419
5622.502902 91.937 -8.0415
5663.245876 91.792 -8.1409
5704.284090 91.646 -8.1387
5745.619684 91.502 -8.0347
5787.254813 91.362 -7.8302
5829.191647 91.227 -7.5280
5871.432373 91.099 -7.1320
5913.979192 90.981 -6.6477
5956.834323 90.874 -6.0818
6000.000000 90.780 -5.4421
6043.478473 90.700 -4.7382
6087.272010 90.637 -3.9805
6131.382892 90.592 -3.1815
6175.813420 90.566 -2.3556
6220.565910 90.560 -1.5187
6265.642695 90.577 -0.6892
6311.046124 90.617 0.1123
6356.778566 90.681 0.8628
6402.842404 90.769 1.5361
6449.240040 90.881 2.1037
6495.973891 91.016 2.5352
6543.046396 91.172 2.7986
6590.460007 91.345 2.8626
6638.217197 91.532 2.6971
6686.320456 91.726 2.2765
6734.772290 91.923 1.5809
6783.575226 92.113 0.5995
6832.731809 92.290 -0.6686
6882.244600 92.444 -2.2122
6932.116181 92.567 -4.0084
6982.349153 92.653 -6.0219
7032.946133 92.693 -8.2067
7083.909760 92.685 -10.5074
7135.242690 92.624 -12.8623
7186.947600 92.510 -15.2067
7239.027185 92.344 -17.4763
7291.484160 92.129 -19.6112
7344.321260 91.871 -21.5593
7397.541239 91.577 -23.2792
7451.146872 91.255 -24.7426
7505.140954 90.914 -25.9354
7559.526299 90.561 -26.8568
7614.305743 90.204 -27.5186
7669.482141 89.851 -27.9415
7725.058371 89.507 -28.1532
7781.037328 89.176 -28.1846
7837.421932 88.860 -28.0670
7894.215122 88.561 -27.8304
7951.419859 88.279 -27.5026
8009.039125 88.014 -27.1077
8067.075924 87.765 -26.6671
8125.533282 87.532 -26.1989
8184.414245 87.312 -25.7179
8243.721885 87.104 -25.2360
8303.459292 86.906 -24.7621
8363.629581 86.716 -24.3020
8424.235888 86.533 -23.8588
8485.281374 86.354 -23.4327
8546.769221 86.178 -23.0226
8608.702634 86.004 -22.6253
8671.084842 85.831 -22.2369
8733.919097 85.657 -21.8529
8797.208675 85.481 -21.4680
8860.956876 85.304 -21.0768
8925.167022 85.123 -20.6733
8989.842461 84.939 -20.2510
9054.986566 84.750 -19.8023
9120.602731 84.556 -19.3187
9186.694378 84.357 -18.7906
9253.264952 84.153 -18.2075
9320.317925 83.943 -17.5579
9387.856790 83.729 -16.8303
9455.885071 83.511 -16.0139
9524.406312 83.291 -15.0988
9593.424086 83.070 -14.0771
9662.941992 82.850 -12.9441
9732.963653 82.633 -11.6974
9803.492719 82.422 -10.3374
9874.532869 82.218 -8.8666
9946.087805 82.023 -7.2895
10018.161257 81.840 -5.6123
10090.756983 81.670 -3.8428
10163.878768 81.514 -1.9893
10237.530423 81.373 -0.0612
10311.715789 81.250 1.9316
10386.438732 81.145 3.9783
10461.703149 81.059 6.0670
10537.512962 80.993 8.1855
10613.872125 80.948 10.3208
10690.784618 80.924 12.4592
10768.254450 80.920 14.5872
10846.285661 80.939 16.6909
10924.882318 80.979 18.7563
11004.048518 81.040 20.7689
11083.788390 81.123 22.7133
11164.106090 81.228 24.5721
11245.005805 81.355 26.3249
11326.491752 81.503 27.9463
11408.568180 81.672 29.4054
11491.239368 81.859 30.6682
11574.509626 82.059 31.7024
11658.383294 82.267 32.4827
11742.864745 82.476 32.9949
11827.958384 82.679 33.2367
11913.668646 82.869 33.2192
12000.000000 83.038 32.9659
12086.956947 83.181 32.5130
12174.544019 83.292 31.9077
12262.765784 83.369 31.2053
12351.626840 83.412 30.4649
12441.131819 83.422 29.7449
12531.285389 83.403 29.0976
12622.092249 83.362 28.5649
12713.557132 83.305 28.1761
12805.684808 83.240 27.9465
12898.480079 83.175 27.8796
12991.947783 83.117 27.9687
13086.092792 83.071 28.2002
13180.920015 83.043 28.5566
13276.434395 83.038 29.0179
13372.640911 83.061 29.5619
13469.544580 83.115 30.1645
13567.150452 83.207 30.7974
13665.463617 83.339 31.4273
13764.489200 83.517 32.0128
13864.232362 83.744 32.5029
13964.698305 84.022 32.8340
14065.892266 84.351 32.9304
14167.819519 84.727 32.7058
14270.485380 85.143 32.0701
14373.895200 85.583 30.9399
14478.054370 86.029 29.2523
14582.968320 86.461 26.9773
14688.642520 86.856 24.1252
14795.082478 87.193 20.7483
14902.293745 87.457 16.9326
15010.281908 87.638 12.7854
15119.052599 87.732 8.4170
15228.611486 87.743 3.9225
15338.964283 87.674 -0.6306
15450.116741 87.533 -5.2052
15562.074656 87.322 -9.7849
15674.843864 87.038 -14.3572
15788.430244 86.676 -18.8928
15902.839718 86.227 -23.3319
16018.078250 85.684 -27.5837
16134.151848 85.045 -31.5355
16251.066563 84.313 -35.0703
16368.828491 83.495 -38.0842
16487.443769 82.607 -40.4987
16606.918584 81.665 -42.2693
16727.259161 80.688 -43.3871
16848.471777 79.695 -43.8772
16970.562748 78.705 -43.7937
17093.538442 77.733 -43.2120
17217.405268 76.792 -42.2194
17342.169684 75.892 -40.9050
17467.838194 75.038 -39.3492
17594.417350 74.231 -37.6139
17721.913751 73.469 -35.7321
17850.334044 72.750 -33.6987
17979.684923 72.071 -31.4605
18109.973131 71.432 -28.9045
18241.205462 70.846 -25.8486
18373.388756 70.342 -22.0443
18506.529905 69.978 -17.2244
18640.635849 69.837 -11.2617
18775.713581 70.000 -4.4711
18911.770141 70.492 2.1604
19048.812624 71.239 7.2938
19186.848172 72.099 10.0338
19325.883983 72.928 10.3536
19465.927305 73.626 8.8684
19606.985439 74.153 6.4126
19749.065738 74.511 3.7682
19892.175609 74.726 1.5782
20036.322514 74.825 0.3355
