* Measurement data measured by REW V5.31.3
* Source: Headset (CX31993 HIFI AUDIO), MICROPHONE (Master Volume), R, volume: 0.250
* Format: 256k Log Swept Sine, 1 sweep at -12.0 dBFS with no timing reference
* Dated: 12 31, 24 1:03:39 PM
* REW Settings:
*  C-weighting compensation: Off
*  Target level: 75.0 dB
* Note: ; 
* Measurement: Sony LB 2.5K MIN L
* Smoothing: 1/12 octave
* Frequency Step: 96 ppo
* Start Frequency: 0.36621094 Hz
*
* Freq(Hz) SPL(dB) Phase(degrees)
0.366211 30.572 -81.1550
0.368865 30.602 -81.2133
0.371538 30.646 -81.2989
0.374230 30.701 -81.4032
0.376942 30.762 -81.5192
0.379673 30.828 -81.6415
0.382424 30.896 -81.7667
0.385196 30.966 -81.8928
0.387987 31.038 -82.0186
0.390798 31.110 -82.1433
0.393630 31.183 -82.2669
0.396483 31.256 -82.3889
0.399356 31.330 -82.5096
0.402250 31.405 -82.6287
0.405165 31.480 -82.7464
0.408101 31.555 -82.8627
0.411058 31.632 -82.9777
0.414037 31.708 -83.0914
0.417037 31.786 -83.2039
0.420059 31.864 -83.3153
0.423103 31.942 -83.4256
0.426169 32.021 -83.5348
0.429257 32.101 -83.6432
0.432368 32.181 -83.7507
0.435501 32.262 -83.8574
0.438656 32.343 -83.9635
0.441835 32.425 -84.0689
0.445037 32.507 -84.1739
0.448262 32.590 -84.2784
0.451510 32.674 -84.3826
0.454782 32.758 -84.4865
0.458077 32.843 -84.5903
0.461397 32.929 -84.6940
0.464740 33.015 -84.7978
0.468108 33.102 -84.9017
0.471500 33.189 -85.0059
0.474917 33.277 -85.1104
0.478358 33.366 -85.2154
0.481825 33.456 -85.3209
0.485316 33.546 -85.4271
0.488833 33.636 -85.5340
0.492375 33.728 -85.6418
0.495943 33.820 -85.7506
0.499537 33.912 -85.8605
0.503157 34.005 -85.9715
0.506803 34.099 -86.0839
0.510475 34.194 -86.1977
0.514175 34.290 -86.3130
0.517900 34.386 -86.4300
0.521653 34.482 -86.5487
0.525434 34.580 -86.6693
0.529241 34.678 -86.7919
0.533076 34.777 -86.9165
0.536939 34.876 -87.0434
0.540830 34.977 -87.1726
0.544749 35.078 -87.3043
0.548696 35.180 -87.4385
0.552673 35.282 -87.5754
0.556677 35.385 -87.7151
0.560711 35.489 -87.8577
0.564774 35.594 -88.0033
0.568867 35.700 -88.1521
0.572989 35.806 -88.3041
0.577141 35.913 -88.4595
0.581324 36.021 -88.6185
0.585536 36.129 -88.7810
0.589779 36.239 -88.9473
0.594053 36.349 -89.1174
0.598358 36.460 -89.2916
0.602694 36.572 -89.4698
0.607061 36.684 -89.6523
0.611460 36.798 -89.8391
0.615891 36.912 -90.0303
0.620354 37.027 -90.2262
0.624849 37.143 -90.4268
0.629377 37.260 -90.6322
0.633938 37.378 -90.8425
0.638532 37.496 -91.0579
0.643159 37.615 -91.2786
0.647819 37.736 -91.5045
0.652514 37.857 -91.7359
0.657242 37.979 -91.9729
0.662005 38.101 -92.2156
0.666802 38.225 -92.4640
0.671634 38.350 -92.7185
0.676501 38.475 -92.9790
0.681403 38.602 -93.2456
0.686341 38.729 -93.5186
0.691314 38.857 -93.7980
0.696324 38.986 -94.0838
0.701370 39.116 -94.3762
0.706452 39.246 -94.6751
0.711571 39.376 -94.9804
0.716728 39.507 -95.2917
0.721921 39.636 -95.6087
0.727153 39.764 -95.9302
0.732422 39.890 -96.2553
0.737729 40.014 -96.5824
0.743075 40.135 -96.9100
0.748460 40.255 -97.2371
0.753883 40.373 -97.5628
0.759346 40.491 -97.8864
0.764849 40.608 -98.2079
0.770391 40.725 -98.5271
0.775974 40.843 -98.8440
0.781597 40.960 -99.1587
0.787261 41.077 -99.4713
0.792966 41.194 -99.7820
0.798712 41.311 -100.0908
0.804500 41.428 -100.3981
0.810329 41.546 -100.7039
0.816201 41.663 -101.0085
0.822116 41.781 -101.3120
0.828073 41.898 -101.6147
0.834074 42.016 -101.9167
0.840118 42.133 -102.2183
0.846206 42.251 -102.5196
0.852338 42.369 -102.8209
0.858514 42.487 -103.1224
0.864735 42.605 -103.4243
0.871001 42.723 -103.7268
0.877313 42.841 -104.0302
0.883670 42.959 -104.3346
0.890074 43.078 -104.6403
0.896524 43.196 -104.9476
0.903020 43.315 -105.2567
0.909564 43.434 -105.5678
0.916155 43.553 -105.8811
0.922794 43.672 -106.1969
0.929481 43.791 -106.5154
0.936216 43.910 -106.8370
0.943000 44.030 -107.1617
0.949834 44.150 -107.4900
0.956717 44.270 -107.8219
0.963649 44.390 -108.1579
0.970632 44.511 -108.4981
0.977666 44.632 -108.8428
0.984750 44.753 -109.1923
0.991886 44.874 -109.5468
0.999074 44.996 -109.9066
1.006314 45.118 -110.2719
1.013606 45.240 -110.6431
1.020951 45.363 -111.0205
1.028349 45.486 -111.4042
1.035801 45.609 -111.7945
1.043307 45.733 -112.1918
1.050867 45.857 -112.5963
1.058482 45.982 -113.0080
1.066152 46.108 -113.4273
1.073878 46.233 -113.8541
1.081660 46.360 -114.2883
1.089498 46.486 -114.7294
1.097393 46.613 -115.1768
1.105345 46.740 -115.6295
1.113355 46.868 -116.0867
1.121423 46.995 -116.5473
1.129549 47.123 -117.0106
1.137734 47.250 -117.4760
1.145979 47.377 -117.9432
1.154283 47.505 -118.4118
1.162647 47.632 -118.8816
1.171072 47.759 -119.3526
1.179558 47.887 -119.8245
1.188106 48.014 -120.2973
1.196715 48.141 -120.7709
1.205387 48.268 -121.2453
1.214122 48.395 -121.7205
1.222920 48.522 -122.1964
1.231782 48.649 -122.6730
1.240708 48.776 -123.1504
1.249699 48.903 -123.6285
1.258754 49.030 -124.1075
1.267876 49.157 -124.5874
1.277063 49.284 -125.0682
1.286318 49.411 -125.5500
1.295639 49.538 -126.0330
1.305027 49.665 -126.5172
1.314484 49.792 -127.0027
1.324009 49.919 -127.4897
1.333604 50.047 -127.9784
1.343268 50.174 -128.4688
1.353002 50.301 -128.9612
1.362806 50.429 -129.4557
1.372681 50.556 -129.9526
1.382628 50.684 -130.4519
1.392647 50.812 -130.9539
1.402739 50.940 -131.4589
1.412904 51.069 -131.9669
1.423142 51.197 -132.4783
1.433455 51.326 -132.9930
1.443843 51.455 -133.5111
1.454305 51.584 -134.0326
1.464844 51.713 -134.5573
1.475459 51.842 -135.0848
1.486150 51.971 -135.6146
1.496920 52.100 -136.1465
1.507767 52.228 -136.6801
1.518693 52.357 -137.2151
1.529698 52.485 -137.7513
1.540783 52.613 -138.2887
1.551948 52.740 -138.8271
1.563194 52.868 -139.3664
1.574521 52.995 -139.9067
1.585931 53.122 -140.4479
1.597423 53.249 -140.9901
1.608999 53.375 -141.5332
1.620658 53.501 -142.0775
1.632402 53.627 -142.6229
1.644232 53.753 -143.1696
1.656146 53.879 -143.7176
1.668147 54.004 -144.2671
1.680235 54.130 -144.8183
1.692411 54.255 -145.3713
1.704675 54.380 -145.9263
1.717028 54.505 -146.4835
1.729470 54.630 -147.0432
1.742003 54.754 -147.6055
1.754626 54.879 -148.1707
1.767341 55.004 -148.7392
1.780147 55.128 -149.3112
1.793047 55.253 -149.8870
1.806040 55.377 -150.4670
1.819128 55.502 -151.0515
1.832310 55.626 -151.6408
1.845587 55.750 -152.2351
1.858961 55.873 -152.8344
1.872432 55.996 -153.4385
1.886001 56.119 -154.0470
1.899667 56.241 -154.6596
1.913433 56.363 -155.2758
1.927299 56.484 -155.8949
1.941265 56.605 -156.5166
1.955332 56.725 -157.1403
1.969501 56.845 -157.7655
1.983773 56.965 -158.3918
1.998148 57.084 -159.0188
2.012627 57.203 -159.6461
2.027212 57.321 -160.2733
2.041902 57.439 -160.9002
2.056698 57.556 -161.5264
2.071602 57.674 -162.1517
2.086614 57.791 -162.7759
2.101734 57.907 -163.3989
2.116964 58.024 -164.0207
2.132304 58.140 -164.6412
2.147756 58.256 -165.2607
2.163320 58.372 -165.8794
2.178996 58.487 -166.4979
2.194786 58.602 -167.1170
2.210690 58.717 -167.7375
2.226710 58.831 -168.3601
2.242845 58.945 -168.9852
2.259098 59.058 -169.6131
2.275468 59.170 -170.2435
2.291957 59.281 -170.8761
2.308566 59.392 -171.5103
2.325295 59.503 -172.1456
2.342145 59.613 -172.7814
2.359117 59.722 -173.4170
2.376212 59.830 -174.0519
2.393431 59.939 -174.6855
2.410775 60.046 -175.3171
2.428244 60.154 -175.9463
2.445840 60.260 -176.5726
2.463564 60.367 -177.1955
2.481416 60.473 -177.8147
2.499397 60.579 -178.4300
2.517509 60.685 -179.0414
2.535752 60.790 -179.6492
2.554127 60.895 179.7460
2.572635 61.000 179.1433
2.591277 61.104 178.5420
2.610055 61.207 177.9411
2.628968 61.310 177.3403
2.648019 61.412 176.7394
2.667208 61.513 176.1388
2.686535 61.614 175.5386
2.706003 61.714 174.9395
2.725612 61.814 174.3419
2.745363 61.913 173.7465
2.765257 62.011 173.1540
2.785295 62.110 172.5648
2.805478 62.208 171.9798
2.825808 62.306 171.3994
2.846285 62.404 170.8242
2.866910 62.501 170.2544
2.887685 62.599 169.6904
2.908611 62.696 169.1319
2.929688 62.793 168.5787
2.950917 62.890 168.0302
2.972301 62.987 167.4857
2.993839 63.083 166.9446
3.015534 63.179 166.4067
3.037386 63.274 165.8718
3.059396 63.369 165.3400
3.081565 63.463 164.8115
3.103896 63.558 164.2863
3.126388 63.652 163.7649
3.149043 63.747 163.2475
3.171862 63.841 162.7346
3.194847 63.935 162.2264
3.217998 64.030 161.7233
3.241317 64.125 161.2256
3.264805 64.221 160.7336
3.288463 64.316 160.2474
3.312293 64.412 159.7668
3.336295 64.508 159.2919
3.360471 64.604 158.8222
3.384822 64.701 158.3574
3.409350 64.797 157.8972
3.434056 64.894 157.4410
3.458940 64.991 156.9886
3.484005 65.088 156.5395
3.509252 65.185 156.0934
3.534681 65.283 155.6500
3.560295 65.382 155.2091
3.586094 65.481 154.7706
3.612081 65.580 154.3345
3.638255 65.680 153.9009
3.664620 65.781 153.4701
3.691175 65.883 153.0423
3.717923 65.985 152.6177
3.744864 66.088 152.1963
3.772001 66.192 151.7776
3.799335 66.296 151.3612
3.826866 66.401 150.9463
3.854597 66.506 150.5322
3.882529 66.611 150.1181
3.910664 66.718 149.7032
3.939002 66.825 149.2870
3.967546 66.932 148.8691
3.996296 67.040 148.4492
4.025255 67.149 148.0275
4.054423 67.258 147.6041
4.083804 67.368 147.1796
4.113396 67.478 146.7540
4.143204 67.590 146.3272
4.173227 67.701 145.8989
4.203468 67.813 145.4686
4.233928 67.925 145.0356
4.264609 68.038 144.5994
4.295512 68.151 144.1592
4.326639 68.263 143.7145
4.357992 68.376 143.2648
4.389572 68.489 142.8101
4.421380 68.602 142.3504
4.453419 68.715 141.8860
4.485691 68.828 141.4170
4.518196 68.941 140.9438
4.550936 69.054 140.4666
4.583914 69.167 139.9854
4.617131 69.280 139.5002
4.650589 69.392 139.0109
4.684289 69.503 138.5172
4.718233 69.614 138.0191
4.752424 69.724 137.5162
4.786862 69.834 137.0083
4.821549 69.943 136.4955
4.856488 70.051 135.9780
4.891680 70.158 135.4562
4.927127 70.265 134.9308
4.962831 70.371 134.4026
4.998794 70.475 133.8720
5.035017 70.579 133.3396
5.071503 70.682 132.8056
5.108253 70.783 132.2699
5.145270 70.884 131.7324
5.182555 70.983 131.1928
5.220110 71.081 130.6512
5.257937 71.178 130.1081
5.296038 71.273 129.5642
5.334415 71.367 129.0204
5.373071 71.460 128.4777
5.412006 71.552 127.9370
5.451224 71.642 127.3986
5.490725 71.732 126.8627
5.530514 71.819 126.3293
5.570590 71.906 125.7980
5.610957 71.991 125.2691
5.651616 72.075 124.7430
5.692570 72.158 124.2204
5.733821 72.239 123.7021
5.775370 72.320 123.1890
5.817221 72.399 122.6817
5.859375 72.478 122.1804
5.901834 72.555 121.6851
5.944602 72.632 121.1957
5.987679 72.707 120.7121
6.031068 72.781 120.2345
6.074771 72.855 119.7632
6.118792 72.928 119.2986
6.163131 73.001 118.8412
6.207792 73.073 118.3911
6.252776 73.144 117.9484
6.298086 73.215 117.5130
6.343725 73.285 117.0848
6.389694 73.356 116.6635
6.435996 73.425 116.2490
6.482634 73.495 115.8410
6.529610 73.565 115.4395
6.576926 73.634 115.0445
6.624585 73.704 114.6558
6.672590 73.773 114.2732
6.720942 73.843 113.8965
6.769645 73.913 113.5252
6.818700 73.983 113.1589
6.868111 74.053 112.7971
6.917881 74.123 112.4394
6.968010 74.194 112.0856
7.018504 74.265 111.7354
7.069362 74.336 111.3885
7.120590 74.407 111.0446
7.172189 74.479 110.7031
7.224161 74.551 110.3637
7.276511 74.624 110.0258
7.329239 74.696 109.6891
7.382350 74.769 109.3533
7.435845 74.843 109.0182
7.489729 74.916 108.6835
7.544002 74.990 108.3487
7.598669 75.064 108.0135
7.653732 75.139 107.6775
7.709194 75.213 107.3403
7.765058 75.288 107.0018
7.821327 75.363 106.6617
7.878004 75.438 106.3196
7.935091 75.514 105.9753
7.992592 75.589 105.6281
8.050510 75.665 105.2780
8.108847 75.741 104.9245
8.167607 75.817 104.5674
8.226793 75.893 104.2064
8.286408 75.968 103.8411
8.346454 76.044 103.4711
8.406936 76.120 103.0960
8.467856 76.196 102.7155
8.529218 76.271 102.3295
8.591024 76.346 101.9375
8.653278 76.421 101.5396
8.715983 76.495 101.1352
8.779143 76.569 100.7243
8.842760 76.642 100.3067
8.906839 76.715 99.8824
8.971381 76.786 99.4515
9.036392 76.857 99.0142
9.101873 76.927 98.5708
9.167829 76.995 98.1213
9.234263 77.062 97.6662
9.301178 77.128 97.2059
9.368578 77.193 96.7411
9.436467 77.255 96.2727
9.504847 77.317 95.8015
9.573723 77.376 95.3282
9.643099 77.434 94.8536
9.712976 77.490 94.3788
9.783361 77.545 93.9051
9.854255 77.597 93.4336
9.925663 77.648 92.9654
9.997588 77.698 92.5014
10.070035 77.746 92.0427
10.143007 77.792 91.5904
10.216507 77.838 91.1453
10.290540 77.882 90.7085
10.365109 77.925 90.2804
10.440219 77.968 89.8614
10.515873 78.011 89.4518
10.592076 78.053 89.0516
10.668830 78.096 88.6608
10.746141 78.138 88.2790
10.824012 78.182 87.9055
10.902447 78.226 87.5392
10.981451 78.271 87.1793
11.061027 78.317 86.8245
11.141180 78.364 86.4735
11.221913 78.413 86.1248
11.303232 78.462 85.7768
11.385140 78.513 85.4279
11.467641 78.566 85.0768
11.550741 78.619 84.7223
11.634442 78.673 84.3630
11.718750 78.728 83.9982
11.803669 78.783 83.6269
11.889203 78.839 83.2490
11.975357 78.894 82.8644
12.062136 78.950 82.4734
12.149543 79.005 82.0764
12.237583 79.059 81.6742
12.326262 79.113 81.2679
12.415583 79.165 80.8588
12.505552 79.217 80.4483
12.596172 79.268 80.0378
12.687449 79.318 79.6287
12.779387 79.367 79.2224
12.871992 79.416 78.8202
12.965268 79.464 78.4230
13.059220 79.511 78.0314
13.153852 79.559 77.6459
13.249170 79.607 77.2663
13.345179 79.655 76.8924
13.441884 79.704 76.5233
13.539289 79.754 76.1578
13.637401 79.804 75.7946
13.736223 79.856 75.4320
13.835761 79.909 75.0684
13.936021 79.963 74.7019
14.037007 80.017 74.3309
14.138725 80.072 73.9542
14.241180 80.128 73.5704
14.344377 80.183 73.1789
14.448323 80.238 72.7794
14.553021 80.292 72.3722
14.658478 80.346 71.9580
14.764700 80.398 71.5379
14.871691 80.448 71.1136
14.979457 80.497 70.6869
15.088005 80.544 70.2598
15.197339 80.589 69.8345
15.307465 80.632 69.4130
15.418389 80.674 68.9972
15.530117 80.715 68.5886
15.642655 80.755 68.1882
15.756008 80.794 67.7964
15.870182 80.832 67.4135
15.985184 80.871 67.0385
16.101019 80.910 66.6705
16.217694 80.949 66.3079
16.335214 80.989 65.9489
16.453586 81.030 65.5913
16.572815 81.071 65.2333
16.692909 81.112 64.8730
16.813872 81.154 64.5089
16.935713 81.195 64.1400
17.058436 81.236 63.7660
17.182048 81.277 63.3867
17.306556 81.316 63.0027
17.431967 81.355 62.6152
17.558286 81.392 62.2252
17.685521 81.428 61.8344
17.813677 81.462 61.4439
17.942762 81.496 61.0551
18.072783 81.528 60.6689
18.203746 81.560 60.2857
18.335658 81.591 59.9055
18.468526 81.621 59.5279
18.602356 81.652 59.1522
18.737156 81.682 58.7774
18.872934 81.711 58.4028
19.009695 81.740 58.0275
19.147447 81.769 57.6513
19.286197 81.797 57.2744
19.425953 81.824 56.8976
19.566721 81.850 56.5223
19.708510 81.874 56.1507
19.851326 81.897 55.7848
19.995177 81.919 55.4271
20.140070 81.941 55.0797
20.286013 81.962 54.7442
20.433014 81.983 54.4216
20.581080 82.005 54.1115
20.730219 82.029 53.8129
20.880439 82.054 53.5233
21.031747 82.081 53.2399
21.184152 82.111 52.9589
21.337661 82.143 52.6765
21.492282 82.177 52.3892
21.648024 82.212 52.0941
21.804895 82.249 51.7894
21.962902 82.286 51.4742
22.122054 82.324 51.1490
22.282360 82.360 50.8152
22.443827 82.396 50.4749
22.606464 82.432 50.1305
22.770280 82.466 49.7845
22.935283 82.499 49.4390
23.101481 82.532 49.0952
23.268884 82.565 48.7536
23.437500 82.597 48.4139
23.607338 82.630 48.0750
23.778406 82.663 47.7356
23.950714 82.695 47.3944
24.124271 82.728 47.0504
24.299086 82.760 46.7034
24.475167 82.791 46.3538
24.652524 82.821 46.0029
24.831166 82.849 45.6522
25.011103 82.877 45.3038
25.192344 82.904 44.9594
25.374898 82.929 44.6199
25.558775 82.955 44.2856
25.743984 82.980 43.9558
25.930536 83.005 43.6289
26.118439 83.031 43.3026
26.307704 83.057 42.9748
26.498341 83.083 42.6435
26.690359 83.108 42.3076
26.883768 83.132 41.9673
27.078579 83.156 41.6234
27.274801 83.178 41.2781
27.472446 83.199 40.9336
27.671522 83.218 40.5921
27.872042 83.237 40.2552
28.074014 83.256 39.9232
28.277450 83.274 39.5954
28.482360 83.293 39.2699
28.688755 83.312 38.9440
28.896645 83.332 38.6154
29.106042 83.352 38.2821
29.316957 83.371 37.9435
29.529400 83.390 37.6004
29.743382 83.407 37.2547
29.958915 83.424 36.9092
30.176009 83.439 36.5665
30.394677 83.454 36.2286
30.614929 83.468 35.8962
30.836778 83.483 35.5683
31.060234 83.499 35.2429
31.285309 83.514 34.9174
31.512015 83.531 34.5896
31.740364 83.547 34.2585
31.970368 83.562 33.9249
32.202039 83.577 33.5910
32.435388 83.590 33.2602
32.670428 83.603 32.9359
32.907171 83.616 32.6202
33.145630 83.628 32.3134
33.385817 83.642 32.0128
33.627745 83.658 31.7143
33.871425 83.675 31.4124
34.116871 83.693 31.1023
34.364096 83.711 30.7812
34.613113 83.729 30.4488
34.863934 83.744 30.1081
35.116572 83.758 29.7640
35.371041 83.770 29.4225
35.627354 83.779 29.0883
35.885525 83.788 28.7646
36.145566 83.797 28.4515
36.407492 83.806 28.1468
36.671316 83.815 27.8467
36.937051 83.826 27.5475
37.204712 83.837 27.2466
37.474313 83.848 26.9432
37.745867 83.858 26.6387
38.019389 83.867 26.3356
38.294893 83.876 26.0363
38.572394 83.885 25.7418
38.851905 83.895 25.4518
39.133442 83.905 25.1636
39.417019 83.916 24.8735
39.702651 83.927 24.5784
39.990353 83.939 24.2760
40.280140 83.949 23.9668
40.572026 83.958 23.6535
40.866028 83.966 23.3404
41.162160 83.971 23.0322
41.460438 83.976 22.7323
41.760877 83.981 22.4419
42.063494 83.987 22.1593
42.368303 83.993 21.8806
42.675322 84.001 21.6008
42.984565 84.009 21.3149
43.296048 84.018 21.0203
43.609789 84.026 20.7164
43.925804 84.033 20.4062
44.244108 84.039 20.0940
44.564719 84.043 19.7848
44.887654 84.046 19.4825
45.212928 84.049 19.1884
45.540560 84.053 18.9009
45.870565 84.058 18.6158
46.202962 84.065 18.3278
46.537768 84.072 18.0319
46.875000 84.079 17.7255
47.214676 84.086 17.4091
47.556813 84.090 17.0858
47.901429 84.093 16.7606
48.248542 84.094 16.4387
48.598171 84.093 16.1243
48.950334 84.091 15.8200
49.305048 84.089 15.5267
49.662333 84.086 15.2438
50.022206 84.083 14.9695
50.384688 84.081 14.7013
50.749796 84.079 14.4365
51.117550 84.078 14.1730
51.487969 84.077 13.9089
51.861072 84.076 13.6434
52.236879 84.075 13.3764
52.615409 84.074 13.1077
52.996681 84.072 12.8370
53.380717 84.071 12.5640
53.767536 84.070 12.2880
54.157158 84.068 12.0089
54.549603 84.065 11.7271
54.944892 84.062 11.4437
55.343045 84.059 11.1604
55.744084 84.054 10.8794
56.148028 84.049 10.6029
56.554900 84.043 10.3330
56.964720 84.038 10.0708
57.377510 84.033 9.8157
57.793291 84.028 9.5653
58.212085 84.024 9.3156
58.633914 84.021 9.0626
59.058799 84.017 8.8042
59.486764 84.013 8.5411
59.917829 84.007 8.2760
60.352019 84.000 8.0113
60.789354 83.993 7.7469
61.229859 83.985 7.4810
61.673556 83.976 7.2104
62.120468 83.967 6.9346
62.570618 83.957 6.6545
63.024031 83.946 6.3717
63.480729 83.934 6.0862
63.940736 83.921 5.7971
64.404077 83.909 5.5037
64.870776 83.895 5.2070
65.340856 83.881 4.9088
65.814343 83.865 4.6111
66.291261 83.849 4.3176
66.771635 83.830 4.0350
67.255489 83.811 3.7726
67.742850 83.792 3.5369
68.233743 83.775 3.3264
68.728193 83.761 3.1302
69.226226 83.752 2.9340
69.727867 83.744 2.7276
70.233144 83.737 2.5100
70.742083 83.729 2.2857
71.254709 83.721 2.0594
71.771050 83.712 1.8319
72.291132 83.702 1.6010
72.814984 83.693 1.3640
73.342631 83.682 1.1204
73.874102 83.670 0.8721
74.409424 83.656 0.6221
74.948626 83.641 0.3733
75.491734 83.625 0.1274
76.038779 83.609 -0.1147
76.589787 83.592 -0.3528
77.144788 83.575 -0.5876
77.703811 83.558 -0.8212
78.266885 83.541 -1.0560
78.834039 83.524 -1.2932
79.405303 83.506 -1.5317
79.980706 83.487 -1.7692
80.560280 83.466 -2.0031
81.144053 83.446 -2.2321
81.732056 83.424 -2.4552
82.324320 83.403 -2.6710
82.920876 83.381 -2.8783
83.521755 83.360 -3.0776
84.126988 83.340 -3.2715
84.736607 83.321 -3.4634
85.350643 83.302 -3.6564
85.969129 83.284 -3.8525
86.592097 83.265 -4.0524
87.219579 83.245 -4.2557
87.851608 83.225 -4.4611
88.488217 83.203 -4.6664
89.129439 83.180 -4.8710
89.775308 83.156 -5.0757
90.425856 83.131 -5.2830
91.081119 83.106 -5.4948
91.741131 83.080 -5.7117
92.405925 83.053 -5.9323
93.075536 83.026 -6.1537
93.750000 82.998 -6.3733
94.429351 82.970 -6.5890
95.113625 82.942 -6.7997
95.802858 82.915 -7.0052
96.497085 82.888 -7.2057
97.196342 82.862 -7.4025
97.900667 82.835 -7.5970
98.610096 82.808 -7.7893
99.324665 82.781 -7.9787
100.044413 82.752 -8.1647
100.769376 82.721 -8.3479
101.499592 82.689 -8.5295
102.235100 82.656 -8.7098
102.975938 82.621 -8.8885
103.722144 82.585 -9.0660
104.473757 82.549 -9.2424
105.230817 82.511 -9.4176
105.993363 82.472 -9.5911
106.761435 82.433 -9.7616
107.535072 82.393 -9.9276
108.314315 82.351 -10.0874
109.099206 82.308 -10.2399
109.889783 82.263 -10.3843
110.686090 82.216 -10.5188
111.488167 82.167 -10.6402
112.296056 82.117 -10.7449
113.109800 82.065 -10.8303
113.929440 82.012 -10.8939
114.755020 81.959 -10.9312
115.586582 81.908 -10.9372
116.424170 81.857 -10.9097
117.267827 81.810 -10.8497
118.117598 81.767 -10.7628
118.973527 81.729 -10.6577
119.835658 81.695 -10.5450
120.704037 81.666 -10.4362
121.578708 81.641 -10.3394
122.459718 81.618 -10.2557
123.347111 81.597 -10.1792
124.240935 81.578 -10.1030
125.141236 81.562 -10.0275
126.048061 81.549 -9.9621
126.961458 81.538 -9.9180
127.881473 81.529 -9.9016
128.808154 81.519 -9.9166
129.741551 81.510 -9.9694
130.681712 81.501 -10.0685
131.628686 81.492 -10.2181
132.582521 81.480 -10.4092
133.543269 81.463 -10.6199
134.510979 81.441 -10.8201
135.485701 81.414 -10.9801
136.467486 81.381 -11.0789
137.456386 81.345 -11.1106
138.452451 81.305 -11.0839
139.455735 81.264 -11.0138
140.466288 81.221 -10.9175
141.484165 81.179 -10.8090
142.509418 81.140 -10.6976
143.542100 81.106 -10.5964
144.582265 81.079 -10.5207
145.629968 81.057 -10.4756
146.685262 81.038 -10.4606
147.748204 81.021 -10.4780
148.818849 81.001 -10.5242
149.897251 80.978 -10.5878
150.983469 80.951 -10.6595
152.077557 80.922 -10.7369
153.179574 80.892 -10.8187
154.289576 80.863 -10.8999
155.407622 80.834 -10.9731
156.533770 80.808 -11.0323
157.668078 80.782 -11.0732
158.810606 80.756 -11.0924
159.961413 80.730 -11.0885
161.120559 80.703 -11.0653
162.288105 80.676 -11.0304
163.464112 80.649 -10.9911
164.648640 80.621 -10.9520
165.841752 80.593 -10.9159
167.043510 80.566 -10.8834
168.253976 80.538 -10.8536
169.473213 80.509 -10.8229
170.701286 80.479 -10.7851
171.938258 80.449 -10.7358
173.184194 80.418 -10.6743
174.439158 80.388 -10.6036
175.703216 80.359 -10.5280
176.976434 80.331 -10.4501
178.258878 80.303 -10.3717
179.550615 80.276 -10.2947
180.851713 80.249 -10.2216
182.162239 80.223 -10.1551
183.482262 80.196 -10.0960
184.811850 80.168 -10.0419
186.151073 80.139 -9.9874
187.500000 80.108 -9.9274
188.858702 80.077 -9.8598
190.227250 80.046 -9.7844
191.605715 80.015 -9.7010
192.994169 79.986 -9.6100
194.392685 79.959 -9.5128
195.801334 79.933 -9.4117
197.220191 79.909 -9.3073
198.649330 79.886 -9.1991
200.088825 79.863 -9.0865
201.538751 79.839 -8.9708
202.999184 79.814 -8.8549
204.470200 79.789 -8.7424
205.951875 79.764 -8.6349
207.444287 79.739 -8.5323
208.947514 79.716 -8.4330
210.461634 79.694 -8.3343
211.986726 79.673 -8.2334
213.522869 79.654 -8.1281
215.070144 79.636 -8.0167
216.628631 79.619 -7.8975
218.198411 79.603 -7.7692
219.779567 79.586 -7.6320
221.372180 79.568 -7.4886
222.976334 79.550 -7.3438
224.592112 79.532 -7.2020
226.219600 79.513 -7.0656
227.858880 79.494 -6.9343
229.510039 79.476 -6.8062
231.173164 79.458 -6.6783
232.848340 79.441 -6.5485
234.535655 79.424 -6.4155
236.235197 79.409 -6.2789
237.947054 79.393 -6.1377
239.671317 79.378 -5.9911
241.408074 79.361 -5.8411
243.157416 79.345 -5.6912
244.919435 79.328 -5.5439
246.694223 79.311 -5.3996
248.481871 79.295 -5.2569
250.282473 79.280 -5.1144
252.096123 79.266 -4.9718
253.922915 79.252 -4.8289
255.762945 79.240 -4.6845
257.616309 79.227 -4.5361
259.483103 79.215 -4.3812
261.363424 79.202 -4.2194
263.257372 79.190 -4.0529
265.165043 79.178 -3.8870
267.086538 79.167 -3.7275
269.021957 79.156 -3.5778
270.971401 79.144 -3.4364
272.934972 79.134 -3.2969
274.912771 79.124 -3.1530
276.904902 79.115 -3.0021
278.911469 79.107 -2.8456
280.932577 79.100 -2.6858
282.968330 79.093 -2.5237
285.018835 79.086 -2.3584
287.084199 79.079 -2.1901
289.164530 79.071 -2.0217
291.259935 79.064 -1.8572
293.370525 79.057 -1.6980
295.496408 79.051 -1.5415
297.637697 79.047 -1.3840
299.794503 79.044 -1.2242
301.966937 79.043 -1.0629
304.155114 79.041 -0.9004
306.359147 79.039 -0.7368
308.579152 79.037 -0.5726
310.815244 79.034 -0.4120
313.067539 79.031 -0.2606
315.336156 79.028 -0.1227
317.621211 79.024 0.0021
319.922826 79.020 0.1187
322.241118 79.016 0.2352
324.576210 79.012 0.3594
326.928223 79.009 0.4939
329.297280 79.007 0.6359
331.683504 79.007 0.7810
334.087019 79.007 0.9261
336.507952 79.007 1.0697
338.946427 79.007 1.2106
341.402572 79.008 1.3484
343.876516 79.009 1.4850
346.368387 79.009 1.6230
348.878315 79.009 1.7646
351.406431 79.008 1.9103
353.952867 79.006 2.0596
356.517756 79.005 2.2104
359.101230 79.005 2.3580
361.703426 79.007 2.4958
364.324478 79.012 2.6187
366.964523 79.019 2.7247
369.623699 79.028 2.8175
372.302145 79.038 2.9043
375.000000 79.048 2.9930
377.717405 79.058 3.0889
380.454501 79.067 3.1938
383.211431 79.073 3.3073
385.988339 79.078 3.4266
388.785369 79.081 3.5476
391.602668 79.082 3.6671
394.440383 79.082 3.7844
397.298660 79.079 3.8993
400.177650 79.075 4.0101
403.077502 79.069 4.1162
405.998368 79.063 4.2201
408.940400 79.058 4.3287
411.903750 79.055 4.4494
414.888575 79.055 4.5875
417.895028 79.059 4.7438
420.923268 79.068 4.9128
423.973452 79.080 5.0846
427.045738 79.094 5.2488
430.140287 79.109 5.3976
433.257261 79.123 5.5267
436.396822 79.136 5.6350
439.559133 79.148 5.7251
442.744360 79.160 5.8018
445.952668 79.172 5.8712
449.184225 79.185 5.9384
452.439199 79.199 6.0060
455.717760 79.212 6.0732
459.020079 79.225 6.1382
462.346327 79.235 6.2000
465.696680 79.243 6.2594
469.071310 79.249 6.3195
472.470394 79.256 6.3840
475.894109 79.262 6.4559
479.342634 79.270 6.5331
482.816148 79.278 6.6088
486.314833 79.287 6.6760
489.838871 79.298 6.7321
493.388445 79.309 6.7805
496.963741 79.319 6.8285
500.564945 79.328 6.8802
504.192245 79.335 6.9346
507.845830 79.338 6.9875
511.525890 79.339 7.0370
515.232618 79.339 7.0825
518.966206 79.341 7.1243
522.726849 79.344 7.1630
526.514743 79.349 7.2014
530.330086 79.356 7.2435
534.173076 79.364 7.2908
538.043915 79.370 7.3405
541.942803 79.375 7.3856
545.869944 79.379 7.4199
549.825542 79.382 7.4413
553.809805 79.385 7.4529
557.822939 79.387 7.4583
561.865154 79.389 7.4586
565.936660 79.390 7.4520
570.037671 79.391 7.4373
574.168399 79.392 7.4167
578.329060 79.392 7.3975
582.519870 79.393 7.3878
586.741049 79.395 7.3920
590.992817 79.398 7.4099
595.275394 79.402 7.4387
599.589005 79.409 7.4736
603.933874 79.417 7.5093
608.310228 79.425 7.5422
612.718295 79.433 7.5731
617.158304 79.439 7.6041
621.630488 79.442 7.6359
626.135079 79.443 7.6659
630.672311 79.443 7.6913
635.242423 79.442 7.7100
639.845651 79.438 7.7234
644.482237 79.433 7.7360
649.152421 79.428 7.7538
653.856447 79.423 7.7816
658.594560 79.420 7.8209
663.367008 79.418 7.8703
668.174039 79.416 7.9269
673.015903 79.414 7.9865
677.892854 79.410 8.0427
682.805145 79.405 8.0873
687.753032 79.397 8.1144
692.736774 79.389 8.1245
697.756631 79.379 8.1232
702.812863 79.370 8.1148
707.905735 79.361 8.1018
713.035511 79.355 8.0874
718.202461 79.350 8.0765
723.406852 79.346 8.0746
728.648956 79.343 8.0859
733.929047 79.342 8.1143
739.247399 79.341 8.1622
744.604290 79.343 8.2296
750.000000 79.345 8.3124
755.434809 79.347 8.4033
760.909001 79.348 8.4932
766.422861 79.346 8.5746
771.976677 79.343 8.6453
777.570739 79.338 8.7089
783.205337 79.331 8.7706
788.880766 79.324 8.8341
794.597321 79.317 8.9005
800.355301 79.310 8.9717
806.155005 79.305 9.0502
811.996736 79.301 9.1359
817.880799 79.299 9.2269
823.807501 79.299 9.3214
829.777150 79.299 9.4195
835.790057 79.300 9.5212
841.846536 79.300 9.6256
847.946903 79.298 9.7307
854.091476 79.296 9.8351
860.280575 79.293 9.9386
866.514523 79.292 10.0413
872.793644 79.294 10.1436
879.118267 79.297 10.2452
885.488720 79.304 10.3469
891.905336 79.312 10.4503
898.368450 79.321 10.5560
904.878398 79.329 10.6605
911.435520 79.336 10.7562
918.040157 79.340 10.8361
924.692655 79.342 10.8982
931.393359 79.342 10.9467
938.142619 79.342 10.9901
944.940787 79.343 11.0359
951.788218 79.346 11.0872
958.685268 79.353 11.1426
965.632296 79.363 11.2008
972.629666 79.376 11.2623
979.677741 79.391 11.3270
986.776890 79.408 11.3910
993.927482 79.423 11.4465
1001.129891 79.437 11.4863
1008.384491 79.448 11.5056
1015.691660 79.457 11.5027
1023.051781 79.465 11.4800
1030.465236 79.473 11.4445
1037.932411 79.482 11.4073
1045.453698 79.493 11.3790
1053.029486 79.506 11.3633
1060.660172 79.518 11.3561
1068.346153 79.530 11.3471
1076.087829 79.541 11.3245
1083.885605 79.551 11.2791
1091.739887 79.561 11.2065
1099.651084 79.569 11.1069
1107.619609 79.576 10.9829
1115.645878 79.582 10.8390
1123.730308 79.587 10.6796
1131.873321 79.592 10.5092
1140.075341 79.597 10.3316
1148.336797 79.600 10.1512
1156.658119 79.601 9.9725
1165.039741 79.601 9.7993
1173.482099 79.600 9.6339
1181.985634 79.597 9.4759
1190.550789 79.595 9.3220
1199.178011 79.592 9.1663
1207.867749 79.588 9.0012
1216.620457 79.583 8.8204
1225.436590 79.575 8.6200
1234.316609 79.562 8.3997
1243.260976 79.546 8.1629
1252.270157 79.524 7.9152
1261.344623 79.499 7.6619
1270.484846 79.472 7.4084
1279.691303 79.442 7.1616
1288.964474 79.412 6.9280
1298.304842 79.382 6.7118
1307.712894 79.350 6.5115
1317.189120 79.316 6.3199
1326.734016 79.279 6.1272
1336.348077 79.237 5.9245
1346.031806 79.189 5.7069
1355.785708 79.136 5.4735
1365.610290 79.078 5.2259
1375.506065 79.015 4.9671
1385.473549 78.949 4.7029
1395.513261 78.878 4.4412
1405.625726 78.805 4.1899
1415.811469 78.728 3.9554
1426.071023 78.648 3.7429
1436.404921 78.565 3.5593
1446.813703 78.479 3.4135
1457.297912 78.391 3.3134
1467.858093 78.301 3.2640
1478.494798 78.211 3.2654
1489.208581 78.119 3.3120
1500.000000 78.025 3.3953
1510.869618 77.927 3.5051
1521.818002 77.825 3.6323
1532.845723 77.719 3.7715
1543.953355 77.609 3.9215
1555.141477 77.496 4.0886
1566.410674 77.380 4.2864
1577.761531 77.264 4.5315
1589.194642 77.147 4.8370
1600.710601 77.031 5.2126
1612.310010 76.915 5.6648
1623.993473 76.800 6.1949
1635.761599 76.686 6.7983
1647.615002 76.574 7.4669
1659.554299 76.463 8.1930
1671.580114 76.355 8.9727
1683.693072 76.250 9.8051
1695.893807 76.151 10.6909
1708.182952 76.061 11.6326
1720.561150 75.985 12.6318
1733.029045 75.925 13.6860
1745.587288 75.884 14.7845
1758.236533 75.865 15.9084
1770.977440 75.867 17.0345
1783.810673 75.892 18.1383
1796.736900 75.937 19.1962
1809.756796 76.000 20.1870
1822.871040 76.075 21.0926
1836.080315 76.158 21.8994
1849.385310 76.244 22.5994
1862.786718 76.329 23.1917
1876.285239 76.408 23.6821
1889.881575 76.480 24.0824
1903.576436 76.543 24.4080
1917.370535 76.599 24.6757
1931.264593 76.650 24.9019
1945.259332 76.697 25.1027
1959.355483 76.743 25.2913
1973.553781 76.789 25.4734
1987.854965 76.834 25.6453
2002.259781 76.876 25.7981
2016.768981 76.914 25.9219
2031.383320 76.947 26.0090
2046.103561 76.973 26.0547
2060.930471 76.991 26.0608
2075.864823 77.001 26.0377
2090.907395 77.001 26.0025
2106.058972 76.993 25.9748
2121.320344 76.978 25.9739
2136.692305 76.957 26.0168
2152.175658 76.933 26.1166
2167.771210 76.905 26.2786
2183.479774 76.876 26.4989
2199.302169 76.846 26.7646
2215.239219 76.813 27.0588
2231.291755 76.779 27.3666
2247.460615 76.742 27.6796
2263.746641 76.703 27.9958
2280.150683 76.662 28.3195
2296.673595 76.621 28.6610
2313.316238 76.581 29.0361
2330.079481 76.542 29.4624
2346.964198 76.506 29.9524
2363.971268 76.474 30.5097
2381.101578 76.445 31.1280
2398.356022 76.421 31.7917
2415.735498 76.401 32.4792
2433.240913 76.384 33.1690
2450.873180 76.371 33.8448
2468.633217 76.362 34.4987
2486.521951 76.357 35.1287
2504.540314 76.358 35.7374
2522.689246 76.364 36.3293
2540.969692 76.377 36.9091
2559.382606 76.397 37.4799
2577.928947 76.422 38.0449
2596.609683 76.452 38.6101
2615.425787 76.488 39.1863
2634.378241 76.528 39.7870
2653.468031 76.574 40.4240
2672.696154 76.627 41.1023
2692.063613 76.685 41.8173
2711.571415 76.748 42.5543
2731.220579 76.815 43.2894
2751.012130 76.885 43.9946
2770.947098 76.957 44.6465
2791.026522 77.032 45.2312
2811.251451 77.109 45.7457
2831.622938 77.191 46.1979
2852.142045 77.277 46.6048
2872.809842 77.367 46.9857
2893.627406 77.461 47.3553
2914.595823 77.558 47.7204
2935.716186 77.657 48.0789
2956.989596 77.756 48.4201
2978.417161 77.855 48.7272
3000.000000 77.953 48.9813
3021.739237 78.048 49.1671
3043.636005 78.140 49.2761
3065.691446 78.227 49.3078
3087.906710 78.311 49.2679
3110.282955 78.391 49.1672
3132.821347 78.467 49.0200
3155.523062 78.540 48.8420
3178.389283 78.610 48.6503
3201.421202 78.677 48.4622
3224.620020 78.742 48.2943
3247.986946 78.804 48.1624
3271.523198 78.866 48.0808
3295.230004 78.928 48.0580
3319.108599 78.992 48.0919
3343.160228 79.058 48.1686
3367.386145 79.124 48.2645
3391.787613 79.190 48.3500
3416.365904 79.255 48.3958
3441.122300 79.317 48.3806
3466.058091 79.375 48.2972
3491.174576 79.429 48.1538
3516.473066 79.481 47.9713
3541.954880 79.531 47.7777
3567.621345 79.579 47.6013
3593.473800 79.627 47.4620
3619.513592 79.675 47.3665
3645.742080 79.721 47.3061
3672.160630 79.767 47.2596
3698.770620 79.810 47.1980
3725.573436 79.850 47.0954
3752.570477 79.885 46.9365
3779.763150 79.914 46.7209
3807.152872 79.939 46.4628
3834.741071 79.959 46.1883
3862.529185 79.976 45.9285
3890.518664 79.992 45.7109
3918.710966 80.008 45.5517
3947.107561 80.024 45.4536
3975.709929 80.040 45.4061
4004.519563 80.056 45.3873
4033.537962 80.069 45.3688
4062.766641 80.078 45.3243
4092.207123 80.085 45.2371
4121.860942 80.088 45.1031
4151.729646 80.087 44.9339
4181.814790 80.084 44.7556
4212.117944 80.079 44.6025
4242.640687 80.074 44.5067
4273.384610 80.070 44.4883
4304.351317 80.066 44.5514
4335.542421 80.063 44.6820
4366.959549 80.059 44.8523
4398.604338 80.054 45.0280
4430.478438 80.049 45.1788
4462.583511 80.042 45.2878
4494.921231 80.033 45.3557
4527.493283 80.025 45.4006
4560.301365 80.018 45.4537
4593.347189 80.012 45.5516
4626.632476 80.011 45.7269
4660.158962 80.015 45.9984
4693.928395 80.024 46.3655
4727.942535 80.039 46.8069
4762.203156 80.060 47.2854
4796.712043 80.086 47.7572
4831.470996 80.116 48.1823
4866.481826 80.151 48.5331
4901.746360 80.193 48.7985
4937.266434 80.241 48.9845
4973.043902 80.299 49.1076
5009.080628 80.366 49.1852
5045.378492 80.445 49.2300
5081.939384 80.536 49.2501
5118.765212 80.638 49.2532
5155.857894 80.753 49.2477
5193.219366 80.879 49.2432
5230.851574 81.018 49.2478
5268.756481 81.168 49.2629
5306.936062 81.330 49.2751
5345.392309 81.501 49.2537
5384.127225 81.677 49.1538
5423.142830 81.856 48.9231
5462.441159 82.033 48.5112
5502.024259 82.206 47.8806
5541.894195 82.369 47.0176
5582.053045 82.520 45.9386
5622.502902 82.657 44.6841
5663.245876 82.779 43.3089
5704.284090 82.882 41.8685
5745.619684 82.965 40.4091
5787.254813 83.027 38.9598
5829.191647 83.065 37.5297
5871.432373 83.077 36.1104
5913.979192 83.062 34.6822
5956.834323 83.019 33.2236
6000.000000 82.949 31.7231
6043.478473 82.850 30.1896
6087.272010 82.725 28.6577
6131.382892 82.575 27.1840
6175.813420 82.404 25.8380
6220.565910 82.215 24.6901
6265.642695 82.012 23.7979
6311.046124 81.801 23.1919
6356.778566 81.589 22.8634
6402.842404 81.381 22.7582
6449.240040 81.182 22.7808
6495.973891 80.993 22.8190
6543.046396 80.805 22.7939
6590.460007 80.611 22.7034
6638.217197 80.404 22.6152
6686.320456 80.186 22.6294
6734.772290 79.961 22.8436
6783.575226 79.737 23.3361
6832.731809 79.520 24.1561
6882.244600 79.317 25.3200
6932.116181 79.133 26.8105
6982.349153 78.975 28.5816
7032.946133 78.850 30.5650
7083.909760 78.765 32.6751
7135.242690 78.729 34.8145
7186.947600 78.746 36.8860
7239.027185 78.818 38.8202
7291.484160 78.943 40.5983
7344.321260 79.121 42.2415
7397.541239 79.355 43.7703
7451.146872 79.650 45.1771
7505.140954 80.010 46.4233
7559.526299 80.434 47.4506
7614.305743 80.917 48.1912
7669.482141 81.451 48.5759
7725.058371 82.022 48.5360
7781.037328 82.612 48.0021
7837.421932 83.200 46.9050
7894.215122 83.763 45.1859
7951.419859 84.277 42.8128
8009.039125 84.720 39.7938
8067.075924 85.075 36.1872
8125.533282 85.326 32.1071
8184.414245 85.467 27.7205
8243.721885 85.496 23.2323
8303.459292 85.420 18.8598
8363.629581 85.251 14.8037
8424.235888 85.006 11.2251
8485.281374 84.705 8.2235
8546.769221 84.370 5.8253
8608.702634 84.020 3.9851
8671.084842 83.673 2.6036
8733.919097 83.342 1.5497
8797.208675 83.038 0.6858
8860.956876 82.766 -0.1063
8925.167022 82.528 -0.9089
8989.842461 82.327 -1.7673
9054.986566 82.162 -2.7003
9120.602731 82.030 -3.7122
9186.694378 81.927 -4.8021
9253.264952 81.851 -5.9669
9320.317925 81.798 -7.1996
9387.856790 81.765 -8.4872
9455.885071 81.748 -9.8118
9524.406312 81.744 -11.1548
9593.424086 81.751 -12.5084
9662.941992 81.762 -13.8907
9732.963653 81.772 -15.3530
9803.492719 81.774 -16.9707
9874.532869 81.760 -18.8248
9946.087805 81.722 -20.9832
10018.161257 81.652 -23.4827
10090.756983 81.543 -26.3146
10163.878768 81.391 -29.4192
10237.530423 81.191 -32.6944
10311.715789 80.941 -36.0145
10386.438732 80.639 -39.2499
10461.703149 80.284 -42.2885
10537.512962 79.879 -45.0552
10613.872125 79.426 -47.5235
10690.784618 78.925 -49.7098
10768.254450 78.382 -51.6592
10846.285661 77.800 -53.4293
10924.882318 77.184 -55.0721
11004.048518 76.539 -56.6152
11083.788390 75.871 -58.0549
11164.106090 75.186 -59.3633
11245.005805 74.492 -60.5043
11326.491752 73.792 -61.4426
11408.568180 73.092 -62.1475
11491.239368 72.396 -62.5896
11574.509626 71.706 -62.7377
11658.383294 71.025 -62.5540
11742.864745 70.354 -61.9922
11827.958384 69.694 -61.0044
11913.668646 69.049 -59.5605
12000.000000 68.419 -57.6688
12086.956947 67.807 -55.3826
12174.544019 67.213 -52.7911
12262.765784 66.638 -50.0012
12351.626840 66.080 -47.1144
12441.131819 65.539 -44.1979
12531.285389 65.015 -41.2628
12622.092249 64.510 -38.2604
12713.557132 64.025 -35.0938
12805.684808 63.562 -31.6361
12898.480079 63.126 -27.7545
12991.947783 62.720 -23.3404
13086.092792 62.353 -18.3343
13180.920015 62.033 -12.7338
13276.434395 61.774 -6.5851
13372.640911 61.596 0.0322
13469.544580 61.527 7.0227
13567.150452 61.599 14.2941
13665.463617 61.845 21.7566
13764.489200 62.294 29.2894
13864.232362 62.958 36.7000
13964.698305 63.826 43.7106
14065.892266 64.868 49.9828
14167.819519 66.039 55.1718
14270.485380 67.288 58.9900
14373.895200 68.566 61.2487
14478.054370 69.828 61.8656
14582.968320 71.036 60.8536
14688.642520 72.155 58.3116
14795.082478 73.155 54.4240
14902.293745 74.015 49.4563
15010.281908 74.716 43.7382
15119.052599 75.254 37.6346
15228.611486 75.632 31.5090
15338.964283 75.869 25.6719
15450.116741 75.993 20.3251
15562.074656 76.038 15.5273
15674.843864 76.041 11.2005
15788.430244 76.035 7.1640
15902.839718 76.043 3.1804
16018.078250 76.081 -0.9901
16134.151848 76.148 -5.5344
16251.066563 76.232 -10.5522
16368.828491 76.314 -16.0499
16487.443769 76.365 -21.9564
16606.918584 76.356 -28.1453
16727.259161 76.255 -34.4616
16848.471777 76.036 -40.7518
16970.562748 75.681 -46.8798
17093.538442 75.179 -52.7316
17217.405268 74.534 -58.2216
17342.169684 73.759 -63.2999
17467.838194 72.872 -67.9473
17594.417350 71.899 -72.1566
17721.913751 70.866 -75.9167
17850.334044 69.799 -79.2147
17979.684923 68.726 -82.0496
18109.973131 67.670 -84.4415
18241.205462 66.648 -86.4323
18373.388756 65.674 -88.0752
18506.529905 64.758 -89.4226
18640.635849 63.901 -90.5114
18775.713581 63.100 -91.3531
18911.770141 62.349 -91.9435
19048.812624 61.639 -92.2890
19186.848172 60.960 -92.4373
19325.883983 60.306 -92.4806
19465.927305 59.674 -92.5291
19606.985439 59.077 -92.6715
19749.065738 58.547 -92.9349
19892.175609 58.139 -93.2543
20036.322514 57.914 -93.4824
