* Measurement data measured by REW V5.31.3
* Source: Headset (CX31993 HIFI AUDIO), MICROPHONE (Master Volume), R, volume: 0.250
* Format: 256k Log Swept Sine, 1 sweep at -12.0 dBFS with no timing reference
* Dated: 12 31, 24 12:57:58 PM
* REW Settings:
*  C-weighting compensation: Off
*  Target level: 75.0 dB
* Note: ; 
* Measurement: Sony LB CB -10 L
* Smoothing: 1/12 octave
* Frequency Step: 96 ppo
* Start Frequency: 0.36621094 Hz
*
* Freq(Hz) SPL(dB) Phase(degrees)
0.366211 37.773 -128.7055
0.368865 37.794 -128.7025
0.371538 37.825 -128.6977
0.374230 37.863 -128.6912
0.376942 37.906 -128.6830
0.379673 37.952 -128.6730
0.382424 38.000 -128.6614
0.385196 38.049 -128.6481
0.387987 38.099 -128.6332
0.390798 38.150 -128.6167
0.393630 38.201 -128.5987
0.396483 38.252 -128.5791
0.399356 38.304 -128.5581
0.402250 38.357 -128.5356
0.405165 38.409 -128.5117
0.408101 38.462 -128.4865
0.411058 38.516 -128.4599
0.414037 38.570 -128.4321
0.417037 38.624 -128.4030
0.420059 38.679 -128.3728
0.423103 38.734 -128.3414
0.426169 38.789 -128.3090
0.429257 38.845 -128.2756
0.432368 38.901 -128.2412
0.435501 38.958 -128.2059
0.438656 39.015 -128.1697
0.441835 39.072 -128.1328
0.445037 39.130 -128.0952
0.448262 39.189 -128.0569
0.451510 39.247 -128.0180
0.454782 39.307 -127.9786
0.458077 39.366 -127.9387
0.461397 39.426 -127.8984
0.464740 39.487 -127.8579
0.468108 39.548 -127.8170
0.471500 39.609 -127.7761
0.474917 39.671 -127.7350
0.478358 39.733 -127.6939
0.481825 39.796 -127.6529
0.485316 39.859 -127.6120
0.488833 39.922 -127.5713
0.492375 39.986 -127.5310
0.495943 40.051 -127.4910
0.499537 40.116 -127.4515
0.503157 40.181 -127.4125
0.506803 40.247 -127.3742
0.510475 40.314 -127.3366
0.514175 40.381 -127.2998
0.517900 40.448 -127.2639
0.521653 40.516 -127.2290
0.525434 40.584 -127.1951
0.529241 40.653 -127.1624
0.533076 40.722 -127.1310
0.536939 40.792 -127.1009
0.540830 40.863 -127.0723
0.544749 40.934 -127.0451
0.548696 41.005 -127.0196
0.552673 41.077 -126.9958
0.556677 41.149 -126.9738
0.560711 41.222 -126.9537
0.564774 41.296 -126.9356
0.568867 41.370 -126.9196
0.572989 41.444 -126.9058
0.577141 41.520 -126.8942
0.581324 41.595 -126.8850
0.585536 41.671 -126.8783
0.589779 41.748 -126.8742
0.594053 41.825 -126.8728
0.598358 41.903 -126.8741
0.602694 41.982 -126.8782
0.607061 42.061 -126.8854
0.611460 42.140 -126.8956
0.615891 42.220 -126.9089
0.620354 42.301 -126.9255
0.624849 42.382 -126.9455
0.629377 42.464 -126.9690
0.633938 42.547 -126.9960
0.638532 42.630 -127.0266
0.643159 42.714 -127.0611
0.647819 42.798 -127.0994
0.652514 42.883 -127.1416
0.657242 42.968 -127.1880
0.662005 43.055 -127.2385
0.666802 43.141 -127.2933
0.671634 43.229 -127.3525
0.676501 43.317 -127.4162
0.681403 43.406 -127.4845
0.686341 43.495 -127.5575
0.691314 43.585 -127.6352
0.696324 43.675 -127.7179
0.701370 43.766 -127.8054
0.706452 43.858 -127.8979
0.711571 43.950 -127.9954
0.716728 44.041 -128.0976
0.721921 44.133 -128.2043
0.727153 44.224 -128.3150
0.732422 44.314 -128.4289
0.737729 44.403 -128.5453
0.743075 44.490 -128.6633
0.748460 44.577 -128.7823
0.753883 44.663 -128.9017
0.759346 44.750 -129.0212
0.764849 44.836 -129.1409
0.770391 44.922 -129.2605
0.775974 45.008 -129.3802
0.781597 45.094 -129.5001
0.787261 45.181 -129.6202
0.792966 45.268 -129.7406
0.798712 45.355 -129.8615
0.804500 45.442 -129.9830
0.810329 45.529 -130.1052
0.816201 45.617 -130.2282
0.822116 45.704 -130.3522
0.828073 45.792 -130.4773
0.834074 45.881 -130.6036
0.840118 45.969 -130.7312
0.846206 46.057 -130.8604
0.852338 46.146 -130.9911
0.858514 46.235 -131.1236
0.864735 46.324 -131.2581
0.871001 46.414 -131.3945
0.877313 46.504 -131.5332
0.883670 46.593 -131.6741
0.890074 46.684 -131.8176
0.896524 46.774 -131.9636
0.903020 46.865 -132.1124
0.909564 46.955 -132.2641
0.916155 47.046 -132.4189
0.922794 47.138 -132.5768
0.929481 47.229 -132.7381
0.936216 47.321 -132.9029
0.943000 47.413 -133.0714
0.949834 47.506 -133.2437
0.956717 47.598 -133.4200
0.963649 47.691 -133.6004
0.970632 47.785 -133.7851
0.977666 47.878 -133.9743
0.984750 47.972 -134.1682
0.991886 48.066 -134.3668
0.999074 48.161 -134.5704
1.006314 48.256 -134.7792
1.013606 48.351 -134.9933
1.020951 48.446 -135.2129
1.028349 48.542 -135.4383
1.035801 48.639 -135.6694
1.043307 48.735 -135.9067
1.050867 48.832 -136.1501
1.058482 48.930 -136.3998
1.066152 49.027 -136.6560
1.073878 49.126 -136.9186
1.081660 49.224 -137.1876
1.089498 49.323 -137.4626
1.097393 49.423 -137.7433
1.105345 49.522 -138.0291
1.113355 49.622 -138.3192
1.121423 49.722 -138.6133
1.129549 49.823 -138.9107
1.137734 49.923 -139.2112
1.145979 50.024 -139.5146
1.154283 50.125 -139.8208
1.162647 50.226 -140.1295
1.171072 50.327 -140.4409
1.179558 50.428 -140.7549
1.188106 50.529 -141.0713
1.196715 50.631 -141.3903
1.205387 50.733 -141.7119
1.214122 50.834 -142.0359
1.222920 50.937 -142.3625
1.231782 51.039 -142.6916
1.240708 51.141 -143.0232
1.249699 51.244 -143.3575
1.258754 51.346 -143.6943
1.267876 51.449 -144.0337
1.277063 51.552 -144.3759
1.286318 51.655 -144.7207
1.295639 51.759 -145.0683
1.305027 51.862 -145.4187
1.314484 51.966 -145.7719
1.324009 52.070 -146.1281
1.333604 52.174 -146.4873
1.343268 52.278 -146.8496
1.353002 52.383 -147.2150
1.362806 52.487 -147.5837
1.372681 52.592 -147.9557
1.382628 52.697 -148.3311
1.392647 52.803 -148.7101
1.402739 52.908 -149.0926
1.412904 53.014 -149.4789
1.423142 53.120 -149.8689
1.433455 53.226 -150.2626
1.443843 53.333 -150.6601
1.454305 53.439 -151.0611
1.464844 53.546 -151.4655
1.475459 53.653 -151.8729
1.486150 53.760 -152.2830
1.496920 53.867 -152.6955
1.507767 53.974 -153.1101
1.518693 54.081 -153.5268
1.529698 54.188 -153.9454
1.540783 54.295 -154.3659
1.551948 54.402 -154.7884
1.563194 54.509 -155.2128
1.574521 54.616 -155.6393
1.585931 54.724 -156.0679
1.597423 54.831 -156.4987
1.608999 54.938 -156.9318
1.620658 55.045 -157.3673
1.632402 55.152 -157.8053
1.644232 55.259 -158.2460
1.656146 55.366 -158.6894
1.668147 55.473 -159.1358
1.680235 55.580 -159.5854
1.692411 55.687 -160.0382
1.704675 55.794 -160.4945
1.717028 55.902 -160.9544
1.729470 56.009 -161.4183
1.742003 56.116 -161.8862
1.754626 56.223 -162.3584
1.767341 56.331 -162.8353
1.780147 56.438 -163.3169
1.793047 56.545 -163.8035
1.806040 56.653 -164.2954
1.819128 56.760 -164.7928
1.832310 56.867 -165.2957
1.845587 56.975 -165.8042
1.858961 57.082 -166.3181
1.872432 57.189 -166.8373
1.886001 57.295 -167.3614
1.899667 57.402 -167.8901
1.913433 57.508 -168.4230
1.927299 57.614 -168.9598
1.941265 57.720 -169.5001
1.955332 57.826 -170.0436
1.969501 57.931 -170.5898
1.983773 58.037 -171.1385
1.998148 58.142 -171.6895
2.012627 58.246 -172.2424
2.027212 58.351 -172.7970
2.041902 58.456 -173.3531
2.056698 58.560 -173.9105
2.071602 58.664 -174.4691
2.086614 58.768 -175.0286
2.101734 58.872 -175.5891
2.116964 58.976 -176.1505
2.132304 59.079 -176.7128
2.147756 59.183 -177.2762
2.163320 59.286 -177.8410
2.178996 59.389 -178.4075
2.194786 59.492 -178.9762
2.210690 59.594 -179.5478
2.226710 59.696 179.8773
2.242845 59.798 179.2986
2.259098 59.900 178.7162
2.275468 60.001 178.1303
2.291957 60.101 177.5412
2.308566 60.202 176.9493
2.325295 60.301 176.3550
2.342145 60.401 175.7590
2.359117 60.500 175.1616
2.376212 60.598 174.5633
2.393431 60.697 173.9647
2.410775 60.795 173.3661
2.428244 60.892 172.7679
2.445840 60.990 172.1707
2.463564 61.087 171.5747
2.481416 61.184 170.9801
2.499397 61.280 170.3870
2.517509 61.377 169.7954
2.535752 61.473 169.2051
2.554127 61.568 168.6155
2.572635 61.664 168.0260
2.591277 61.759 167.4357
2.610055 61.853 166.8440
2.628968 61.947 166.2507
2.648019 62.041 165.6556
2.667208 62.134 165.0592
2.686535 62.226 164.4616
2.706003 62.318 163.8635
2.725612 62.409 163.2653
2.745363 62.500 162.6677
2.765257 62.591 162.0711
2.785295 62.681 161.4762
2.805478 62.771 160.8836
2.825808 62.861 160.2937
2.846285 62.951 159.7070
2.866910 63.040 159.1237
2.887685 63.130 158.5441
2.908611 63.219 157.9677
2.929688 63.307 157.3944
2.950917 63.396 156.8234
2.972301 63.484 156.2541
2.993839 63.572 155.6860
3.015534 63.659 155.1190
3.037386 63.746 154.5529
3.059396 63.832 153.9880
3.081565 63.918 153.4246
3.103896 64.004 152.8631
3.126388 64.089 152.3039
3.149043 64.175 151.7475
3.171862 64.260 151.1944
3.194847 64.345 150.6451
3.217998 64.431 150.0999
3.241317 64.516 149.5591
3.264805 64.602 149.0230
3.288463 64.687 148.4916
3.312293 64.773 147.9646
3.336295 64.858 147.4418
3.360471 64.944 146.9227
3.384822 65.029 146.4071
3.409350 65.115 145.8947
3.434056 65.200 145.3852
3.458940 65.285 144.8786
3.484005 65.371 144.3748
3.509252 65.456 143.8737
3.534681 65.542 143.3753
3.560295 65.628 142.8796
3.586094 65.715 142.3868
3.612081 65.802 141.8969
3.638255 65.889 141.4100
3.664620 65.977 140.9264
3.691175 66.065 140.4462
3.717923 66.154 139.9693
3.744864 66.243 139.4956
3.772001 66.332 139.0248
3.799335 66.422 138.5564
3.826866 66.512 138.0900
3.854597 66.603 137.6249
3.882529 66.694 137.1608
3.910664 66.786 136.6970
3.939002 66.878 136.2332
3.967546 66.970 135.7692
3.996296 67.064 135.3049
4.025255 67.158 134.8403
4.054423 67.252 134.3758
4.083804 67.347 133.9115
4.113396 67.443 133.4474
4.143204 67.539 132.9834
4.173227 67.635 132.5190
4.203468 67.733 132.0536
4.233928 67.830 131.5867
4.264609 67.928 131.1174
4.295512 68.026 130.6451
4.326639 68.125 130.1693
4.357992 68.223 129.6896
4.389572 68.322 129.2059
4.421380 68.422 128.7183
4.453419 68.521 128.2269
4.485691 68.621 127.7319
4.518196 68.721 127.2335
4.550936 68.822 126.7315
4.583914 68.922 126.2259
4.617131 69.022 125.7162
4.650589 69.122 125.2024
4.684289 69.222 124.6838
4.718233 69.321 124.1602
4.752424 69.420 123.6313
4.786862 69.519 123.0969
4.821549 69.617 122.5571
4.856488 69.715 122.0121
4.891680 69.812 121.4622
4.927127 69.909 120.9079
4.962831 70.006 120.3497
4.998794 70.101 119.7878
5.035017 70.196 119.2227
5.071503 70.289 118.6541
5.108253 70.382 118.0821
5.145270 70.474 117.5064
5.182555 70.565 116.9267
5.220110 70.654 116.3432
5.257937 70.743 115.7563
5.296038 70.830 115.1668
5.334415 70.916 114.5756
5.373071 71.001 113.9836
5.412006 71.085 113.3914
5.451224 71.167 112.7996
5.490725 71.248 112.2081
5.530514 71.328 111.6168
5.570590 71.406 111.0254
5.610957 71.483 110.4343
5.651616 71.559 109.8439
5.692570 71.633 109.2552
5.733821 71.706 108.6692
5.775370 71.778 108.0867
5.817221 71.848 107.5087
5.859375 71.917 106.9352
5.901834 71.985 106.3662
5.944602 72.052 105.8017
5.987679 72.118 105.2417
6.031068 72.182 104.6864
6.074771 72.245 104.1364
6.118792 72.308 103.5924
6.163131 72.370 103.0550
6.207792 72.431 102.5244
6.252776 72.491 102.0010
6.298086 72.550 101.4846
6.343725 72.609 100.9750
6.389694 72.668 100.4720
6.435996 72.726 99.9753
6.482634 72.784 99.4849
6.529610 72.841 99.0009
6.576926 72.899 98.5231
6.624585 72.956 98.0515
6.672590 73.014 97.5859
6.720942 73.071 97.1259
6.769645 73.129 96.6708
6.818700 73.187 96.2198
6.868111 73.245 95.7724
6.917881 73.303 95.3278
6.968010 73.362 94.8857
7.018504 73.421 94.4458
7.069362 73.480 94.0076
7.120590 73.539 93.5706
7.172189 73.599 93.1339
7.224161 73.660 92.6967
7.276511 73.720 92.2582
7.329239 73.781 91.8180
7.382350 73.841 91.3755
7.435845 73.902 90.9307
7.489729 73.963 90.4830
7.544002 74.024 90.0323
7.598669 74.084 89.5782
7.653732 74.145 89.1202
7.709194 74.205 88.6582
7.765058 74.264 88.1919
7.821327 74.323 87.7216
7.878004 74.382 87.2473
7.935091 74.439 86.7694
7.992592 74.496 86.2881
8.050510 74.552 85.8036
8.108847 74.608 85.3162
8.167607 74.662 84.8259
8.226793 74.715 84.3333
8.286408 74.767 83.8389
8.346454 74.819 83.3435
8.406936 74.869 82.8475
8.467856 74.918 82.3513
8.529218 74.966 81.8553
8.591024 75.013 81.3597
8.653278 75.059 80.8652
8.715983 75.105 80.3721
8.779143 75.149 79.8808
8.842760 75.193 79.3917
8.906839 75.236 78.9048
8.971381 75.279 78.4202
9.036392 75.321 77.9378
9.101873 75.362 77.4576
9.167829 75.404 76.9796
9.234263 75.445 76.5036
9.301178 75.486 76.0292
9.368578 75.526 75.5560
9.436467 75.567 75.0835
9.504847 75.608 74.6113
9.573723 75.648 74.1387
9.643099 75.689 73.6654
9.712976 75.730 73.1909
9.783361 75.771 72.7144
9.854255 75.811 72.2354
9.925663 75.852 71.7534
9.997588 75.893 71.2680
10.070035 75.933 70.7789
10.143007 75.973 70.2859
10.216507 76.013 69.7888
10.290540 76.052 69.2875
10.365109 76.090 68.7819
10.440219 76.128 68.2723
10.515873 76.166 67.7591
10.592076 76.202 67.2425
10.668830 76.237 66.7231
10.746141 76.271 66.2013
10.824012 76.305 65.6779
10.902447 76.337 65.1535
10.981451 76.368 64.6290
11.061027 76.398 64.1051
11.141180 76.427 63.5825
11.221913 76.455 63.0620
11.303232 76.482 62.5443
11.385140 76.508 62.0302
11.467641 76.533 61.5201
11.550741 76.558 61.0146
11.634442 76.582 60.5138
11.718750 76.606 60.0180
11.803669 76.629 59.5274
11.889203 76.652 59.0419
11.975357 76.675 58.5611
12.062136 76.699 58.0847
12.149543 76.722 57.6122
12.237583 76.746 57.1430
12.326262 76.770 56.6764
12.415583 76.794 56.2114
12.505552 76.818 55.7473
12.596172 76.843 55.2833
12.687449 76.869 54.8184
12.779387 76.894 54.3520
12.871992 76.919 53.8832
12.965268 76.945 53.4116
13.059220 76.970 52.9368
13.153852 76.995 52.4586
13.249170 77.019 51.9771
13.345179 77.042 51.4926
13.441884 77.065 51.0054
13.539289 77.086 50.5165
13.637401 77.106 50.0267
13.736223 77.125 49.5371
13.835761 77.142 49.0491
13.936021 77.158 48.5640
14.037007 77.173 48.0831
14.138725 77.187 47.6078
14.241180 77.199 47.1391
14.344377 77.210 46.6780
14.448323 77.221 46.2251
14.553021 77.232 45.7805
14.658478 77.242 45.3440
14.764700 77.253 44.9147
14.871691 77.264 44.4913
14.979457 77.276 44.0720
15.088005 77.288 43.6544
15.197339 77.302 43.2359
15.307465 77.317 42.8137
15.418389 77.332 42.3849
15.530117 77.348 41.9469
15.642655 77.364 41.4973
15.756008 77.380 41.0345
15.870182 77.395 40.5575
15.985184 77.408 40.0662
16.101019 77.419 39.5619
16.217694 77.427 39.0465
16.335214 77.431 38.5232
16.453586 77.432 37.9962
16.572815 77.428 37.4701
16.692909 77.421 36.9502
16.813872 77.409 36.4420
16.935713 77.394 35.9507
17.058436 77.376 35.4806
17.182048 77.357 35.0352
17.306556 77.336 34.6168
17.431967 77.315 34.2254
17.558286 77.295 33.8596
17.685521 77.278 33.5160
17.813677 77.264 33.1895
17.942762 77.253 32.8736
18.072783 77.246 32.5612
18.203746 77.243 32.2454
18.335658 77.242 31.9195
18.468526 77.244 31.5787
18.602356 77.247 31.2201
18.737156 77.250 30.8431
18.872934 77.252 30.4499
19.009695 77.251 30.0451
19.147447 77.247 29.6354
19.286197 77.241 29.2287
19.425953 77.231 28.8336
19.566721 77.219 28.4579
19.708510 77.205 28.1083
19.851326 77.192 27.7883
19.995177 77.181 27.4985
20.140070 77.174 27.2354
20.286013 77.172 26.9916
20.433014 77.176 26.7565
20.581080 77.187 26.5173
20.730219 77.205 26.2604
20.880439 77.228 25.9730
21.031747 77.255 25.6448
21.184152 77.282 25.2698
21.337661 77.308 24.8466
21.492282 77.331 24.3790
21.648024 77.346 23.8760
21.804895 77.354 23.3505
21.962902 77.352 22.8184
22.122054 77.341 22.2968
22.282360 77.322 21.8025
22.443827 77.295 21.3499
22.606464 77.263 20.9496
22.770280 77.228 20.6074
22.935283 77.194 20.3230
23.101481 77.162 20.0907
23.268884 77.135 19.8999
23.437500 77.113 19.7367
23.607338 77.097 19.5861
23.778406 77.086 19.4338
23.950714 77.079 19.2691
24.124271 77.074 19.0852
24.299086 77.068 18.8803
24.475167 77.061 18.6571
24.652524 77.052 18.4217
24.831166 77.038 18.1820
25.011103 77.021 17.9460
25.192344 77.002 17.7202
25.374898 76.981 17.5078
25.558775 76.959 17.3091
25.743984 76.938 17.1206
25.930536 76.918 16.9364
26.118439 76.899 16.7495
26.307704 76.880 16.5532
26.498341 76.862 16.3427
26.690359 76.843 16.1160
26.883768 76.821 15.8749
27.078579 76.796 15.6237
27.274801 76.767 15.3690
27.472446 76.734 15.1187
27.671522 76.698 14.8796
27.872042 76.660 14.6574
28.074014 76.620 14.4550
28.277450 76.581 14.2726
28.482360 76.542 14.1080
28.688755 76.506 13.9575
28.896645 76.471 13.8162
29.106042 76.439 13.6792
29.316957 76.409 13.5422
29.529400 76.381 13.4019
29.743382 76.355 13.2556
29.958915 76.330 13.1018
30.176009 76.305 12.9395
30.394677 76.281 12.7682
30.614929 76.257 12.5887
30.836778 76.232 12.4028
31.060234 76.206 12.2134
31.285309 76.178 12.0247
31.512015 76.147 11.8418
31.740364 76.115 11.6695
31.970368 76.082 11.5117
32.202039 76.048 11.3704
32.435388 76.014 11.2456
32.670428 75.980 11.1354
32.907171 75.947 11.0368
33.145630 75.914 10.9470
33.385817 75.882 10.8643
33.627745 75.849 10.7891
33.871425 75.816 10.7229
34.116871 75.782 10.6685
34.364096 75.749 10.6272
34.613113 75.715 10.5989
34.863934 75.684 10.5807
35.116572 75.653 10.5675
35.371041 75.625 10.5533
35.627354 75.597 10.5333
35.885525 75.570 10.5050
36.145566 75.541 10.4695
36.407492 75.511 10.4307
36.671316 75.479 10.3939
36.937051 75.446 10.3643
37.204712 75.412 10.3444
37.474313 75.378 10.3344
37.745867 75.345 10.3317
38.019389 75.312 10.3333
38.294893 75.279 10.3368
38.572394 75.246 10.3422
38.851905 75.212 10.3517
39.133442 75.178 10.3693
39.417019 75.143 10.3982
39.702651 75.108 10.4404
39.990353 75.074 10.4952
40.280140 75.040 10.5599
40.572026 75.008 10.6317
40.866028 74.977 10.7083
41.162160 74.945 10.7898
41.460438 74.914 10.8774
41.760877 74.884 10.9720
42.063494 74.853 11.0732
42.368303 74.824 11.1780
42.675322 74.795 11.2826
42.984565 74.766 11.3849
43.296048 74.736 11.4869
43.609789 74.704 11.5952
43.925804 74.670 11.7190
44.244108 74.637 11.8651
44.564719 74.605 12.0336
44.887654 74.577 12.2159
45.212928 74.553 12.3973
45.540560 74.533 12.5642
45.870565 74.514 12.7100
46.202962 74.494 12.8392
46.537768 74.472 12.9648
46.875000 74.448 13.1013
47.214676 74.425 13.2565
47.556813 74.404 13.4271
47.901429 74.388 13.6015
48.248542 74.374 13.7665
48.598171 74.361 13.9154
48.950334 74.348 14.0516
49.305048 74.333 14.1858
49.662333 74.316 14.3298
50.022206 74.298 14.4910
50.384688 74.281 14.6707
50.749796 74.266 14.8654
51.117550 74.251 15.0714
51.487969 74.238 15.2867
51.861072 74.226 15.5109
52.236879 74.215 15.7432
52.615409 74.205 15.9822
52.996681 74.197 16.2252
53.380717 74.190 16.4696
53.767536 74.183 16.7137
54.157158 74.177 16.9569
54.549603 74.171 17.1987
54.944892 74.165 17.4390
55.343045 74.159 17.6785
55.744084 74.152 17.9186
56.148028 74.145 18.1616
56.554900 74.138 18.4094
56.964720 74.132 18.6632
57.377510 74.127 18.9233
57.793291 74.123 19.1887
58.212085 74.121 19.4567
58.633914 74.122 19.7231
59.058799 74.125 19.9841
59.486764 74.129 20.2375
59.917829 74.134 20.4861
60.352019 74.139 20.7369
60.789354 74.144 20.9984
61.229859 74.149 21.2773
61.673556 74.156 21.5751
62.120468 74.166 21.8882
62.570618 74.178 22.2122
63.024031 74.192 22.5439
63.480729 74.206 22.8835
63.940736 74.222 23.2314
64.404077 74.239 23.5870
64.870776 74.256 23.9482
65.340856 74.275 24.3143
65.814343 74.295 24.6840
66.291261 74.318 25.0492
66.771635 74.346 25.3894
67.255489 74.376 25.6771
67.742850 74.405 25.8942
68.233743 74.428 26.0480
68.728193 74.442 26.1698
69.226226 74.449 26.2952
69.727867 74.451 26.4449
70.233144 74.453 26.6212
70.742083 74.456 26.8202
71.254709 74.461 27.0437
71.771050 74.470 27.2975
72.291132 74.485 27.5808
72.814984 74.507 27.8809
73.342631 74.537 28.1792
73.874102 74.572 28.4623
74.409424 74.611 28.7259
74.948626 74.650 28.9729
75.491734 74.688 29.2093
76.038779 74.725 29.4411
76.589787 74.760 29.6725
77.144788 74.794 29.9049
77.703811 74.827 30.1368
78.266885 74.860 30.3643
78.834039 74.893 30.5839
79.405303 74.925 30.7942
79.980706 74.957 30.9968
80.560280 74.988 31.1943
81.144053 75.019 31.3893
81.732056 75.050 31.5840
82.324320 75.083 31.7809
82.920876 75.117 31.9817
83.521755 75.153 32.1842
84.126988 75.193 32.3816
84.736607 75.235 32.5652
85.350643 75.278 32.7296
85.969129 75.322 32.8763
86.592097 75.365 33.0129
87.219579 75.406 33.1484
87.851608 75.448 33.2899
88.488217 75.490 33.4396
89.129439 75.532 33.5958
89.775308 75.576 33.7543
90.425856 75.619 33.9122
91.081119 75.662 34.0698
91.741131 75.703 34.2298
92.405925 75.743 34.3930
93.075536 75.783 34.5566
93.750000 75.822 34.7144
94.429351 75.863 34.8600
95.113625 75.904 34.9882
95.802858 75.945 35.0976
96.497085 75.988 35.1897
97.196342 76.031 35.2677
97.900667 76.076 35.3345
98.610096 76.122 35.3930
99.324665 76.168 35.4476
100.044413 76.213 35.5031
100.769376 76.257 35.5631
101.499592 76.301 35.6273
102.235100 76.342 35.6919
102.975938 76.382 35.7508
103.722144 76.420 35.7989
104.473757 76.455 35.8342
105.230817 76.488 35.8589
105.993363 76.518 35.8797
106.761435 76.547 35.9070
107.535072 76.574 35.9518
108.314315 76.601 36.0231
109.099206 76.627 36.1283
109.889783 76.654 36.2723
110.686090 76.682 36.4547
111.488167 76.711 36.6688
112.296056 76.740 36.9071
113.109800 76.771 37.1654
113.929440 76.805 37.4416
114.755020 76.844 37.7284
115.586582 76.891 38.0110
116.424170 76.948 38.2711
117.267827 77.013 38.4930
118.117598 77.084 38.6707
118.973527 77.159 38.8115
119.835658 77.235 38.9309
120.704037 77.311 39.0405
121.578708 77.387 39.1417
122.459718 77.462 39.2306
123.347111 77.534 39.3047
124.240935 77.603 39.3649
125.141236 77.670 39.4125
126.048061 77.736 39.4476
126.961458 77.802 39.4686
127.881473 77.868 39.4718
128.808154 77.935 39.4523
129.741551 78.002 39.4070
130.681712 78.069 39.3368
131.628686 78.136 39.2436
132.582521 78.202 39.1290
133.543269 78.266 38.9971
134.510979 78.328 38.8593
135.485701 78.387 38.7292
136.467486 78.445 38.6144
137.456386 78.503 38.5125
138.452451 78.561 38.4151
139.455735 78.617 38.3139
140.466288 78.672 38.2056
141.484165 78.725 38.0909
142.509418 78.776 37.9717
143.542100 78.827 37.8494
144.582265 78.877 37.7229
145.629968 78.927 37.5906
146.685262 78.977 37.4519
147.748204 79.026 37.3079
148.818849 79.076 37.1596
149.897251 79.125 37.0074
150.983469 79.174 36.8518
152.077557 79.224 36.6940
153.179574 79.274 36.5363
154.289576 79.324 36.3810
155.407622 79.375 36.2287
156.533770 79.426 36.0775
157.668078 79.475 35.9236
158.810606 79.523 35.7635
159.961413 79.568 35.5958
161.120559 79.610 35.4205
162.288105 79.651 35.2380
163.464112 79.689 35.0493
164.648640 79.727 34.8552
165.841752 79.764 34.6558
167.043510 79.801 34.4500
168.253976 79.839 34.2353
169.473213 79.877 34.0089
170.701286 79.916 33.7700
171.938258 79.954 33.5213
173.184194 79.992 33.2680
174.439158 80.028 33.0151
175.703216 80.062 32.7659
176.976434 80.094 32.5208
178.258878 80.124 32.2784
179.550615 80.153 32.0361
180.851713 80.180 31.7928
182.162239 80.206 31.5484
183.482262 80.233 31.3033
184.811850 80.261 31.0560
186.151073 80.289 30.8038
187.500000 80.318 30.5464
188.858702 80.346 30.2866
190.227250 80.373 30.0280
191.605715 80.397 29.7719
192.994169 80.420 29.5162
194.392685 80.441 29.2573
195.801334 80.458 28.9924
197.220191 80.472 28.7211
198.649330 80.484 28.4461
200.088825 80.494 28.1709
201.538751 80.504 27.8969
202.999184 80.516 27.6237
204.470200 80.530 27.3496
205.951875 80.544 27.0763
207.444287 80.558 26.8087
208.947514 80.572 26.5515
210.461634 80.583 26.3077
211.986726 80.593 26.0767
213.522869 80.601 25.8550
215.070144 80.607 25.6376
216.628631 80.613 25.4198
218.198411 80.618 25.1991
219.779567 80.623 24.9757
221.372180 80.627 24.7520
222.976334 80.632 24.5298
224.592112 80.635 24.3094
226.219600 80.637 24.0903
227.858880 80.638 23.8717
229.510039 80.637 23.6545
231.173164 80.635 23.4406
232.848340 80.631 23.2316
234.535655 80.626 23.0283
236.235197 80.619 22.8306
237.947054 80.610 22.6386
239.671317 80.601 22.4541
241.408074 80.590 22.2787
243.157416 80.579 22.1112
244.919435 80.567 21.9487
246.694223 80.556 21.7884
248.481871 80.545 21.6298
250.282473 80.535 21.4757
252.096123 80.524 21.3306
253.922915 80.513 21.1966
255.762945 80.500 21.0728
257.616309 80.487 20.9557
259.483103 80.473 20.8417
261.363424 80.458 20.7285
263.257372 80.443 20.6156
265.165043 80.426 20.5043
267.086538 80.411 20.3982
269.021957 80.396 20.3021
270.971401 80.383 20.2203
272.934972 80.372 20.1544
274.912771 80.362 20.1025
276.904902 80.352 20.0610
278.911469 80.341 20.0255
280.932577 80.330 19.9927
282.968330 80.318 19.9608
285.018835 80.307 19.9280
287.084199 80.296 19.8928
289.164530 80.285 19.8539
291.259935 80.274 19.8105
293.370525 80.262 19.7637
295.496408 80.250 19.7164
297.637697 80.239 19.6726
299.794503 80.228 19.6371
301.966937 80.217 19.6151
304.155114 80.205 19.6082
306.359147 80.192 19.6135
308.579152 80.179 19.6256
310.815244 80.165 19.6401
313.067539 80.151 19.6548
315.336156 80.138 19.6686
317.621211 80.125 19.6803
319.922826 80.114 19.6898
322.241118 80.104 19.6971
324.576210 80.095 19.7026
326.928223 80.087 19.7074
329.297280 80.078 19.7141
331.683504 80.068 19.7260
334.087019 80.059 19.7466
336.507952 80.050 19.7788
338.946427 80.042 19.8243
341.402572 80.036 19.8817
343.876516 80.029 19.9451
346.368387 80.022 20.0078
348.878315 80.015 20.0685
351.406431 80.006 20.1312
353.952867 79.998 20.2000
356.517756 79.989 20.2770
359.101230 79.982 20.3638
361.703426 79.976 20.4601
364.324478 79.972 20.5624
366.964523 79.968 20.6652
369.623699 79.966 20.7628
372.302145 79.964 20.8527
375.000000 79.961 20.9343
377.717405 79.959 21.0076
380.454501 79.955 21.0708
383.211431 79.951 21.1230
385.988339 79.946 21.1666
388.785369 79.941 21.2071
391.602668 79.935 21.2510
394.440383 79.929 21.3022
397.298660 79.924 21.3618
400.177650 79.918 21.4279
403.077502 79.912 21.4979
405.998368 79.906 21.5704
408.940400 79.898 21.6486
411.903750 79.891 21.7414
414.888575 79.883 21.8593
417.895028 79.877 22.0079
420.923268 79.873 22.1836
423.973452 79.874 22.3739
427.045738 79.879 22.5619
430.140287 79.887 22.7316
433.257261 79.897 22.8719
436.396822 79.909 22.9792
439.559133 79.920 23.0571
442.744360 79.932 23.1163
445.952668 79.944 23.1689
449.184225 79.956 23.2246
452.439199 79.966 23.2877
455.717760 79.976 23.3589
459.020079 79.983 23.4368
462.346327 79.989 23.5193
465.696680 79.993 23.6034
469.071310 79.996 23.6867
472.470394 79.998 23.7679
475.894109 80.002 23.8477
479.342634 80.008 23.9285
482.816148 80.015 24.0135
486.314833 80.025 24.1044
489.838871 80.035 24.1999
493.388445 80.046 24.2975
496.963741 80.056 24.3950
500.564945 80.065 24.4921
504.192245 80.073 24.5889
507.845830 80.080 24.6863
511.525890 80.086 24.7842
515.232618 80.092 24.8811
518.966206 80.098 24.9749
522.726849 80.104 25.0630
526.514743 80.111 25.1448
530.330086 80.117 25.2231
534.173076 80.125 25.3026
538.043915 80.133 25.3866
541.942803 80.142 25.4758
545.869944 80.149 25.5671
549.825542 80.156 25.6543
553.809805 80.160 25.7320
557.822939 80.163 25.7988
561.865154 80.165 25.8575
565.936660 80.167 25.9133
570.037671 80.170 25.9707
574.168399 80.173 26.0329
578.329060 80.178 26.1008
582.519870 80.183 26.1748
586.741049 80.188 26.2567
590.992817 80.195 26.3489
595.275394 80.203 26.4517
599.589005 80.213 26.5635
603.933874 80.224 26.6813
608.310228 80.235 26.8033
612.718295 80.246 26.9276
617.158304 80.254 27.0513
621.630488 80.259 27.1708
626.135079 80.260 27.2814
630.672311 80.259 27.3823
635.242423 80.257 27.4774
639.845651 80.255 27.5731
644.482237 80.254 27.6754
649.152421 80.256 27.7893
653.856447 80.261 27.9177
658.594560 80.268 28.0597
663.367008 80.277 28.2079
668.174039 80.288 28.3510
673.015903 80.299 28.4800
677.892854 80.308 28.5945
682.805145 80.314 28.7013
687.753032 80.319 28.8087
692.736774 80.322 28.9236
697.756631 80.325 29.0503
702.812863 80.329 29.1909
707.905735 80.334 29.3438
713.035511 80.340 29.5036
718.202461 80.348 29.6642
723.406852 80.356 29.8204
728.648956 80.364 29.9700
733.929047 80.371 30.1141
739.247399 80.377 30.2552
744.604290 80.383 30.3954
750.000000 80.389 30.5385
755.434809 80.395 30.6911
760.909001 80.402 30.8597
766.422861 80.409 31.0462
771.976677 80.419 31.2471
777.570739 80.430 31.4564
783.205337 80.442 31.6686
788.880766 80.454 31.8799
794.597321 80.465 32.0876
800.355301 80.475 32.2899
806.155005 80.482 32.4866
811.996736 80.489 32.6780
817.880799 80.495 32.8669
823.807501 80.504 33.0573
829.777150 80.514 33.2523
835.790057 80.527 33.4528
841.846536 80.543 33.6576
847.946903 80.561 33.8661
854.091476 80.581 34.0780
860.280575 80.601 34.2924
866.514523 80.621 34.5070
872.793644 80.641 34.7181
879.118267 80.661 34.9218
885.488720 80.680 35.1139
891.905336 80.700 35.2917
898.368450 80.721 35.4550
904.878398 80.743 35.6064
911.435520 80.765 35.7530
918.040157 80.788 35.9043
924.692655 80.812 36.0680
931.393359 80.837 36.2470
938.142619 80.864 36.4407
944.940787 80.893 36.6458
951.788218 80.926 36.8582
958.685268 80.961 37.0728
965.632296 80.999 37.2845
972.629666 81.039 37.4877
979.677741 81.078 37.6771
986.776890 81.116 37.8486
993.927482 81.151 38.0012
1001.129891 81.184 38.1376
1008.384491 81.216 38.2651
1015.691660 81.248 38.3922
1023.051781 81.281 38.5243
1030.465236 81.317 38.6618
1037.932411 81.355 38.8023
1045.453698 81.395 38.9424
1053.029486 81.436 39.0768
1060.660172 81.477 39.1988
1068.346153 81.518 39.3023
1076.087829 81.557 39.3843
1083.885605 81.595 39.4437
1091.739887 81.633 39.4810
1099.651084 81.671 39.4989
1107.619609 81.709 39.5022
1115.645878 81.748 39.4949
1123.730308 81.788 39.4803
1131.873321 81.828 39.4609
1140.075341 81.868 39.4384
1148.336797 81.907 39.4139
1156.658119 81.947 39.3889
1165.039741 81.986 39.3660
1173.482099 82.026 39.3477
1181.985634 82.067 39.3352
1190.550789 82.108 39.3268
1199.178011 82.148 39.3161
1207.867749 82.185 39.2941
1216.620457 82.218 39.2520
1225.436590 82.247 39.1847
1234.316609 82.271 39.0918
1243.260976 82.292 38.9784
1252.270157 82.311 38.8535
1261.344623 82.329 38.7278
1270.484846 82.347 38.6115
1279.691303 82.365 38.5110
1288.964474 82.382 38.4270
1298.304842 82.398 38.3539
1307.712894 82.412 38.2829
1317.189120 82.423 38.2059
1326.734016 82.432 38.1160
1336.348077 82.438 38.0086
1346.031806 82.441 37.8821
1355.785708 82.441 37.7382
1365.610290 82.437 37.5805
1375.506065 82.430 37.4140
1385.473549 82.421 37.2449
1395.513261 82.408 37.0810
1405.625726 82.391 36.9308
1415.811469 82.371 36.8037
1426.071023 82.347 36.7083
1436.404921 82.322 36.6518
1446.813703 82.296 36.6387
1457.297912 82.270 36.6705
1467.858093 82.245 36.7454
1478.494798 82.220 36.8571
1489.208581 82.195 36.9962
1500.000000 82.168 37.1523
1510.869618 82.138 37.3168
1521.818002 82.104 37.4871
1532.845723 82.066 37.6675
1543.953355 82.026 37.8682
1555.141477 81.984 38.1014
1566.410674 81.942 38.3793
1577.761531 81.901 38.7128
1589.194642 81.862 39.1080
1600.710601 81.823 39.5657
1612.310010 81.786 40.0824
1623.993473 81.750 40.6526
1635.761599 81.716 41.2704
1647.615002 81.684 41.9312
1659.554299 81.655 42.6342
1671.580114 81.631 43.3823
1683.693072 81.615 44.1801
1695.893807 81.609 45.0306
1708.182952 81.616 45.9342
1720.561150 81.639 46.8881
1733.029045 81.680 47.8844
1745.587288 81.742 48.9096
1758.236533 81.827 49.9437
1770.977440 81.933 50.9602
1783.810673 82.063 51.9297
1796.736900 82.212 52.8244
1809.756796 82.377 53.6215
1822.871040 82.553 54.3046
1836.080315 82.735 54.8644
1849.385310 82.917 55.2990
1862.786718 83.095 55.6130
1876.285239 83.266 55.8167
1889.881575 83.432 55.9246
1903.576436 83.593 55.9541
1917.370535 83.750 55.9246
1931.264593 83.905 55.8529
1945.259332 84.061 55.7501
1959.355483 84.217 55.6188
1973.553781 84.374 55.4540
1987.854965 84.530 55.2463
2002.259781 84.682 54.9839
2016.768981 84.827 54.6552
2031.383320 84.964 54.2502
2046.103561 85.092 53.7641
2060.930471 85.210 53.2025
2075.864823 85.318 52.5842
2090.907395 85.417 51.9379
2106.058972 85.507 51.2928
2121.320344 85.589 50.6689
2136.692305 85.665 50.0745
2152.175658 85.736 49.5092
2167.771210 85.804 48.9666
2183.479774 85.867 48.4366
2199.302169 85.927 47.9074
2215.239219 85.981 47.3676
2231.291755 86.028 46.8092
2247.460615 86.070 46.2297
2263.746641 86.106 45.6336
2280.150683 86.137 45.0316
2296.673595 86.165 44.4380
2313.316238 86.190 43.8688
2330.079481 86.214 43.3364
2346.964198 86.237 42.8462
2363.971268 86.259 42.3939
2381.101578 86.279 41.9665
2398.356022 86.296 41.5451
2415.735498 86.309 41.1111
2433.240913 86.320 40.6504
2450.873180 86.329 40.1574
2468.633217 86.335 39.6349
2486.521951 86.341 39.0914
2504.540314 86.347 38.5375
2522.689246 86.352 37.9816
2540.969692 86.357 37.4288
2559.382606 86.360 36.8839
2577.928947 86.362 36.3546
2596.609683 86.362 35.8521
2615.425787 86.361 35.3882
2634.378241 86.359 34.9724
2653.468031 86.357 34.6084
2672.696154 86.354 34.2918
2692.063613 86.350 34.0090
2711.571415 86.346 33.7405
2731.220579 86.340 33.4669
2751.012130 86.332 33.1734
2770.947098 86.323 32.8504
2791.026522 86.312 32.4959
2811.251451 86.302 32.1175
2831.622938 86.294 31.7319
2852.142045 86.289 31.3580
2872.809842 86.288 31.0091
2893.627406 86.290 30.6892
2914.595823 86.292 30.3939
2935.716186 86.294 30.1105
2956.989596 86.292 29.8196
2978.417161 86.286 29.4998
3000.000000 86.275 29.1348
3021.739237 86.257 28.7184
3043.636005 86.234 28.2586
3065.691446 86.207 27.7780
3087.906710 86.175 27.3065
3110.282955 86.142 26.8716
3132.821347 86.108 26.4927
3155.523062 86.075 26.1778
3178.389283 86.041 25.9214
3201.421202 86.006 25.7045
3224.620020 85.970 25.5013
3247.986946 85.931 25.2885
3271.523198 85.888 25.0497
3295.230004 85.843 24.7791
3319.108599 85.796 24.4828
3343.160228 85.748 24.1790
3367.386145 85.702 23.8921
3391.787613 85.657 23.6442
3416.365904 85.615 23.4484
3441.122300 85.576 23.3046
3466.058091 85.539 23.2002
3491.174576 85.503 23.1118
3516.473066 85.466 23.0118
3541.954880 85.427 22.8765
3567.621345 85.384 22.6917
3593.473800 85.338 22.4572
3619.513592 85.288 22.1868
3645.742080 85.236 21.9069
3672.160630 85.182 21.6493
3698.770620 85.127 21.4414
3725.573436 85.073 21.2981
3752.570477 85.020 21.2169
3779.763150 84.968 21.1785
3807.152872 84.916 21.1538
3834.741071 84.864 21.1131
3862.529185 84.809 21.0332
3890.518664 84.751 20.8999
3918.710966 84.689 20.7080
3947.107561 84.625 20.4632
3975.709929 84.559 20.1808
4004.519563 84.491 19.8790
4033.537962 84.423 19.5723
4062.766641 84.354 19.2711
4092.207123 84.285 18.9868
4121.860942 84.216 18.7371
4151.729646 84.148 18.5454
4181.814790 84.081 18.4367
4212.117944 84.014 18.4286
4242.640687 83.948 18.5245
4273.384610 83.884 18.7113
4304.351317 83.819 18.9606
4335.542421 83.754 19.2367
4366.959549 83.688 19.5052
4398.604338 83.621 19.7417
4430.478438 83.552 19.9368
4462.583511 83.482 20.0988
4494.921231 83.412 20.2528
4527.493283 83.345 20.4352
4560.301365 83.281 20.6826
4593.347189 83.222 21.0225
4626.632476 83.170 21.4642
4660.158962 83.123 21.9966
4693.928395 83.081 22.5905
4727.942535 83.044 23.2056
4762.203156 83.012 23.8007
4796.712043 82.984 24.3425
4831.470996 82.961 24.8130
4866.481826 82.945 25.2098
4901.746360 82.938 25.5432
4937.266434 82.939 25.8292
4973.043902 82.951 26.0840
5009.080628 82.974 26.3206
5045.378492 83.007 26.5496
5081.939384 83.053 26.7819
5118.765212 83.111 27.0284
5155.857894 83.183 27.2991
5193.219366 83.268 27.6002
5230.851574 83.367 27.9289
5268.756481 83.479 28.2667
5306.936062 83.603 28.5760
5345.392309 83.735 28.8029
5384.127225 83.872 28.8884
5423.142830 84.011 28.7817
5462.441159 84.148 28.4523
5502.024259 84.281 27.8957
5541.894195 84.407 27.1326
5582.053045 84.523 26.2032
5622.502902 84.627 25.1581
5663.245876 84.717 24.0475
5704.284090 84.791 22.9097
5745.619684 84.847 21.7630
5787.254813 84.882 20.6046
5829.191647 84.892 19.4145
5871.432373 84.875 18.1675
5913.979192 84.829 16.8458
5956.834323 84.754 15.4501
6000.000000 84.650 14.0048
6043.478473 84.520 12.5580
6087.272010 84.365 11.1750
6131.382892 84.187 9.9266
6175.813420 83.990 8.8755
6220.565910 83.777 8.0664
6265.642695 83.551 7.5179
6311.046124 83.318 7.2196
6356.778566 83.082 7.1322
6402.842404 82.849 7.1890
6449.240040 82.624 7.3012
6495.973891 82.407 7.3835
6543.046396 82.191 7.3988
6590.460007 81.969 7.3880
6638.217197 81.736 7.4509
6686.320456 81.494 7.6997
6734.772290 81.247 8.2241
6783.575226 81.002 9.0735
6832.731809 80.766 10.2527
6882.244600 80.543 11.7307
6932.116181 80.338 13.4556
6982.349153 80.159 15.3678
7032.946133 80.011 17.4093
7083.909760 79.904 19.5242
7135.242690 79.845 21.6541
7186.947600 79.842 23.7392
7239.027185 79.895 25.7338
7291.484160 80.001 27.6276
7344.321260 80.159 29.4392
7397.541239 80.373 31.1846
7451.146872 80.647 32.8536
7505.140954 80.987 34.4084
7559.526299 81.392 35.7910
7614.305743 81.860 36.9276
7669.482141 82.380 37.7280
7725.058371 82.938 38.0853
7781.037328 83.514 37.8868
7837.421932 84.087 37.0330
7894.215122 84.634 35.4561
7951.419859 85.131 33.1355
8009.039125 85.557 30.1098
8067.075924 85.893 26.4825
8125.533282 86.127 22.4182
8184.414245 86.251 18.1238
8243.721885 86.264 13.8240
8303.459292 86.173 9.7333
8363.629581 85.990 6.0294
8424.235888 85.732 2.8307
8485.281374 85.419 0.1859
8546.769221 85.071 -1.9232
8608.702634 84.708 -3.5683
8671.084842 84.346 -4.8542
8733.919097 83.999 -5.8945
8797.208675 83.678 -6.7881
8860.956876 83.390 -7.6067
8925.167022 83.138 -8.3961
8989.842461 82.923 -9.1848
9054.986566 82.745 -9.9918
9120.602731 82.600 -10.8304
9186.694378 82.486 -11.7058
9253.264952 82.398 -12.6117
9320.317925 82.333 -13.5309
9387.856790 82.288 -14.4413
9455.885071 82.260 -15.3281
9524.406312 82.246 -16.1995
9593.424086 82.242 -17.0974
9662.941992 82.244 -18.0955
9732.963653 82.244 -19.2832
9803.492719 82.235 -20.7473
9874.532869 82.210 -22.5547
9946.087805 82.160 -24.7350
10018.161257 82.079 -27.2668
10090.756983 81.961 -30.0797
10163.878768 81.802 -33.0677
10237.530423 81.597 -36.1089
10311.715789 81.342 -39.0848
10386.438732 81.036 -41.9016
10461.703149 80.679 -44.5066
10537.512962 80.270 -46.8905
10613.872125 79.810 -49.0765
10690.784618 79.303 -51.1047
10768.254450 78.751 -53.0145
10846.285661 78.158 -54.8263
10924.882318 77.531 -56.5240
11004.048518 76.875 -58.0529
11083.788390 76.197 -59.3297
11164.106090 75.505 -60.2616
11245.005805 74.804 -60.7661
11326.491752 74.100 -60.7936
11408.568180 73.398 -60.3463
11491.239368 72.700 -59.4794
11574.509626 72.008 -58.2859
11658.383294 71.325 -56.8739
11742.864745 70.651 -55.3398
11827.958384 69.987 -53.7424
11913.668646 69.337 -52.0876
12000.000000 68.700 -50.3310
12086.956947 68.079 -48.3940
12174.544019 67.475 -46.1844
12262.765784 66.888 -43.6203
12351.626840 66.321 -40.6567
12441.131819 65.774 -37.3018
12531.285389 65.248 -33.6123
12622.092249 64.742 -29.6763
12713.557132 64.256 -25.5880
12805.684808 63.792 -21.4164
12898.480079 63.350 -17.1716
12991.947783 62.934 -12.7897
13086.092792 62.553 -8.1428
13180.920015 62.219 -3.0625
13276.434395 61.948 2.6328
13372.640911 61.764 9.0964
13469.544580 61.694 16.3943
13567.150452 61.771 24.4436
13665.463617 62.026 32.9779
13764.489200 62.484 41.5612
13864.232362 63.151 49.6668
13964.698305 64.017 56.8000
14065.892266 65.050 62.6009
14167.819519 66.210 66.8690
14270.485380 67.448 69.5314
14373.895200 68.715 70.6019
14478.054370 69.969 70.1531
14582.968320 71.169 68.3022
14688.642520 72.282 65.2066
14795.082478 73.278 61.0670
14902.293745 74.134 56.1299
15010.281908 74.832 50.6827
15119.052599 75.366 45.0308
15228.611486 75.742 39.4551
15338.964283 75.976 34.1630
15450.116741 76.097 29.2586
15562.074656 76.140 24.7391
15674.843864 76.140 20.5083
15788.430244 76.128 16.4059
15902.839718 76.129 12.2552
16018.078250 76.156 7.9111
16134.151848 76.212 3.2874
16251.066563 76.287 -1.6386
16368.828491 76.362 -6.8385
16487.443769 76.408 -12.2570
16606.918584 76.396 -17.8383
16727.259161 76.294 -23.5365
16848.471777 76.075 -29.3033
16970.562748 75.719 -35.0714
17093.538442 75.215 -40.7561
17217.405268 74.568 -46.2698
17342.169684 73.788 -51.5265
17467.838194 72.897 -56.4355
17594.417350 71.920 -60.9045
17721.913751 70.883 -64.8563
17850.334044 69.813 -68.2452
17979.684923 68.738 -71.0623
18109.973131 67.679 -73.3314
18241.205462 66.654 -75.0986
18373.388756 65.678 -76.4168
18506.529905 64.759 -77.3282
18640.635849 63.899 -77.8554
18775.713581 63.099 -78.0150
18911.770141 62.352 -77.8522
19048.812624 61.650 -77.4702
19186.848172 60.981 -77.0240
19325.883983 60.335 -76.6859
19465.927305 59.709 -76.6021
19606.985439 59.113 -76.8464
19749.065738 58.580 -77.3716
19892.175609 58.167 -77.9846
20036.322514 57.937 -78.4022
