* Measurement data measured by REW V5.31.3
* Source: Headset (CX31993 HIFI AUDIO), MICROPHONE (Master Volume), R, volume: 0.250
* Format: 256k Log Swept Sine, 1 sweep at -12.0 dBFS with no timing reference
* Dated: 12 31, 24 12:55:15 PM
* REW Settings:
*  C-weighting compensation: Off
*  Target level: 75.0 dB
* Note: ; 
* Measurement: Sony LB Fit Mellow L
* Smoothing: 1/12 octave
* Frequency Step: 96 ppo
* Start Frequency: 0.36621094 Hz
*
* Freq(Hz) SPL(dB) Phase(degrees)
0.366211 25.806 -168.4510
0.368865 25.832 -168.2322
0.371538 25.870 -167.9073
0.374230 25.918 -167.5043
0.376942 25.971 -167.0474
0.379673 26.028 -166.5542
0.382424 26.087 -166.0364
0.385196 26.148 -165.5011
0.387987 26.209 -164.9525
0.390798 26.272 -164.3929
0.393630 26.335 -163.8237
0.396483 26.399 -163.2454
0.399356 26.463 -162.6586
0.402250 26.528 -162.0633
0.405165 26.593 -161.4598
0.408101 26.658 -160.8482
0.411058 26.725 -160.2285
0.414037 26.791 -159.6010
0.417037 26.858 -158.9657
0.420059 26.926 -158.3228
0.423103 26.994 -157.6723
0.426169 27.062 -157.0145
0.429257 27.131 -156.3496
0.432368 27.201 -155.6777
0.435501 27.271 -154.9990
0.438656 27.342 -154.3138
0.441835 27.413 -153.6223
0.445037 27.484 -152.9247
0.448262 27.556 -152.2214
0.451510 27.629 -151.5125
0.454782 27.702 -150.7985
0.458077 27.776 -150.0795
0.461397 27.850 -149.3559
0.464740 27.925 -148.6281
0.468108 28.000 -147.8964
0.471500 28.076 -147.1611
0.474917 28.152 -146.4227
0.478358 28.229 -145.6815
0.481825 28.307 -144.9379
0.485316 28.385 -144.1922
0.488833 28.463 -143.4450
0.492375 28.543 -142.6965
0.495943 28.622 -141.9473
0.499537 28.703 -141.1977
0.503157 28.784 -140.4482
0.506803 28.865 -139.6991
0.510475 28.947 -138.9509
0.514175 29.030 -138.2040
0.517900 29.113 -137.4589
0.521653 29.197 -136.7159
0.525434 29.282 -135.9755
0.529241 29.367 -135.2380
0.533076 29.453 -134.5039
0.536939 29.539 -133.7735
0.540830 29.626 -133.0473
0.544749 29.714 -132.3255
0.548696 29.802 -131.6087
0.552673 29.891 -130.8970
0.556677 29.980 -130.1908
0.560711 30.071 -129.4905
0.564774 30.161 -128.7964
0.568867 30.253 -128.1088
0.572989 30.345 -127.4279
0.577141 30.438 -126.7541
0.581324 30.531 -126.0874
0.585536 30.626 -125.4284
0.589779 30.721 -124.7770
0.594053 30.816 -124.1336
0.598358 30.912 -123.4983
0.602694 31.009 -122.8714
0.607061 31.107 -122.2529
0.611460 31.205 -121.6430
0.615891 31.304 -121.0418
0.620354 31.404 -120.4496
0.624849 31.505 -119.8663
0.629377 31.606 -119.2921
0.633938 31.708 -118.7270
0.638532 31.811 -118.1711
0.643159 31.914 -117.6245
0.647819 32.019 -117.0872
0.652514 32.124 -116.5592
0.657242 32.229 -116.0406
0.662005 32.336 -115.5313
0.666802 32.443 -115.0315
0.671634 32.551 -114.5411
0.676501 32.660 -114.0602
0.681403 32.770 -113.5889
0.686341 32.880 -113.1275
0.691314 32.992 -112.6766
0.696324 33.104 -112.2372
0.701370 33.217 -111.8111
0.706452 33.332 -111.4017
0.711571 33.448 -111.0143
0.716728 33.565 -110.6568
0.721921 33.685 -110.3405
0.727153 33.809 -110.0783
0.732422 33.935 -109.8818
0.737729 34.066 -109.7542
0.743075 34.201 -109.6858
0.748460 34.340 -109.6606
0.753883 34.482 -109.6630
0.759346 34.627 -109.6813
0.764849 34.775 -109.7077
0.770391 34.926 -109.7376
0.775974 35.080 -109.7688
0.781597 35.235 -109.8002
0.787261 35.394 -109.8315
0.792966 35.555 -109.8630
0.798712 35.718 -109.8951
0.804500 35.883 -109.9283
0.810329 36.051 -109.9631
0.816201 36.221 -110.0000
0.822116 36.394 -110.0397
0.828073 36.569 -110.0826
0.834074 36.745 -110.1292
0.840118 36.924 -110.1801
0.846206 37.105 -110.2356
0.852338 37.288 -110.2963
0.858514 37.473 -110.3625
0.864735 37.659 -110.4347
0.871001 37.848 -110.5133
0.877313 38.038 -110.5986
0.883670 38.230 -110.6910
0.890074 38.423 -110.7908
0.896524 38.618 -110.8985
0.903020 38.815 -111.0142
0.909564 39.012 -111.1384
0.916155 39.211 -111.2713
0.922794 39.411 -111.4133
0.929481 39.612 -111.5645
0.936216 39.814 -111.7254
0.943000 40.017 -111.8961
0.949834 40.220 -112.0770
0.956717 40.424 -112.2682
0.963649 40.628 -112.4701
0.970632 40.833 -112.6828
0.977666 41.038 -112.9068
0.984750 41.243 -113.1420
0.991886 41.447 -113.3889
0.999074 41.652 -113.6477
1.006314 41.856 -113.9185
1.013606 42.059 -114.2016
1.020951 42.262 -114.4972
1.028349 42.463 -114.8055
1.035801 42.663 -115.1266
1.043307 42.863 -115.4609
1.050867 43.060 -115.8082
1.058482 43.256 -116.1687
1.066152 43.450 -116.5422
1.073878 43.642 -116.9284
1.081660 43.832 -117.3263
1.089498 44.020 -117.7349
1.097393 44.206 -118.1524
1.105345 44.390 -118.5766
1.113355 44.572 -119.0053
1.121423 44.753 -119.4366
1.129549 44.933 -119.8690
1.137734 45.111 -120.3018
1.145979 45.288 -120.7342
1.154283 45.464 -121.1660
1.162647 45.639 -121.5972
1.171072 45.813 -122.0275
1.179558 45.985 -122.4573
1.188106 46.157 -122.8865
1.196715 46.327 -123.3153
1.205387 46.497 -123.7438
1.214122 46.665 -124.1723
1.222920 46.833 -124.6009
1.231782 47.000 -125.0299
1.240708 47.166 -125.4594
1.249699 47.331 -125.8898
1.258754 47.496 -126.3213
1.267876 47.659 -126.7540
1.277063 47.822 -127.1884
1.286318 47.985 -127.6247
1.295639 48.147 -128.0631
1.305027 48.308 -128.5040
1.314484 48.469 -128.9476
1.324009 48.630 -129.3943
1.333604 48.791 -129.8445
1.343268 48.951 -130.2984
1.353002 49.111 -130.7564
1.362806 49.271 -131.2188
1.372681 49.431 -131.6859
1.382628 49.592 -132.1582
1.392647 49.752 -132.6360
1.402739 49.913 -133.1195
1.412904 50.074 -133.6090
1.423142 50.236 -134.1048
1.433455 50.398 -134.6068
1.443843 50.560 -135.1149
1.454305 50.723 -135.6287
1.464844 50.885 -136.1472
1.475459 51.048 -136.6696
1.486150 51.210 -137.1946
1.496920 51.372 -137.7213
1.507767 51.533 -138.2489
1.518693 51.694 -138.7772
1.529698 51.853 -139.3058
1.540783 52.012 -139.8345
1.551948 52.170 -140.3635
1.563194 52.327 -140.8929
1.574521 52.484 -141.4226
1.585931 52.640 -141.9530
1.597423 52.795 -142.4842
1.608999 52.949 -143.0164
1.620658 53.103 -143.5500
1.632402 53.256 -144.0850
1.644232 53.409 -144.6220
1.656146 53.561 -145.1611
1.668147 53.712 -145.7027
1.680235 53.863 -146.2471
1.692411 54.014 -146.7946
1.704675 54.164 -147.3458
1.717028 54.314 -147.9009
1.729470 54.464 -148.4603
1.742003 54.613 -149.0246
1.754626 54.763 -149.5940
1.767341 54.912 -150.1691
1.780147 55.061 -150.7502
1.793047 55.210 -151.3376
1.806040 55.359 -151.9318
1.819128 55.507 -152.5328
1.832310 55.656 -153.1406
1.845587 55.803 -153.7549
1.858961 55.951 -154.3754
1.872432 56.097 -155.0013
1.886001 56.243 -155.6322
1.899667 56.388 -156.2672
1.913433 56.532 -156.9058
1.927299 56.675 -157.5474
1.941265 56.818 -158.1914
1.955332 56.959 -158.8373
1.969501 57.100 -159.4848
1.983773 57.240 -160.1335
1.998148 57.380 -160.7830
2.012627 57.518 -161.4331
2.027212 57.656 -162.0837
2.041902 57.793 -162.7345
2.056698 57.930 -163.3855
2.071602 58.066 -164.0367
2.086614 58.202 -164.6881
2.101734 58.336 -165.3398
2.116964 58.471 -165.9920
2.132304 58.605 -166.6449
2.147756 58.738 -167.2991
2.163320 58.872 -167.9551
2.178996 59.004 -168.6135
2.194786 59.136 -169.2753
2.210690 59.267 -169.9411
2.226710 59.398 -170.6118
2.242845 59.527 -171.2875
2.259098 59.656 -171.9682
2.275468 59.783 -172.6533
2.291957 59.909 -173.3422
2.308566 60.035 -174.0343
2.325295 60.159 -174.7287
2.342145 60.283 -175.4246
2.359117 60.405 -176.1212
2.376212 60.527 -176.8179
2.393431 60.647 -177.5141
2.410775 60.767 -178.2089
2.428244 60.886 -178.9021
2.445840 61.004 -179.5930
2.463564 61.122 179.7186
2.481416 61.238 179.0329
2.499397 61.354 178.3499
2.517509 61.469 177.6692
2.535752 61.583 176.9902
2.554127 61.697 176.3118
2.572635 61.809 175.6328
2.591277 61.921 174.9516
2.610055 62.031 174.2673
2.628968 62.140 173.5796
2.648019 62.248 172.8885
2.667208 62.355 172.1946
2.686535 62.460 171.4988
2.706003 62.565 170.8019
2.725612 62.668 170.1053
2.745363 62.770 169.4098
2.765257 62.871 168.7167
2.785295 62.971 168.0270
2.805478 63.070 167.3417
2.825808 63.168 166.6618
2.846285 63.265 165.9879
2.866910 63.362 165.3203
2.887685 63.457 164.6590
2.908611 63.552 164.0036
2.929688 63.646 163.3528
2.950917 63.738 162.7054
2.972301 63.830 162.0597
2.993839 63.920 161.4149
3.015534 64.008 160.7707
3.037386 64.096 160.1273
3.059396 64.182 159.4852
3.081565 64.267 158.8454
3.103896 64.351 158.2090
3.126388 64.434 157.5773
3.149043 64.516 156.9514
3.171862 64.597 156.3327
3.194847 64.678 155.7222
3.217998 64.758 155.1209
3.241317 64.837 154.5295
3.264805 64.916 153.9482
3.288463 64.994 153.3767
3.312293 65.072 152.8143
3.336295 65.148 152.2598
3.360471 65.224 151.7123
3.384822 65.298 151.1712
3.409350 65.372 150.6364
3.434056 65.445 150.1078
3.458940 65.517 149.5861
3.484005 65.589 149.0717
3.509252 65.660 148.5652
3.534681 65.731 148.0677
3.560295 65.802 147.5798
3.586094 65.874 147.1024
3.612081 65.945 146.6361
3.638255 66.017 146.1815
3.664620 66.089 145.7388
3.691175 66.162 145.3079
3.717923 66.234 144.8885
3.744864 66.307 144.4799
3.772001 66.379 144.0815
3.799335 66.452 143.6925
3.826866 66.525 143.3123
3.854597 66.598 142.9402
3.882529 66.673 142.5756
3.910664 66.748 142.2182
3.939002 66.825 141.8676
3.967546 66.902 141.5238
3.996296 66.981 141.1872
4.025255 67.062 140.8580
4.054423 67.144 140.5370
4.083804 67.227 140.2243
4.113396 67.312 139.9196
4.143204 67.399 139.6221
4.173227 67.486 139.3303
4.203468 67.575 139.0426
4.233928 67.666 138.7570
4.264609 67.758 138.4716
4.295512 67.851 138.1851
4.326639 67.947 137.8961
4.357992 68.044 137.6040
4.389572 68.142 137.3089
4.421380 68.243 137.0112
4.453419 68.346 136.7115
4.485691 68.450 136.4099
4.518196 68.556 136.1057
4.550936 68.663 135.7976
4.583914 68.772 135.4841
4.617131 68.883 135.1634
4.650589 68.994 134.8334
4.684289 69.106 134.4929
4.718233 69.219 134.1406
4.752424 69.332 133.7760
4.786862 69.446 133.3994
4.821549 69.561 133.0114
4.856488 69.677 132.6124
4.891680 69.794 132.2026
4.927127 69.910 131.7822
4.962831 70.027 131.3507
4.998794 70.144 130.9077
5.035017 70.260 130.4525
5.071503 70.376 129.9844
5.108253 70.490 129.5028
5.145270 70.604 129.0076
5.182555 70.717 128.4988
5.220110 70.829 127.9772
5.257937 70.939 127.4437
5.296038 71.049 126.8995
5.334415 71.157 126.3460
5.373071 71.264 125.7842
5.412006 71.369 125.2148
5.451224 71.471 124.6381
5.490725 71.572 124.0540
5.530514 71.671 123.4622
5.570590 71.767 122.8628
5.610957 71.861 122.2567
5.651616 71.953 121.6454
5.692570 72.042 121.0310
5.733821 72.129 120.4156
5.775370 72.214 119.8010
5.817221 72.296 119.1886
5.859375 72.375 118.5788
5.901834 72.453 117.9717
5.944602 72.527 117.3672
5.987679 72.599 116.7659
6.031068 72.669 116.1693
6.074771 72.736 115.5794
6.118792 72.801 114.9983
6.163131 72.864 114.4280
6.207792 72.926 113.8697
6.252776 72.985 113.3241
6.298086 73.043 112.7912
6.343725 73.099 112.2711
6.389694 73.154 111.7641
6.435996 73.207 111.2708
6.482634 73.260 110.7923
6.529610 73.313 110.3296
6.576926 73.365 109.8835
6.624585 73.417 109.4545
6.672590 73.469 109.0422
6.720942 73.521 108.6461
6.769645 73.574 108.2650
6.818700 73.628 107.8979
6.868111 73.682 107.5436
6.917881 73.739 107.2013
6.968010 73.797 106.8705
7.018504 73.857 106.5506
7.069362 73.919 106.2402
7.120590 73.983 105.9374
7.172189 74.049 105.6398
7.224161 74.117 105.3446
7.276511 74.188 105.0495
7.329239 74.261 104.7526
7.382350 74.336 104.4528
7.435845 74.413 104.1486
7.489729 74.493 103.8385
7.544002 74.575 103.5201
7.598669 74.658 103.1911
7.653732 74.742 102.8495
7.709194 74.828 102.4938
7.765058 74.915 102.1234
7.821327 75.002 101.7377
7.878004 75.090 101.3365
7.935091 75.178 100.9194
7.992592 75.265 100.4860
8.050510 75.352 100.0357
8.108847 75.438 99.5689
8.167607 75.522 99.0860
8.226793 75.605 98.5881
8.286408 75.687 98.0768
8.346454 75.766 97.5535
8.406936 75.843 97.0194
8.467856 75.918 96.4756
8.529218 75.990 95.9234
8.591024 76.059 95.3645
8.653278 76.126 94.8011
8.715983 76.189 94.2357
8.779143 76.251 93.6700
8.842760 76.309 93.1057
8.906839 76.365 92.5441
8.971381 76.418 91.9869
9.036392 76.469 91.4357
9.101873 76.517 90.8925
9.167829 76.564 90.3587
9.234263 76.609 89.8353
9.301178 76.652 89.3228
9.368578 76.694 88.8217
9.436467 76.736 88.3326
9.504847 76.776 87.8556
9.573723 76.817 87.3909
9.643099 76.857 86.9380
9.712976 76.897 86.4963
9.783361 76.938 86.0647
9.854255 76.979 85.6420
9.925663 77.021 85.2273
9.997588 77.064 84.8193
10.070035 77.108 84.4167
10.143007 77.153 84.0178
10.216507 77.199 83.6212
10.290540 77.246 83.2253
10.365109 77.294 82.8290
10.440219 77.342 82.4314
10.515873 77.391 82.0313
10.592076 77.441 81.6281
10.668830 77.491 81.2209
10.746141 77.541 80.8096
10.824012 77.591 80.3942
10.902447 77.641 79.9749
10.981451 77.691 79.5520
11.061027 77.740 79.1259
11.141180 77.788 78.6974
11.221913 77.836 78.2672
11.303232 77.884 77.8363
11.385140 77.930 77.4055
11.467641 77.977 76.9756
11.550741 78.022 76.5474
11.634442 78.067 76.1213
11.718750 78.112 75.6982
11.803669 78.157 75.2781
11.889203 78.202 74.8613
11.975357 78.246 74.4474
12.062136 78.291 74.0364
12.149543 78.337 73.6275
12.237583 78.383 73.2203
12.326262 78.429 72.8137
12.415583 78.476 72.4069
12.505552 78.523 71.9988
12.596172 78.571 71.5886
12.687449 78.619 71.1753
12.779387 78.667 70.7581
12.871992 78.716 70.3363
12.965268 78.764 69.9096
13.059220 78.813 69.4778
13.153852 78.860 69.0409
13.249170 78.907 68.5994
13.345179 78.953 68.1537
13.441884 78.999 67.7048
13.539289 79.043 67.2538
13.637401 79.085 66.8019
13.736223 79.127 66.3503
13.835761 79.167 65.9003
13.936021 79.206 65.4534
14.037007 79.243 65.0107
14.138725 79.280 64.5733
14.241180 79.316 64.1418
14.344377 79.351 63.7170
14.448323 79.386 63.2989
14.553021 79.420 62.8875
14.658478 79.454 62.4821
14.764700 79.489 62.0822
14.871691 79.523 61.6867
14.979457 79.558 61.2944
15.088005 79.593 60.9040
15.197339 79.628 60.5141
15.307465 79.664 60.1236
15.418389 79.699 59.7316
15.530117 79.734 59.3373
15.642655 79.768 58.9405
15.756008 79.801 58.5414
15.870182 79.834 58.1405
15.985184 79.865 57.7390
16.101019 79.894 57.3383
16.217694 79.923 56.9403
16.335214 79.949 56.5470
16.453586 79.974 56.1604
16.572815 79.998 55.7824
16.692909 80.020 55.4145
16.813872 80.043 55.0578
16.935713 80.065 54.7127
17.058436 80.087 54.3788
17.182048 80.110 54.0547
17.306556 80.134 53.7383
17.431967 80.160 53.4268
17.558286 80.188 53.1166
17.685521 80.217 52.8038
17.813677 80.248 52.4847
17.942762 80.280 52.1556
18.072783 80.314 51.8135
18.203746 80.347 51.4566
18.335658 80.380 51.0840
18.468526 80.411 50.6961
18.602356 80.441 50.2948
18.737156 80.468 49.8829
18.872934 80.493 49.4643
19.009695 80.515 49.0433
19.147447 80.534 48.6244
19.286197 80.551 48.2117
19.425953 80.566 47.8084
19.566721 80.580 47.4164
19.708510 80.593 47.0360
19.851326 80.607 46.6659
19.995177 80.622 46.3032
20.140070 80.639 45.9438
20.286013 80.657 45.5828
20.433014 80.676 45.2155
20.581080 80.697 44.8377
20.730219 80.717 44.4468
20.880439 80.737 44.0423
21.031747 80.754 43.6255
21.184152 80.770 43.2004
21.337661 80.782 42.7726
21.492282 80.791 42.3491
21.648024 80.796 41.9372
21.804895 80.800 41.5435
21.962902 80.802 41.1730
22.122054 80.803 40.8283
22.282360 80.807 40.5087
22.443827 80.813 40.2104
22.606464 80.823 39.9269
22.770280 80.836 39.6496
22.935283 80.855 39.3694
23.101481 80.876 39.0778
23.268884 80.900 38.7687
23.437500 80.925 38.4390
23.607338 80.949 38.0893
23.778406 80.972 37.7236
23.950714 80.991 37.3487
24.124271 81.008 36.9726
24.299086 81.022 36.6034
24.475167 81.033 36.2474
24.652524 81.044 35.9082
24.831166 81.055 35.5856
25.011103 81.067 35.2763
25.192344 81.082 34.9741
25.374898 81.098 34.6714
25.558775 81.116 34.3615
25.743984 81.135 34.0398
25.930536 81.152 33.7050
26.118439 81.168 33.3597
26.307704 81.180 33.0103
26.498341 81.188 32.6649
26.690359 81.194 32.3321
26.883768 81.197 32.0186
27.078579 81.199 31.7275
27.274801 81.203 31.4575
27.472446 81.208 31.2025
27.671522 81.217 30.9531
27.872042 81.229 30.6983
28.074014 81.243 30.4284
28.277450 81.257 30.1372
28.482360 81.270 29.8233
28.688755 81.280 29.4907
28.896645 81.286 29.1476
29.106042 81.287 28.8050
29.316957 81.285 28.4733
29.529400 81.279 28.1607
29.743382 81.273 27.8708
29.958915 81.267 27.6021
30.176009 81.263 27.3484
30.394677 81.262 27.1008
30.614929 81.263 26.8499
30.836778 81.266 26.5881
31.060234 81.270 26.3118
31.285309 81.272 26.0215
31.512015 81.273 25.7217
31.740364 81.271 25.4192
31.970368 81.267 25.1214
32.202039 81.261 24.8342
32.435388 81.255 24.5609
32.670428 81.249 24.3015
32.907171 81.244 24.0535
33.145630 81.241 23.8120
33.385817 81.240 23.5723
33.627745 81.240 23.3297
33.871425 81.241 23.0814
34.116871 81.243 22.8265
34.364096 81.244 22.5657
34.613113 81.244 22.3015
34.863934 81.242 22.0369
35.116572 81.240 21.7752
35.371041 81.237 21.5194
35.627354 81.233 21.2711
35.885525 81.229 21.0308
36.145566 81.225 20.7974
36.407492 81.222 20.5691
36.671316 81.219 20.3435
36.937051 81.216 20.1191
37.204712 81.214 19.8951
37.474313 81.211 19.6719
37.745867 81.208 19.4504
38.019389 81.204 19.2316
38.294893 81.201 19.0154
38.572394 81.198 18.8005
38.851905 81.196 18.5853
39.133442 81.194 18.3680
39.417019 81.192 18.1478
39.702651 81.190 17.9255
39.990353 81.187 17.7031
40.280140 81.183 17.4829
40.572026 81.180 17.2663
40.866028 81.176 17.0535
41.162160 81.174 16.8433
41.460438 81.171 16.6339
41.760877 81.169 16.4241
42.063494 81.167 16.2139
42.368303 81.165 16.0042
42.675322 81.163 15.7956
42.984565 81.161 15.5884
43.296048 81.158 15.3817
43.609789 81.155 15.1749
43.925804 81.151 14.9685
44.244108 81.146 14.7660
44.564719 81.139 14.5723
44.887654 81.131 14.3927
45.212928 81.122 14.2297
45.540560 81.115 14.0814
45.870565 81.109 13.9414
46.202962 81.105 13.8009
46.537768 81.102 13.6527
46.875000 81.100 13.4938
47.214676 81.096 13.3260
47.556813 81.091 13.1552
47.901429 81.084 12.9869
48.248542 81.076 12.8241
48.598171 81.069 12.6661
48.950334 81.062 12.5092
49.305048 81.056 12.3494
49.662333 81.050 12.1843
50.022206 81.043 12.0143
50.384688 81.036 11.8425
50.749796 81.028 11.6728
51.117550 81.019 11.5081
51.487969 81.011 11.3497
51.861072 81.003 11.1970
52.236879 80.995 11.0480
52.615409 80.989 10.9006
52.996681 80.983 10.7528
53.380717 80.977 10.6027
53.767536 80.972 10.4492
54.157158 80.965 10.2916
54.549603 80.958 10.1309
54.944892 80.949 9.9694
55.343045 80.939 9.8116
55.744084 80.927 9.6626
56.148028 80.914 9.5261
56.554900 80.901 9.4031
56.964720 80.890 9.2911
57.377510 80.880 9.1843
57.793291 80.873 9.0762
58.212085 80.868 8.9607
58.633914 80.864 8.8346
59.058799 80.860 8.6978
59.486764 80.857 8.5530
59.917829 80.853 8.4049
60.352019 80.849 8.2584
60.789354 80.845 8.1170
61.229859 80.841 7.9815
61.673556 80.838 7.8503
62.120468 80.836 7.7210
62.570618 80.833 7.5920
63.024031 80.829 7.4647
63.480729 80.824 7.3428
63.940736 80.816 7.2311
64.404077 80.807 7.1332
64.870776 80.796 7.0522
65.340856 80.785 6.9896
65.814343 80.774 6.9442
66.291261 80.765 6.9094
66.771635 80.758 6.8716
67.255489 80.755 6.8140
67.742850 80.752 6.7240
68.233743 80.748 6.6009
68.728193 80.739 6.4569
69.226226 80.728 6.3107
69.727867 80.715 6.1776
70.233144 80.703 6.0609
70.742083 80.695 5.9503
71.254709 80.691 5.8281
71.771050 80.690 5.6807
72.291132 80.689 5.5071
72.814984 80.686 5.3182
73.342631 80.681 5.1287
73.874102 80.675 4.9476
74.409424 80.667 4.7764
74.948626 80.659 4.6125
75.491734 80.651 4.4551
76.038779 80.641 4.3041
76.589787 80.630 4.1606
77.144788 80.619 4.0253
77.703811 80.607 3.8981
78.266885 80.594 3.7784
78.834039 80.583 3.6635
79.405303 80.572 3.5497
79.980706 80.562 3.4348
80.560280 80.552 3.3184
81.144053 80.542 3.2002
81.732056 80.533 3.0796
82.324320 80.525 2.9557
82.920876 80.515 2.8291
83.521755 80.505 2.7016
84.126988 80.495 2.5759
84.736607 80.483 2.4537
85.350643 80.470 2.3356
85.969129 80.456 2.2216
86.592097 80.441 2.1115
87.219579 80.426 2.0048
87.851608 80.410 1.9005
88.488217 80.394 1.7970
89.129439 80.378 1.6918
89.775308 80.362 1.5833
90.425856 80.345 1.4721
91.081119 80.328 1.3600
91.741131 80.311 1.2480
92.405925 80.293 1.1354
93.075536 80.275 1.0197
93.750000 80.255 0.9009
94.429351 80.233 0.7830
95.113625 80.207 0.6724
95.802858 80.179 0.5744
96.497085 80.146 0.4937
97.196342 80.110 0.4362
97.900667 80.070 0.4114
98.610096 80.028 0.4293
99.324665 79.985 0.4973
100.044413 79.943 0.6171
100.769376 79.906 0.7843
101.499592 79.875 0.9901
102.235100 79.852 1.2224
102.975938 79.838 1.4673
103.722144 79.833 1.7087
104.473757 79.837 1.9291
105.230817 79.848 2.1130
105.993363 79.864 2.2513
106.761435 79.882 2.3433
107.535072 79.900 2.3949
108.314315 79.917 2.4164
109.099206 79.933 2.4180
109.889783 79.947 2.4065
110.686090 79.961 2.3828
111.488167 79.973 2.3436
112.296056 79.985 2.2861
113.109800 79.995 2.2112
113.929440 80.002 2.1228
114.755020 80.008 2.0249
115.586582 80.012 1.9202
116.424170 80.015 1.8097
117.267827 80.017 1.6958
118.117598 80.017 1.5825
118.973527 80.015 1.4760
119.835658 80.011 1.3826
120.704037 80.006 1.3066
121.578708 79.999 1.2485
122.459718 79.991 1.2052
123.347111 79.982 1.1722
124.240935 79.973 1.1455
125.141236 79.965 1.1204
126.048061 79.958 1.0924
126.961458 79.954 1.0574
127.881473 79.953 1.0122
128.808154 79.955 0.9557
129.741551 79.959 0.8904
130.681712 79.963 0.8225
131.628686 79.965 0.7588
132.582521 79.964 0.7042
133.543269 79.960 0.6619
134.510979 79.953 0.6306
135.485701 79.944 0.5995
136.467486 79.935 0.5533
137.456386 79.925 0.4841
138.452451 79.916 0.3940
139.455735 79.906 0.2914
140.466288 79.898 0.1862
141.484165 79.889 0.0876
142.509418 79.881 0.0029
143.542100 79.872 -0.0640
144.582265 79.862 -0.1140
145.629968 79.852 -0.1522
146.685262 79.843 -0.1864
147.748204 79.833 -0.2240
148.818849 79.824 -0.2679
149.897251 79.814 -0.3154
150.983469 79.805 -0.3621
152.077557 79.795 -0.4058
153.179574 79.786 -0.4470
154.289576 79.777 -0.4866
155.407622 79.769 -0.5258
156.533770 79.760 -0.5651
157.668078 79.753 -0.6035
158.810606 79.747 -0.6409
159.961413 79.741 -0.6798
161.120559 79.737 -0.7238
162.288105 79.732 -0.7734
163.464112 79.725 -0.8248
164.648640 79.717 -0.8718
165.841752 79.708 -0.9106
167.043510 79.699 -0.9418
168.253976 79.691 -0.9702
169.473213 79.685 -1.0015
170.701286 79.680 -1.0399
171.938258 79.675 -1.0879
173.184194 79.671 -1.1463
174.439158 79.667 -1.2142
175.703216 79.662 -1.2885
176.976434 79.656 -1.3660
178.258878 79.649 -1.4445
179.550615 79.639 -1.5214
180.851713 79.627 -1.5914
182.162239 79.613 -1.6489
183.482262 79.598 -1.6929
184.811850 79.583 -1.7279
186.151073 79.569 -1.7610
187.500000 79.555 -1.7969
188.858702 79.542 -1.8361
190.227250 79.529 -1.8754
191.605715 79.516 -1.9108
192.994169 79.504 -1.9403
194.392685 79.491 -1.9664
195.801334 79.478 -1.9965
197.220191 79.464 -2.0399
198.649330 79.450 -2.1028
200.088825 79.435 -2.1838
201.538751 79.420 -2.2739
202.999184 79.406 -2.3610
204.470200 79.393 -2.4384
205.951875 79.381 -2.5061
207.444287 79.369 -2.5658
208.947514 79.356 -2.6183
210.461634 79.341 -2.6638
211.986726 79.324 -2.7032
213.522869 79.306 -2.7379
215.070144 79.287 -2.7703
216.628631 79.267 -2.8026
218.198411 79.247 -2.8367
219.779567 79.226 -2.8732
221.372180 79.207 -2.9102
222.976334 79.188 -2.9431
224.592112 79.169 -2.9656
226.219600 79.151 -2.9728
227.858880 79.132 -2.9641
229.510039 79.113 -2.9432
231.173164 79.093 -2.9159
232.848340 79.074 -2.8875
234.535655 79.054 -2.8608
236.235197 79.033 -2.8369
237.947054 79.012 -2.8159
239.671317 78.991 -2.7994
241.408074 78.968 -2.7894
243.157416 78.945 -2.7866
244.919435 78.922 -2.7900
246.694223 78.898 -2.7964
248.481871 78.875 -2.8005
250.282473 78.851 -2.7964
252.096123 78.827 -2.7795
253.922915 78.804 -2.7493
255.762945 78.781 -2.7103
257.616309 78.759 -2.6705
259.483103 78.736 -2.6388
261.363424 78.714 -2.6208
263.257372 78.692 -2.6156
265.165043 78.670 -2.6130
267.086538 78.649 -2.5980
269.021957 78.630 -2.5598
270.971401 78.613 -2.4968
272.934972 78.597 -2.4153
274.912771 78.580 -2.3211
276.904902 78.562 -2.2184
278.911469 78.543 -2.1105
280.932577 78.522 -2.0013
282.968330 78.500 -1.8961
285.018835 78.476 -1.7988
287.084199 78.451 -1.7097
289.164530 78.425 -1.6265
291.259935 78.399 -1.5460
293.370525 78.373 -1.4661
295.496408 78.349 -1.3849
297.637697 78.328 -1.3006
299.794503 78.310 -1.2113
301.966937 78.293 -1.1162
304.155114 78.279 -1.0148
306.359147 78.265 -0.9056
308.579152 78.251 -0.7864
310.815244 78.236 -0.6562
313.067539 78.221 -0.5155
315.336156 78.204 -0.3655
317.621211 78.187 -0.2087
319.922826 78.170 -0.0492
322.241118 78.153 0.1072
324.576210 78.137 0.2561
326.928223 78.123 0.3992
329.297280 78.109 0.5428
331.683504 78.097 0.6930
334.087019 78.085 0.8490
336.507952 78.073 1.0044
338.946427 78.059 1.1524
341.402572 78.045 1.2904
343.876516 78.033 1.4186
346.368387 78.022 1.5392
348.878315 78.014 1.6558
351.406431 78.007 1.7722
353.952867 78.001 1.8923
356.517756 77.996 2.0178
359.101230 77.990 2.1466
361.703426 77.983 2.2734
364.324478 77.974 2.3943
366.964523 77.965 2.5093
369.623699 77.953 2.6218
372.302145 77.940 2.7361
375.000000 77.925 2.8557
377.717405 77.910 2.9818
380.454501 77.897 3.1104
383.211431 77.886 3.2369
385.988339 77.879 3.3604
388.785369 77.873 3.4829
391.602668 77.868 3.6049
394.440383 77.862 3.7230
397.298660 77.856 3.8336
400.177650 77.849 3.9402
403.077502 77.842 4.0544
405.998368 77.835 4.1899
408.940400 77.828 4.3560
411.903750 77.822 4.5546
414.888575 77.816 4.7812
417.895028 77.812 5.0270
420.923268 77.809 5.2804
423.973452 77.808 5.5306
427.045738 77.810 5.7704
430.140287 77.816 5.9938
433.257261 77.824 6.1951
436.396822 77.836 6.3696
439.559133 77.851 6.5174
442.744360 77.868 6.6439
445.952668 77.885 6.7554
449.184225 77.899 6.8557
452.439199 77.911 6.9467
455.717760 77.920 7.0300
459.020079 77.925 7.1073
462.346327 77.928 7.1803
465.696680 77.928 7.2523
469.071310 77.926 7.3287
472.470394 77.925 7.4146
475.894109 77.924 7.5095
479.342634 77.925 7.6069
482.816148 77.928 7.6985
486.314833 77.932 7.7828
489.838871 77.937 7.8656
493.388445 77.943 7.9541
496.963741 77.948 8.0496
500.564945 77.953 8.1492
504.192245 77.957 8.2493
507.845830 77.960 8.3474
511.525890 77.962 8.4424
515.232618 77.964 8.5353
518.966206 77.965 8.6285
522.726849 77.965 8.7247
526.514743 77.966 8.8256
530.330086 77.966 8.9312
534.173076 77.968 9.0380
538.043915 77.970 9.1389
541.942803 77.974 9.2272
545.869944 77.978 9.3011
549.825542 77.983 9.3628
553.809805 77.987 9.4155
557.822939 77.989 9.4635
561.865154 77.991 9.5112
565.936660 77.991 9.5629
570.037671 77.990 9.6216
574.168399 77.988 9.6880
578.329060 77.988 9.7607
582.519870 77.989 9.8374
586.741049 77.990 9.9165
590.992817 77.993 9.9967
595.275394 77.996 10.0771
599.589005 77.999 10.1583
603.933874 78.002 10.2422
608.310228 78.004 10.3298
612.718295 78.005 10.4208
617.158304 78.002 10.5112
621.630488 77.997 10.5972
626.135079 77.989 10.6786
630.672311 77.981 10.7583
635.242423 77.973 10.8394
639.845651 77.967 10.9249
644.482237 77.963 11.0173
649.152421 77.960 11.1141
653.856447 77.958 11.2097
658.594560 77.955 11.2983
663.367008 77.952 11.3760
668.174039 77.947 11.4401
673.015903 77.939 11.4888
677.892854 77.930 11.5228
682.805145 77.918 11.5466
687.753032 77.905 11.5682
692.736774 77.891 11.5970
697.756631 77.877 11.6394
702.812863 77.865 11.6972
707.905735 77.855 11.7692
713.035511 77.847 11.8551
718.202461 77.842 11.9575
723.406852 77.838 12.0792
728.648956 77.835 12.2203
733.929047 77.832 12.3782
739.247399 77.826 12.5484
744.604290 77.818 12.7241
750.000000 77.807 12.8969
755.434809 77.795 13.0624
760.909001 77.784 13.2225
766.422861 77.774 13.3833
771.976677 77.765 13.5498
777.570739 77.758 13.7242
783.205337 77.751 13.9065
788.880766 77.747 14.0946
794.597321 77.743 14.2861
800.355301 77.739 14.4788
806.155005 77.736 14.6736
811.996736 77.732 14.8724
817.880799 77.727 15.0748
823.807501 77.720 15.2778
829.777150 77.713 15.4796
835.790057 77.705 15.6824
841.846536 77.699 15.8911
847.946903 77.695 16.1098
854.091476 77.695 16.3398
860.280575 77.699 16.5809
866.514523 77.705 16.8319
872.793644 77.713 17.0901
879.118267 77.721 17.3516
885.488720 77.728 17.6121
891.905336 77.733 17.8667
898.368450 77.738 18.1108
904.878398 77.742 18.3406
911.435520 77.747 18.5543
918.040157 77.753 18.7532
924.692655 77.760 18.9411
931.393359 77.770 19.1240
938.142619 77.781 19.3080
944.940787 77.795 19.4982
951.788218 77.811 19.6981
958.685268 77.830 19.9114
965.632296 77.852 20.1420
972.629666 77.876 20.3890
979.677741 77.901 20.6458
986.776890 77.928 20.9025
993.927482 77.954 21.1495
1001.129891 77.979 21.3795
1008.384491 78.005 21.5887
1015.691660 78.030 21.7775
1023.051781 78.053 21.9501
1030.465236 78.076 22.1135
1037.932411 78.099 22.2726
1045.453698 78.125 22.4281
1053.029486 78.155 22.5797
1060.660172 78.188 22.7279
1068.346153 78.222 22.8752
1076.087829 78.258 23.0240
1083.885605 78.294 23.1743
1091.739887 78.328 23.3231
1099.651084 78.362 23.4651
1107.619609 78.395 23.5940
1115.645878 78.427 23.7056
1123.730308 78.459 23.8003
1131.873321 78.492 23.8831
1140.075341 78.527 23.9595
1148.336797 78.565 24.0314
1156.658119 78.607 24.0972
1165.039741 78.650 24.1521
1173.482099 78.693 24.1898
1181.985634 78.733 24.2045
1190.550789 78.770 24.1934
1199.178011 78.803 24.1562
1207.867749 78.832 24.0963
1216.620457 78.858 24.0200
1225.436590 78.881 23.9344
1234.316609 78.902 23.8445
1243.260976 78.923 23.7537
1252.270157 78.944 23.6660
1261.344623 78.964 23.5847
1270.484846 78.984 23.5088
1279.691303 79.002 23.4320
1288.964474 79.017 23.3453
1298.304842 79.029 23.2397
1307.712894 79.037 23.1099
1317.189120 79.042 22.9537
1326.734016 79.043 22.7721
1336.348077 79.042 22.5698
1346.031806 79.038 22.3544
1355.785708 79.031 22.1346
1365.610290 79.021 21.9189
1375.506065 79.008 21.7133
1385.473549 78.992 21.5229
1395.513261 78.974 21.3542
1405.625726 78.953 21.2157
1415.811469 78.931 21.1149
1426.071023 78.907 21.0554
1436.404921 78.881 21.0355
1446.813703 78.852 21.0477
1457.297912 78.820 21.0815
1467.858093 78.785 21.1274
1478.494798 78.748 21.1775
1489.208581 78.709 21.2273
1500.000000 78.667 21.2775
1510.869618 78.623 21.3359
1521.818002 78.575 21.4143
1532.845723 78.525 21.5243
1543.953355 78.472 21.6755
1555.141477 78.418 21.8754
1566.410674 78.364 22.1281
1577.761531 78.311 22.4348
1589.194642 78.259 22.7930
1600.710601 78.206 23.1974
1612.310010 78.153 23.6411
1623.993473 78.099 24.1182
1635.761599 78.046 24.6271
1647.615002 77.996 25.1721
1659.554299 77.952 25.7624
1671.580114 77.916 26.4083
1683.693072 77.891 27.1187
1695.893807 77.877 27.8984
1708.182952 77.876 28.7488
1720.561150 77.891 29.6687
1733.029045 77.924 30.6519
1745.587288 77.979 31.6812
1758.236533 78.055 32.7257
1770.977440 78.154 33.7455
1783.810673 78.274 34.6990
1796.736900 78.410 35.5481
1809.756796 78.558 36.2621
1822.871040 78.712 36.8232
1836.080315 78.866 37.2304
1849.385310 79.017 37.5000
1862.786718 79.162 37.6599
1876.285239 79.303 37.7421
1889.881575 79.441 37.7763
1903.576436 79.578 37.7852
1917.370535 79.714 37.7809
1931.264593 79.851 37.7636
1945.259332 79.989 37.7221
1959.355483 80.127 37.6375
1973.553781 80.261 37.4886
1987.854965 80.391 37.2583
2002.259781 80.513 36.9372
2016.768981 80.625 36.5273
2031.383320 80.728 36.0432
2046.103561 80.821 35.5085
2060.930471 80.905 34.9498
2075.864823 80.981 34.3904
2090.907395 81.050 33.8439
2106.058972 81.114 33.3152
2121.320344 81.172 32.8033
2136.692305 81.226 32.3017
2152.175658 81.274 31.7985
2167.771210 81.316 31.2814
2183.479774 81.351 30.7418
2199.302169 81.378 30.1777
2215.239219 81.398 29.5977
2231.291755 81.413 29.0201
2247.460615 81.424 28.4671
2263.746641 81.434 27.9570
2280.150683 81.444 27.4995
2296.673595 81.453 27.0935
2313.316238 81.462 26.7267
2330.079481 81.468 26.3778
2346.964198 81.470 26.0232
2363.971268 81.468 25.6460
2381.101578 81.462 25.2388
2398.356022 81.452 24.8021
2415.735498 81.440 24.3413
2433.240913 81.428 23.8646
2450.873180 81.415 23.3836
2468.633217 81.403 22.9097
2486.521951 81.392 22.4516
2504.540314 81.382 22.0144
2522.689246 81.372 21.6019
2540.969692 81.362 21.2191
2559.382606 81.352 20.8718
2577.928947 81.343 20.5659
2596.609683 81.334 20.3033
2615.425787 81.325 20.0793
2634.378241 81.316 19.8806
2653.468031 81.304 19.6887
2672.696154 81.291 19.4861
2692.063613 81.275 19.2617
2711.571415 81.257 19.0117
2731.220579 81.238 18.7395
2751.012130 81.220 18.4554
2770.947098 81.203 18.1754
2791.026522 81.190 17.9163
2811.251451 81.179 17.6907
2831.622938 81.172 17.5023
2852.142045 81.168 17.3433
2872.809842 81.165 17.1947
2893.627406 81.163 17.0320
2914.595823 81.160 16.8296
2935.716186 81.154 16.5695
2956.989596 81.144 16.2463
2978.417161 81.131 15.8698
3000.000000 81.113 15.4612
3021.739237 81.092 15.0492
3043.636005 81.069 14.6603
3065.691446 81.046 14.3112
3087.906710 81.022 14.0056
3110.282955 80.998 13.7352
3132.821347 80.973 13.4836
3155.523062 80.945 13.2309
3178.389283 80.913 12.9596
3201.421202 80.878 12.6576
3224.620020 80.838 12.3185
3247.986946 80.795 11.9415
3271.523198 80.752 11.5320
3295.230004 80.708 11.0989
3319.108599 80.665 10.6517
3343.160228 80.622 10.1991
3367.386145 80.580 9.7495
3391.787613 80.537 9.3138
3416.365904 80.494 8.9064
3441.122300 80.451 8.5436
3466.058091 80.409 8.2379
3491.174576 80.368 7.9932
3516.473066 80.328 7.8009
3541.954880 80.288 7.6420
3567.621345 80.246 7.4908
3593.473800 80.201 7.3210
3619.513592 80.152 7.1121
3645.742080 80.098 6.8531
3672.160630 80.040 6.5463
3698.770620 79.979 6.2070
3725.573436 79.916 5.8606
3752.570477 79.852 5.5364
3779.763150 79.788 5.2598
3807.152872 79.724 5.0447
3834.741071 79.660 4.8885
3862.529185 79.595 4.7747
3890.518664 79.530 4.6780
3918.710966 79.461 4.5712
3947.107561 79.389 4.4318
3975.709929 79.312 4.2491
4004.519563 79.231 4.0280
4033.537962 79.145 3.7869
4062.766641 79.056 3.5549
4092.207123 78.965 3.3633
4121.860942 78.875 3.2374
4151.729646 78.786 3.1909
4181.814790 78.697 3.2211
4212.117944 78.608 3.3083
4242.640687 78.517 3.4211
4273.384610 78.423 3.5252
4304.351317 78.326 3.5950
4335.542421 78.225 3.6210
4366.959549 78.121 3.6132
4398.604338 78.018 3.5988
4430.478438 77.915 3.6160
4462.583511 77.815 3.7019
4494.921231 77.718 3.8817
4527.493283 77.624 4.1629
4560.301365 77.532 4.5342
4593.347189 77.443 4.9685
4626.632476 77.355 5.4280
4660.158962 77.267 5.8741
4693.928395 77.181 6.2778
4727.942535 77.097 6.6252
4762.203156 77.017 6.9189
4796.712043 76.942 7.1739
4831.470996 76.874 7.4097
4866.481826 76.814 7.6432
4901.746360 76.762 7.8875
4937.266434 76.719 8.1534
4973.043902 76.685 8.4531
5009.080628 76.660 8.8006
5045.378492 76.647 9.2112
5081.939384 76.646 9.6966
5118.765212 76.659 10.2556
5155.857894 76.685 10.8682
5193.219366 76.724 11.4956
5230.851574 76.775 12.0861
5268.756481 76.835 12.5845
5306.936062 76.904 12.9430
5345.392309 76.978 13.1295
5384.127225 77.056 13.1345
5423.142830 77.137 12.9708
5462.441159 77.218 12.6680
5502.024259 77.297 12.2635
5541.894195 77.373 11.7916
5582.053045 77.442 11.2725
5622.502902 77.502 10.7068
5663.245876 77.550 10.0768
5704.284090 77.581 9.3533
5745.619684 77.592 8.5065
5787.254813 77.581 7.5159
5829.191647 77.544 6.3773
5871.432373 77.482 5.1069
5913.979192 77.393 3.7402
5956.834323 77.279 2.3235
6000.000000 77.140 0.9052
6043.478473 76.975 -0.4702
6087.272010 76.788 -1.7616
6131.382892 76.578 -2.9286
6175.813420 76.348 -3.9272
6220.565910 76.102 -4.7088
6265.642695 75.843 -5.2231
6311.046124 75.578 -5.4297
6356.778566 75.314 -5.3169
6402.842404 75.059 -4.9208
6449.240040 74.816 -4.3299
6495.973891 74.585 -3.6608
6543.046396 74.358 -3.0055
6590.460007 74.125 -2.3890
6638.217197 73.882 -1.7740
6686.320456 73.628 -1.0913
6734.772290 73.371 -0.2632
6783.575226 73.116 0.7843
6832.731809 72.872 2.1155
6882.244600 72.645 3.7770
6932.116181 72.442 5.7902
6982.349153 72.269 8.1420
7032.946133 72.134 10.7800
7083.909760 72.044 13.6140
7135.242690 72.007 16.5232
7186.947600 72.025 19.3812
7239.027185 72.098 22.1021
7291.484160 72.224 24.6752
7344.321260 72.404 27.1479
7397.541239 72.644 29.5728
7451.146872 72.949 31.9644
7505.140954 73.323 34.2792
7559.526299 73.767 36.4144
7614.305743 74.272 38.2230
7669.482141 74.828 39.5393
7725.058371 75.419 40.2086
7781.037328 76.024 40.1139
7837.421932 76.624 39.1961
7894.215122 77.196 37.4633
7951.419859 77.719 34.9890
8009.039125 78.172 31.9001
8067.075924 78.538 28.3617
8125.533282 78.804 24.5600
8184.414245 78.962 20.6799
8243.721885 79.010 16.8843
8303.459292 78.954 13.2988
8363.629581 78.804 10.0073
8424.235888 78.578 7.0526
8485.281374 78.293 4.4423
8546.769221 77.970 2.1621
8608.702634 77.628 0.1898
8671.084842 77.286 -1.4985
8733.919097 76.960 -2.9293
8797.208675 76.660 -4.1361
8860.956876 76.393 -5.1592
8925.167022 76.163 -6.0404
8989.842461 75.971 -6.8149
9054.986566 75.815 -7.5031
9120.602731 75.692 -8.1087
9186.694378 75.598 -8.6252
9253.264952 75.532 -9.0491
9320.317925 75.490 -9.3972
9387.856790 75.470 -9.7198
9455.885071 75.467 -10.0990
9524.406312 75.477 -10.6346
9593.424086 75.493 -11.4268
9662.941992 75.510 -12.5557
9732.963653 75.522 -14.0623
9803.492719 75.523 -15.9388
9874.532869 75.506 -18.1322
9946.087805 75.467 -20.5592
10018.161257 75.398 -23.1250
10090.756983 75.295 -25.7410
10163.878768 75.151 -28.3416
10237.530423 74.963 -30.8948
10311.715789 74.725 -33.4028
10386.438732 74.435 -35.8890
10461.703149 74.090 -38.3822
10537.512962 73.691 -40.8998
10613.872125 73.237 -43.4310
10690.784618 72.734 -45.9267
10768.254450 72.185 -48.3013
10846.285661 71.597 -50.4480
10924.882318 70.976 -52.2574
11004.048518 70.329 -53.6384
11083.788390 69.661 -54.5388
11164.106090 68.980 -54.9601
11245.005805 68.289 -54.9550
11326.491752 67.592 -54.6119
11408.568180 66.893 -54.0342
11491.239368 66.193 -53.3164
11574.509626 65.496 -52.5212
11658.383294 64.802 -51.6677
11742.864745 64.117 -50.7418
11827.958384 63.442 -49.7140
11913.668646 62.780 -48.5522
12000.000000 62.134 -47.2253
12086.956947 61.506 -45.7023
12174.544019 60.895 -43.9473
12262.765784 60.303 -41.9139
12351.626840 59.729 -39.5428
12441.131819 59.173 -36.7684
12531.285389 58.638 -33.5367
12622.092249 58.124 -29.8291
12713.557132 57.634 -25.6733
12805.684808 57.167 -21.1353
12898.480079 56.726 -16.2981
12991.947783 56.314 -11.2374
13086.092792 55.937 -5.9897
13180.920015 55.603 -0.5219
13276.434395 55.329 5.2755
13372.640911 55.135 11.5635
13469.544580 55.051 18.5105
13567.150452 55.113 26.2263
13665.463617 55.356 34.6715
13764.489200 55.806 43.5781
13864.232362 56.472 52.4480
13964.698305 57.342 60.6670
14065.892266 58.384 67.6788
14167.819519 59.552 73.1121
14270.485380 60.799 76.8140
14373.895200 62.078 78.8112
14478.054370 63.345 79.2429
14582.968320 64.562 78.3018
14688.642520 65.695 76.1998
14795.082478 66.714 73.1496
14902.293745 67.594 69.3535
15010.281908 68.318 65.0007
15119.052599 68.878 60.2721
15228.611486 69.279 55.3399
15338.964283 69.538 50.3529
15450.116741 69.684 45.4220
15562.074656 69.751 40.6225
15674.843864 69.777 36.0068
15788.430244 69.797 31.6089
15902.839718 69.836 27.4373
16018.078250 69.908 23.4640
16134.151848 70.016 19.6143
16251.066563 70.147 15.7649
16368.828491 70.280 11.7577
16487.443769 70.385 7.4330
16606.918584 70.431 2.6681
16727.259161 70.385 -2.5951
16848.471777 70.221 -8.3313
16970.562748 69.917 -14.4192
17093.538442 69.467 -20.6553
17217.405268 68.874 -26.7965
17342.169684 68.155 -32.6113
17467.838194 67.330 -37.9120
17594.417350 66.427 -42.5686
17721.913751 65.473 -46.5061
17850.334044 64.497 -49.6929
17979.684923 63.525 -52.1235
18109.973131 62.581 -53.8056
18241.205462 61.684 -54.7576
18373.388756 60.847 -55.0237
18506.529905 60.077 -54.7011
18640.635849 59.374 -53.9581
18775.713581 58.733 -53.0219
18911.770141 58.144 -52.1453
19048.812624 57.595 -51.5671
19186.848172 57.072 -51.4663
19325.883983 56.567 -51.9198
19465.927305 56.076 -52.8855
19606.985439 55.607 -54.2108
19749.065738 55.188 -55.6501
19892.175609 54.862 -56.8912
20036.322514 54.682 -57.6166
