* Measurement data measured by REW V5.31.3
* Source: Headset (CX31993 HIFI AUDIO), MICROPHONE (Master Volume), R, volume: 0.250
* Format: 256k Log Swept Sine, 1 sweep at -12.0 dBFS with no timing reference
* Dated: 12 31, 24 1:07:07 PM
* REW Settings:
*  C-weighting compensation: Off
*  Target level: 75.0 dB
* Note: ; 
* Measurement: Sony LB Ambient L
* Smoothing: 1/12 octave
* Frequency Step: 96 ppo
* Start Frequency: 0.36621094 Hz
*
* Freq(Hz) SPL(dB) Phase(degrees)
0.366211 32.643 -53.9013
0.368865 32.658 -54.0165
0.371538 32.679 -54.1880
0.374230 32.706 -54.4013
0.376942 32.736 -54.6439
0.379673 32.768 -54.9068
0.382424 32.802 -55.1839
0.385196 32.836 -55.4716
0.387987 32.871 -55.7678
0.390798 32.906 -56.0712
0.393630 32.942 -56.3812
0.396483 32.978 -56.6975
0.399356 33.014 -57.0199
0.402250 33.051 -57.3484
0.405165 33.088 -57.6830
0.408101 33.125 -58.0236
0.411058 33.162 -58.3703
0.414037 33.200 -58.7231
0.417037 33.238 -59.0819
0.420059 33.276 -59.4468
0.423103 33.314 -59.8178
0.426169 33.353 -60.1949
0.429257 33.392 -60.5781
0.432368 33.431 -60.9674
0.435501 33.471 -61.3628
0.438656 33.511 -61.7642
0.441835 33.551 -62.1717
0.445037 33.591 -62.5853
0.448262 33.632 -63.0049
0.451510 33.673 -63.4304
0.454782 33.715 -63.8619
0.458077 33.756 -64.2994
0.461397 33.798 -64.7428
0.464740 33.840 -65.1920
0.468108 33.883 -65.6471
0.471500 33.926 -66.1079
0.474917 33.969 -66.5745
0.478358 34.012 -67.0468
0.481825 34.056 -67.5247
0.485316 34.100 -68.0081
0.488833 34.145 -68.4971
0.492375 34.190 -68.9915
0.495943 34.235 -69.4912
0.499537 34.280 -69.9963
0.503157 34.326 -70.5066
0.506803 34.372 -71.0221
0.510475 34.418 -71.5426
0.514175 34.465 -72.0681
0.517900 34.512 -72.5985
0.521653 34.560 -73.1338
0.525434 34.607 -73.6738
0.529241 34.655 -74.2184
0.533076 34.704 -74.7675
0.536939 34.753 -75.3212
0.540830 34.802 -75.8792
0.544749 34.851 -76.4414
0.548696 34.901 -77.0078
0.552673 34.952 -77.5783
0.556677 35.002 -78.1527
0.560711 35.053 -78.7310
0.564774 35.105 -79.3131
0.568867 35.156 -79.8989
0.572989 35.208 -80.4882
0.577141 35.261 -81.0810
0.581324 35.314 -81.6772
0.585536 35.367 -82.2766
0.589779 35.421 -82.8792
0.594053 35.475 -83.4848
0.598358 35.529 -84.0935
0.602694 35.584 -84.7051
0.607061 35.639 -85.3194
0.611460 35.695 -85.9365
0.615891 35.751 -86.5561
0.620354 35.807 -87.1784
0.624849 35.864 -87.8030
0.629377 35.921 -88.4301
0.633938 35.979 -89.0594
0.638532 36.037 -89.6910
0.643159 36.095 -90.3246
0.647819 36.154 -90.9604
0.652514 36.213 -91.5982
0.657242 36.273 -92.2380
0.662005 36.333 -92.8796
0.666802 36.394 -93.5231
0.671634 36.455 -94.1683
0.676501 36.517 -94.8153
0.681403 36.579 -95.4640
0.686341 36.641 -96.1143
0.691314 36.704 -96.7662
0.696324 36.768 -97.4197
0.701370 36.832 -98.0746
0.706452 36.897 -98.7309
0.711571 36.963 -99.3884
0.716728 37.030 -100.0470
0.721921 37.099 -100.7062
0.727153 37.171 -101.3656
0.732422 37.245 -102.0245
0.737729 37.324 -102.6821
0.743075 37.405 -103.3374
0.748460 37.490 -103.9899
0.753883 37.577 -104.6387
0.759346 37.666 -105.2835
0.764849 37.758 -105.9240
0.770391 37.851 -106.5599
0.775974 37.947 -107.1910
0.781597 38.044 -107.8171
0.787261 38.142 -108.4383
0.792966 38.243 -109.0544
0.798712 38.345 -109.6654
0.804500 38.448 -110.2712
0.810329 38.554 -110.8718
0.816201 38.661 -111.4673
0.822116 38.769 -112.0576
0.828073 38.879 -112.6428
0.834074 38.991 -113.2229
0.840118 39.104 -113.7979
0.846206 39.219 -114.3680
0.852338 39.335 -114.9332
0.858514 39.453 -115.4936
0.864735 39.572 -116.0494
0.871001 39.692 -116.6005
0.877313 39.814 -117.1472
0.883670 39.937 -117.6896
0.890074 40.061 -118.2277
0.896524 40.187 -118.7619
0.903020 40.314 -119.2921
0.909564 40.442 -119.8186
0.916155 40.571 -120.3414
0.922794 40.701 -120.8609
0.929481 40.832 -121.3771
0.936216 40.965 -121.8903
0.943000 41.098 -122.4006
0.949834 41.231 -122.9081
0.956717 41.366 -123.4132
0.963649 41.502 -123.9159
0.970632 41.638 -124.4165
0.977666 41.774 -124.9151
0.984750 41.911 -125.4120
0.991886 42.049 -125.9073
0.999074 42.187 -126.4013
1.006314 42.325 -126.8941
1.013606 42.464 -127.3860
1.020951 42.602 -127.8771
1.028349 42.741 -128.3677
1.035801 42.879 -128.8578
1.043307 43.017 -129.3479
1.050867 43.155 -129.8379
1.058482 43.293 -130.3280
1.066152 43.430 -130.8182
1.073878 43.567 -131.3087
1.081660 43.703 -131.7991
1.089498 43.839 -132.2892
1.097393 43.974 -132.7785
1.105345 44.109 -133.2662
1.113355 44.244 -133.7516
1.121423 44.380 -134.2340
1.129549 44.515 -134.7132
1.137734 44.651 -135.1887
1.145979 44.787 -135.6605
1.154283 44.923 -136.1286
1.162647 45.060 -136.5930
1.171072 45.197 -137.0537
1.179558 45.335 -137.5109
1.188106 45.473 -137.9647
1.196715 45.611 -138.4153
1.205387 45.750 -138.8627
1.214122 45.889 -139.3072
1.222920 46.028 -139.7488
1.231782 46.168 -140.1878
1.240708 46.308 -140.6242
1.249699 46.448 -141.0582
1.258754 46.588 -141.4900
1.267876 46.729 -141.9197
1.277063 46.870 -142.3475
1.286318 47.012 -142.7736
1.295639 47.153 -143.1982
1.305027 47.295 -143.6212
1.314484 47.437 -144.0431
1.324009 47.580 -144.4639
1.333604 47.722 -144.8837
1.343268 47.865 -145.3028
1.353002 48.008 -145.7213
1.362806 48.151 -146.1394
1.372681 48.295 -146.5572
1.382628 48.438 -146.9749
1.392647 48.582 -147.3926
1.402739 48.726 -147.8105
1.412904 48.870 -148.2287
1.423142 49.014 -148.6471
1.433455 49.158 -149.0657
1.443843 49.302 -149.4844
1.454305 49.447 -149.9027
1.464844 49.591 -150.3201
1.475459 49.735 -150.7360
1.486150 49.879 -151.1497
1.496920 50.023 -151.5607
1.507767 50.167 -151.9689
1.518693 50.311 -152.3742
1.529698 50.454 -152.7767
1.540783 50.598 -153.1765
1.551948 50.741 -153.5741
1.563194 50.884 -153.9695
1.574521 51.027 -154.3631
1.585931 51.170 -154.7554
1.597423 51.312 -155.1465
1.608999 51.455 -155.5367
1.620658 51.598 -155.9266
1.632402 51.740 -156.3162
1.644232 51.882 -156.7060
1.656146 52.025 -157.0963
1.668147 52.167 -157.4874
1.680235 52.309 -157.8795
1.692411 52.451 -158.2731
1.704675 52.594 -158.6685
1.717028 52.736 -159.0658
1.729470 52.878 -159.4655
1.742003 53.021 -159.8677
1.754626 53.163 -160.2728
1.767341 53.306 -160.6810
1.780147 53.448 -161.0923
1.793047 53.591 -161.5070
1.806040 53.734 -161.9249
1.819128 53.876 -162.3458
1.832310 54.019 -162.7693
1.845587 54.162 -163.1947
1.858961 54.304 -163.6214
1.872432 54.446 -164.0491
1.886001 54.588 -164.4772
1.899667 54.730 -164.9055
1.913433 54.871 -165.3340
1.927299 55.012 -165.7625
1.941265 55.152 -166.1911
1.955332 55.292 -166.6199
1.969501 55.432 -167.0488
1.983773 55.572 -167.4780
1.998148 55.711 -167.9076
2.012627 55.851 -168.3377
2.027212 55.990 -168.7684
2.041902 56.128 -169.1999
2.056698 56.267 -169.6322
2.071602 56.406 -170.0657
2.086614 56.544 -170.5003
2.101734 56.682 -170.9364
2.116964 56.820 -171.3740
2.132304 56.958 -171.8134
2.147756 57.097 -172.2545
2.163320 57.235 -172.6977
2.178996 57.372 -173.1427
2.194786 57.510 -173.5896
2.210690 57.648 -174.0381
2.226710 57.785 -174.4881
2.242845 57.922 -174.9394
2.259098 58.058 -175.3916
2.275468 58.194 -175.8447
2.291957 58.329 -176.2985
2.308566 58.464 -176.7530
2.325295 58.599 -177.2081
2.342145 58.733 -177.6638
2.359117 58.867 -178.1201
2.376212 59.001 -178.5770
2.393431 59.134 -179.0346
2.410775 59.267 -179.4928
2.428244 59.399 -179.9518
2.445840 59.532 179.5883
2.463564 59.664 179.1275
2.481416 59.795 178.6656
2.499397 59.927 178.2025
2.517509 60.058 177.7382
2.535752 60.190 177.2724
2.554127 60.321 176.8051
2.572635 60.451 176.3362
2.591277 60.581 175.8657
2.610055 60.711 175.3936
2.628968 60.840 174.9201
2.648019 60.969 174.4453
2.667208 61.097 173.9693
2.686535 61.225 173.4923
2.706003 61.352 173.0144
2.725612 61.479 172.5357
2.745363 61.605 172.0563
2.765257 61.731 171.5764
2.785295 61.856 171.0959
2.805478 61.981 170.6150
2.825808 62.106 170.1336
2.846285 62.230 169.6517
2.866910 62.354 169.1692
2.887685 62.478 168.6860
2.908611 62.601 168.2019
2.929688 62.724 167.7168
2.950917 62.847 167.2304
2.972301 62.969 166.7426
2.993839 63.090 166.2534
3.015534 63.211 165.7627
3.037386 63.331 165.2709
3.059396 63.451 164.7780
3.081565 63.570 164.2844
3.103896 63.689 163.7902
3.126388 63.807 163.2957
3.149043 63.924 162.8011
3.171862 64.041 162.3065
3.194847 64.158 161.8122
3.217998 64.274 161.3181
3.241317 64.390 160.8243
3.264805 64.506 160.3307
3.288463 64.621 159.8369
3.312293 64.735 159.3428
3.336295 64.849 158.8481
3.360471 64.962 158.3525
3.384822 65.075 157.8561
3.409350 65.187 157.3591
3.434056 65.298 156.8615
3.458940 65.409 156.3637
3.484005 65.520 155.8660
3.509252 65.629 155.3686
3.534681 65.739 154.8717
3.560295 65.847 154.3757
3.586094 65.956 153.8806
3.612081 66.064 153.3864
3.638255 66.171 152.8929
3.664620 66.278 152.4001
3.691175 66.384 151.9075
3.717923 66.490 151.4149
3.744864 66.595 150.9222
3.772001 66.699 150.4294
3.799335 66.803 149.9366
3.826866 66.907 149.4443
3.854597 67.009 148.9527
3.882529 67.111 148.4620
3.910664 67.213 147.9727
3.939002 67.314 147.4850
3.967546 67.415 146.9989
3.996296 67.515 146.5146
4.025255 67.615 146.0318
4.054423 67.715 145.5503
4.083804 67.814 145.0699
4.113396 67.912 144.5904
4.143204 68.009 144.1118
4.173227 68.107 143.6341
4.203468 68.203 143.1576
4.233928 68.299 142.6826
4.264609 68.395 142.2092
4.295512 68.490 141.7379
4.326639 68.585 141.2685
4.357992 68.680 140.8014
4.389572 68.774 140.3363
4.421380 68.868 139.8732
4.453419 68.961 139.4119
4.485691 69.054 138.9521
4.518196 69.146 138.4940
4.550936 69.238 138.0373
4.583914 69.330 137.5824
4.617131 69.421 137.1293
4.650589 69.512 136.6781
4.684289 69.603 136.2290
4.718233 69.693 135.7821
4.752424 69.784 135.3373
4.786862 69.873 134.8945
4.821549 69.963 134.4537
4.856488 70.053 134.0147
4.891680 70.142 133.5774
4.927127 70.231 133.1417
4.962831 70.319 132.7076
4.998794 70.408 132.2749
5.035017 70.496 131.8438
5.071503 70.584 131.4141
5.108253 70.672 130.9858
5.145270 70.760 130.5590
5.182555 70.848 130.1334
5.220110 70.936 129.7091
5.257937 71.023 129.2859
5.296038 71.110 128.8636
5.334415 71.197 128.4420
5.373071 71.284 128.0212
5.412006 71.371 127.6008
5.451224 71.458 127.1809
5.490725 71.545 126.7612
5.530514 71.631 126.3418
5.570590 71.718 125.9225
5.610957 71.804 125.5034
5.651616 71.890 125.0842
5.692570 71.976 124.6650
5.733821 72.061 124.2455
5.775370 72.147 123.8258
5.817221 72.232 123.4056
5.859375 72.317 122.9848
5.901834 72.402 122.5634
5.944602 72.486 122.1414
5.987679 72.570 121.7187
6.031068 72.654 121.2954
6.074771 72.737 120.8715
6.118792 72.820 120.4471
6.163131 72.903 120.0223
6.207792 72.985 119.5969
6.252776 73.067 119.1709
6.298086 73.149 118.7443
6.343725 73.229 118.3171
6.389694 73.310 117.8896
6.435996 73.390 117.4619
6.482634 73.469 117.0343
6.529610 73.548 116.6069
6.576926 73.626 116.1799
6.624585 73.704 115.7533
6.672590 73.781 115.3271
6.720942 73.858 114.9014
6.769645 73.934 114.4764
6.818700 74.009 114.0525
6.868111 74.084 113.6298
6.917881 74.159 113.2086
6.968010 74.233 112.7891
7.018504 74.306 112.3713
7.069362 74.379 111.9551
7.120590 74.451 111.5408
7.172189 74.523 111.1284
7.224161 74.595 110.7180
7.276511 74.666 110.3099
7.329239 74.737 109.9041
7.382350 74.807 109.5006
7.435845 74.878 109.0993
7.489729 74.948 108.7002
7.544002 75.017 108.3031
7.598669 75.087 107.9080
7.653732 75.156 107.5147
7.709194 75.226 107.1233
7.765058 75.295 106.7335
7.821327 75.364 106.3451
7.878004 75.434 105.9579
7.935091 75.503 105.5716
7.992592 75.572 105.1860
8.050510 75.641 104.8007
8.108847 75.710 104.4155
8.167607 75.779 104.0304
8.226793 75.848 103.6449
8.286408 75.917 103.2589
8.346454 75.986 102.8720
8.406936 76.055 102.4841
8.467856 76.124 102.0948
8.529218 76.192 101.7041
8.591024 76.261 101.3118
8.653278 76.329 100.9180
8.715983 76.397 100.5224
8.779143 76.464 100.1252
8.842760 76.531 99.7261
8.906839 76.598 99.3252
8.971381 76.664 98.9228
9.036392 76.730 98.5189
9.101873 76.796 98.1137
9.167829 76.860 97.7074
9.234263 76.925 97.3001
9.301178 76.988 96.8921
9.368578 77.051 96.4836
9.436467 77.114 96.0748
9.504847 77.176 95.6662
9.573723 77.237 95.2579
9.643099 77.297 94.8502
9.712976 77.358 94.4432
9.783361 77.417 94.0371
9.854255 77.476 93.6323
9.925663 77.535 93.2289
9.997588 77.593 92.8268
10.070035 77.651 92.4264
10.143007 77.708 92.0275
10.216507 77.765 91.6302
10.290540 77.822 91.2345
10.365109 77.879 90.8404
10.440219 77.935 90.4478
10.515873 77.991 90.0564
10.592076 78.047 89.6663
10.668830 78.103 89.2772
10.746141 78.159 88.8890
10.824012 78.215 88.5015
10.902447 78.270 88.1145
10.981451 78.326 87.7278
11.061027 78.381 87.3414
11.141180 78.436 86.9550
11.221913 78.491 86.5685
11.303232 78.546 86.1818
11.385140 78.601 85.7948
11.467641 78.656 85.4073
11.550741 78.710 85.0195
11.634442 78.765 84.6311
11.718750 78.819 84.2423
11.803669 78.873 83.8529
11.889203 78.926 83.4631
11.975357 78.980 83.0729
12.062136 79.033 82.6823
12.149543 79.086 82.2913
12.237583 79.138 81.9001
12.326262 79.190 81.5087
12.415583 79.242 81.1172
12.505552 79.294 80.7256
12.596172 79.346 80.3341
12.687449 79.397 79.9427
12.779387 79.448 79.5515
12.871992 79.498 79.1606
12.965268 79.548 78.7700
13.059220 79.598 78.3799
13.153852 79.648 77.9902
13.249170 79.697 77.6010
13.345179 79.747 77.2122
13.441884 79.796 76.8241
13.539289 79.844 76.4364
13.637401 79.893 76.0491
13.736223 79.941 75.6623
13.835761 79.989 75.2758
13.936021 80.037 74.8895
14.037007 80.085 74.5033
14.138725 80.132 74.1171
14.241180 80.180 73.7307
14.344377 80.227 73.3442
14.448323 80.273 72.9575
14.553021 80.320 72.5704
14.658478 80.366 72.1830
14.764700 80.412 71.7955
14.871691 80.457 71.4079
14.979457 80.502 71.0203
15.088005 80.546 70.6331
15.197339 80.590 70.2465
15.307465 80.634 69.8607
15.418389 80.677 69.4760
15.530117 80.719 69.0928
15.642655 80.762 68.7113
15.756008 80.803 68.3316
15.870182 80.845 67.9539
15.985184 80.886 67.5781
16.101019 80.927 67.2043
16.217694 80.968 66.8321
16.335214 81.008 66.4614
16.453586 81.049 66.0916
16.572815 81.090 65.7225
16.692909 81.130 65.3535
16.813872 81.171 64.9841
16.935713 81.211 64.6139
17.058436 81.251 64.2425
17.182048 81.291 63.8697
17.306556 81.331 63.4952
17.431967 81.370 63.1190
17.558286 81.409 62.7411
17.685521 81.447 62.3617
17.813677 81.485 61.9809
17.942762 81.521 61.5991
18.072783 81.558 61.2165
18.203746 81.593 60.8333
18.335658 81.628 60.4499
18.468526 81.662 60.0662
18.602356 81.696 59.6824
18.737156 81.728 59.2987
18.872934 81.760 58.9150
19.009695 81.791 58.5315
19.147447 81.821 58.1485
19.286197 81.849 57.7663
19.425953 81.877 57.3856
19.566721 81.903 57.0074
19.708510 81.928 56.6328
19.851326 81.952 56.2634
19.995177 81.974 55.9009
20.140070 81.995 55.5474
20.286013 82.015 55.2048
20.433014 82.034 54.8750
20.581080 82.052 54.5597
20.730219 82.070 54.2600
20.880439 82.088 53.9766
21.031747 82.108 53.7092
21.184152 82.129 53.4565
21.337661 82.152 53.2163
21.492282 82.178 52.9856
21.648024 82.206 52.7603
21.804895 82.238 52.5360
21.962902 82.273 52.3076
22.122054 82.310 52.0704
22.282360 82.351 51.8199
22.443827 82.392 51.5526
22.606464 82.435 51.2660
22.770280 82.479 50.9591
22.935283 82.522 50.6323
23.101481 82.563 50.2872
23.268884 82.603 49.9269
23.437500 82.640 49.5551
23.607338 82.675 49.1762
23.778406 82.708 48.7944
23.950714 82.738 48.4137
24.124271 82.767 48.0369
24.299086 82.794 47.6659
24.475167 82.821 47.3013
24.652524 82.847 46.9427
24.831166 82.873 46.5883
25.011103 82.899 46.2363
25.192344 82.926 45.8842
25.374898 82.953 45.5302
25.558775 82.979 45.1728
25.743984 83.005 44.8117
25.930536 83.031 44.4474
26.118439 83.055 44.0810
26.307704 83.078 43.7144
26.498341 83.100 43.3495
26.690359 83.121 42.9881
26.883768 83.141 42.6315
27.078579 83.160 42.2805
27.274801 83.179 41.9354
27.472446 83.198 41.5958
27.671522 83.217 41.2610
27.872042 83.237 40.9302
28.074014 83.256 40.6028
28.277450 83.276 40.2780
28.482360 83.296 39.9551
28.688755 83.316 39.6332
28.896645 83.337 39.3114
29.106042 83.358 38.9885
29.316957 83.379 38.6633
29.529400 83.401 38.3348
29.743382 83.422 38.0023
29.958915 83.442 37.6658
30.176009 83.462 37.3263
30.394677 83.480 36.9855
30.614929 83.497 36.6458
30.836778 83.512 36.3098
31.060234 83.527 35.9798
31.285309 83.540 35.6574
31.512015 83.554 35.3430
31.740364 83.567 35.0361
31.970368 83.581 34.7352
32.202039 83.595 34.4382
32.435388 83.610 34.1430
32.670428 83.625 33.8475
32.907171 83.641 33.5504
33.145630 83.657 33.2505
33.385817 83.672 32.9473
33.627745 83.688 32.6403
33.871425 83.703 32.3293
34.116871 83.718 32.0144
34.364096 83.732 31.6958
34.613113 83.746 31.3744
34.863934 83.758 31.0515
35.116572 83.769 30.7290
35.371041 83.779 30.4088
35.627354 83.789 30.0927
35.885525 83.798 29.7814
36.145566 83.808 29.4749
36.407492 83.817 29.1721
36.671316 83.828 28.8712
36.937051 83.838 28.5705
37.204712 83.849 28.2685
37.474313 83.861 27.9646
37.745867 83.872 27.6588
38.019389 83.883 27.3519
38.294893 83.894 27.0444
38.572394 83.905 26.7369
38.851905 83.916 26.4293
39.133442 83.926 26.1215
39.417019 83.936 25.8130
39.702651 83.946 25.5042
39.990353 83.955 25.1956
40.280140 83.964 24.8886
40.572026 83.971 24.5848
40.866028 83.978 24.2854
41.162160 83.984 23.9910
41.460438 83.991 23.7013
41.760877 83.997 23.4153
42.063494 84.003 23.1318
42.368303 84.009 22.8495
42.675322 84.014 22.5680
42.984565 84.020 22.2870
43.296048 84.024 22.0070
43.609789 84.029 21.7282
43.925804 84.033 21.4512
44.244108 84.037 21.1758
44.564719 84.041 20.9017
44.887654 84.045 20.6279
45.212928 84.050 20.3529
45.540560 84.055 20.0751
45.870565 84.060 19.7927
46.202962 84.065 19.5045
46.537768 84.070 19.2106
46.875000 84.074 18.9122
47.214676 84.076 18.6116
47.556813 84.078 18.3118
47.901429 84.080 18.0151
48.248542 84.080 17.7230
48.598171 84.081 17.4349
48.950334 84.082 17.1497
49.305048 84.083 16.8656
49.662333 84.084 16.5817
50.022206 84.084 16.2979
50.384688 84.084 16.0149
50.749796 84.083 15.7339
51.117550 84.082 15.4557
51.487969 84.081 15.1810
51.861072 84.079 14.9097
52.236879 84.076 14.6416
52.615409 84.074 14.3765
52.996681 84.072 14.1141
53.380717 84.069 13.8535
53.767536 84.067 13.5935
54.157158 84.065 13.3329
54.549603 84.062 13.0703
54.944892 84.060 12.8055
55.343045 84.057 12.5388
55.744084 84.054 12.2713
56.148028 84.050 12.0040
56.554900 84.046 11.7372
56.964720 84.041 11.4708
57.377510 84.036 11.2045
57.793291 84.030 10.9391
58.212085 84.023 10.6764
58.633914 84.015 10.4188
59.058799 84.007 10.1680
59.486764 83.999 9.9241
59.917829 83.991 9.6848
60.352019 83.984 9.4474
60.789354 83.978 9.2090
61.229859 83.972 8.9676
61.673556 83.966 8.7220
62.120468 83.960 8.4716
62.570618 83.954 8.2169
63.024031 83.947 7.9600
63.480729 83.940 7.7037
63.940736 83.932 7.4502
64.404077 83.925 7.1993
64.870776 83.918 6.9497
65.340856 83.910 6.6996
65.814343 83.903 6.4491
66.291261 83.894 6.2005
66.771635 83.884 5.9569
67.255489 83.873 5.7209
67.742850 83.861 5.4944
68.233743 83.848 5.2775
68.728193 83.835 5.0688
69.226226 83.823 4.8661
69.727867 83.810 4.6653
70.233144 83.799 4.4613
70.742083 83.787 4.2489
71.254709 83.776 4.0239
71.771050 83.763 3.7854
72.291132 83.750 3.5369
72.814984 83.734 3.2849
73.342631 83.717 3.0350
73.874102 83.700 2.7897
74.409424 83.683 2.5482
74.948626 83.667 2.3093
75.491734 83.650 2.0737
76.038779 83.633 1.8444
76.589787 83.617 1.6234
77.144788 83.600 1.4106
77.703811 83.584 1.2031
78.266885 83.568 0.9976
78.834039 83.551 0.7917
79.405303 83.534 0.5847
79.980706 83.516 0.3754
80.560280 83.497 0.1630
81.144053 83.477 -0.0529
81.732056 83.455 -0.2704
82.324320 83.432 -0.4862
82.920876 83.408 -0.6975
83.521755 83.385 -0.9031
84.126988 83.362 -1.1032
84.736607 83.340 -1.2991
85.350643 83.319 -1.4916
85.969129 83.298 -1.6817
86.592097 83.279 -1.8705
87.219579 83.260 -2.0594
87.851608 83.241 -2.2497
88.488217 83.221 -2.4412
89.129439 83.200 -2.6327
89.775308 83.178 -2.8219
90.425856 83.154 -3.0071
91.081119 83.130 -3.1880
91.741131 83.106 -3.3651
92.405925 83.081 -3.5402
93.075536 83.057 -3.7150
93.750000 83.033 -3.8915
94.429351 83.008 -4.0707
95.113625 82.984 -4.2517
95.802858 82.958 -4.4321
96.497085 82.931 -4.6085
97.196342 82.903 -4.7787
97.900667 82.875 -4.9426
98.610096 82.846 -5.1034
99.324665 82.818 -5.2653
100.044413 82.790 -5.4321
100.769376 82.761 -5.6063
101.499592 82.730 -5.7878
102.235100 82.699 -5.9749
102.975938 82.665 -6.1632
103.722144 82.630 -6.3474
104.473757 82.593 -6.5227
105.230817 82.556 -6.6870
105.993363 82.518 -6.8409
106.761435 82.480 -6.9873
107.535072 82.442 -7.1290
108.314315 82.403 -7.2687
109.099206 82.364 -7.4082
109.889783 82.323 -7.5479
110.686090 82.281 -7.6859
111.488167 82.236 -7.8182
112.296056 82.189 -7.9391
113.109800 82.140 -8.0427
113.929440 82.088 -8.1236
114.755020 82.034 -8.1764
115.586582 81.978 -8.1952
116.424170 81.921 -8.1733
117.267827 81.865 -8.1067
118.117598 81.811 -7.9964
118.973527 81.762 -7.8497
119.835658 81.718 -7.6792
120.704037 81.682 -7.5000
121.578708 81.652 -7.3271
122.459718 81.628 -7.1721
123.347111 81.608 -7.0401
124.240935 81.592 -6.9306
125.141236 81.577 -6.8414
126.048061 81.565 -6.7706
126.961458 81.553 -6.7160
127.881473 81.542 -6.6760
128.808154 81.531 -6.6508
129.741551 81.520 -6.6428
130.681712 81.509 -6.6538
131.628686 81.498 -6.6835
132.582521 81.484 -6.7284
133.543269 81.469 -6.7843
134.510979 81.452 -6.8466
135.485701 81.433 -6.9106
136.467486 81.412 -6.9719
137.456386 81.388 -7.0255
138.452451 81.364 -7.0679
139.455735 81.338 -7.0980
140.466288 81.312 -7.1176
141.484165 81.286 -7.1295
142.509418 81.259 -7.1360
143.542100 81.231 -7.1373
144.582265 81.201 -7.1323
145.629968 81.171 -7.1215
146.685262 81.140 -7.1067
147.748204 81.109 -7.0901
148.818849 81.078 -7.0723
149.897251 81.049 -7.0524
150.983469 81.020 -7.0295
152.077557 80.992 -7.0035
153.179574 80.964 -6.9755
154.289576 80.937 -6.9479
155.407622 80.909 -6.9228
156.533770 80.879 -6.9010
157.668078 80.849 -6.8813
158.810606 80.819 -6.8613
159.961413 80.789 -6.8384
161.120559 80.758 -6.8092
162.288105 80.728 -6.7709
163.464112 80.698 -6.7223
164.648640 80.667 -6.6651
165.841752 80.637 -6.6032
167.043510 80.606 -6.5408
168.253976 80.575 -6.4803
169.473213 80.545 -6.4215
170.701286 80.516 -6.3610
171.938258 80.488 -6.2941
173.184194 80.460 -6.2173
174.439158 80.434 -6.1296
175.703216 80.408 -6.0347
176.976434 80.383 -5.9376
178.258878 80.358 -5.8427
179.550615 80.334 -5.7518
180.851713 80.309 -5.6646
182.162239 80.283 -5.5794
183.482262 80.257 -5.4939
184.811850 80.231 -5.4050
186.151073 80.205 -5.3096
187.500000 80.178 -5.2053
188.858702 80.151 -5.0916
190.227250 80.124 -4.9670
191.605715 80.097 -4.8321
192.994169 80.070 -4.6896
194.392685 80.044 -4.5439
195.801334 80.018 -4.3983
197.220191 79.993 -4.2538
198.649330 79.968 -4.1111
200.088825 79.941 -3.9706
201.538751 79.915 -3.8320
202.999184 79.888 -3.6947
204.470200 79.862 -3.5564
205.951875 79.839 -3.4138
207.444287 79.817 -3.2638
208.947514 79.797 -3.1053
210.461634 79.779 -2.9404
211.986726 79.762 -2.7736
213.522869 79.745 -2.6090
215.070144 79.728 -2.4483
216.628631 79.710 -2.2897
218.198411 79.693 -2.1298
219.779567 79.674 -1.9658
221.372180 79.656 -1.7979
222.976334 79.637 -1.6289
224.592112 79.619 -1.4630
226.219600 79.601 -1.3024
227.858880 79.584 -1.1454
229.510039 79.568 -0.9875
231.173164 79.551 -0.8232
232.848340 79.534 -0.6489
234.535655 79.517 -0.4635
236.235197 79.499 -0.2680
237.947054 79.480 -0.0659
239.671317 79.463 0.1379
241.408074 79.446 0.3389
243.157416 79.431 0.5344
244.919435 79.417 0.7242
246.694223 79.404 0.9088
248.481871 79.391 1.0891
250.282473 79.378 1.2657
252.096123 79.365 1.4398
253.922915 79.353 1.6135
255.762945 79.342 1.7891
257.616309 79.331 1.9689
259.483103 79.321 2.1538
261.363424 79.311 2.3442
263.257372 79.303 2.5408
265.165043 79.295 2.7438
267.086538 79.288 2.9517
269.021957 79.281 3.1614
270.971401 79.273 3.3702
272.934972 79.265 3.5778
274.912771 79.257 3.7857
276.904902 79.249 3.9950
278.911469 79.241 4.2053
280.932577 79.233 4.4161
282.968330 79.226 4.6284
285.018835 79.220 4.8444
287.084199 79.214 5.0653
289.164530 79.209 5.2905
291.259935 79.204 5.5165
293.370525 79.200 5.7391
295.496408 79.196 5.9551
297.637697 79.193 6.1633
299.794503 79.190 6.3649
301.966937 79.189 6.5627
304.155114 79.188 6.7607
306.359147 79.189 6.9624
308.579152 79.189 7.1698
310.815244 79.189 7.3838
313.067539 79.189 7.6040
315.336156 79.189 7.8292
317.621211 79.188 8.0569
319.922826 79.187 8.2838
322.241118 79.186 8.5056
324.576210 79.187 8.7177
326.928223 79.188 8.9174
329.297280 79.190 9.1058
331.683504 79.192 9.2886
334.087019 79.194 9.4738
336.507952 79.195 9.6691
338.946427 79.196 9.8774
341.402572 79.198 10.0964
343.876516 79.200 10.3190
346.368387 79.205 10.5366
348.878315 79.212 10.7433
351.406431 79.220 10.9374
353.952867 79.229 11.1210
356.517756 79.239 11.2988
359.101230 79.247 11.4767
361.703426 79.253 11.6604
364.324478 79.257 11.8535
366.964523 79.260 12.0557
369.623699 79.262 12.2634
372.302145 79.264 12.4714
375.000000 79.266 12.6735
377.717405 79.269 12.8632
380.454501 79.273 13.0372
383.211431 79.277 13.1976
385.988339 79.282 13.3497
388.785369 79.289 13.4985
391.602668 79.296 13.6465
394.440383 79.304 13.7948
397.298660 79.312 13.9443
400.177650 79.319 14.0964
403.077502 79.326 14.2519
405.998368 79.331 14.4130
408.940400 79.335 14.5851
411.903750 79.338 14.7762
414.888575 79.341 14.9937
417.895028 79.344 15.2391
420.923268 79.349 15.5062
423.973452 79.359 15.7834
427.045738 79.373 16.0576
430.140287 79.391 16.3183
433.257261 79.413 16.5581
436.396822 79.436 16.7734
439.559133 79.459 16.9641
442.744360 79.482 17.1337
445.952668 79.504 17.2872
449.184225 79.524 17.4296
452.439199 79.542 17.5632
455.717760 79.557 17.6890
459.020079 79.570 17.8086
462.346327 79.580 17.9255
465.696680 79.590 18.0413
469.071310 79.598 18.1544
472.470394 79.606 18.2626
475.894109 79.614 18.3671
479.342634 79.623 18.4736
482.816148 79.634 18.5886
486.314833 79.647 18.7156
489.838871 79.661 18.8531
493.388445 79.678 18.9977
496.963741 79.697 19.1454
500.564945 79.716 19.2933
504.192245 79.736 19.4397
507.845830 79.754 19.5845
511.525890 79.770 19.7279
515.232618 79.784 19.8706
518.966206 79.794 20.0123
522.726849 79.802 20.1520
526.514743 79.809 20.2880
530.330086 79.815 20.4205
534.173076 79.822 20.5512
538.043915 79.831 20.6821
541.942803 79.841 20.8141
545.869944 79.854 20.9468
549.825542 79.867 21.0794
553.809805 79.880 21.2113
557.822939 79.893 21.3421
561.865154 79.905 21.4718
565.936660 79.916 21.6016
570.037671 79.926 21.7321
574.168399 79.936 21.8632
578.329060 79.946 21.9956
582.519870 79.956 22.1315
586.741049 79.967 22.2726
590.992817 79.978 22.4191
595.275394 79.990 22.5693
599.589005 80.002 22.7220
603.933874 80.014 22.8766
608.310228 80.024 23.0317
612.718295 80.034 23.1843
617.158304 80.042 23.3317
621.630488 80.048 23.4729
626.135079 80.054 23.6096
630.672311 80.060 23.7454
635.242423 80.067 23.8846
639.845651 80.076 24.0302
644.482237 80.087 24.1801
649.152421 80.100 24.3295
653.856447 80.112 24.4750
658.594560 80.124 24.6156
663.367008 80.134 24.7513
668.174039 80.142 24.8805
673.015903 80.149 25.0004
677.892854 80.156 25.1100
682.805145 80.162 25.2128
687.753032 80.168 25.3167
692.736774 80.173 25.4296
697.756631 80.178 25.5553
702.812863 80.184 25.6926
707.905735 80.189 25.8387
713.035511 80.197 25.9929
718.202461 80.206 26.1574
723.406852 80.217 26.3357
728.648956 80.230 26.5291
733.929047 80.243 26.7344
739.247399 80.255 26.9442
744.604290 80.265 27.1501
750.000000 80.274 27.3463
755.434809 80.282 27.5305
760.909001 80.290 27.7049
766.422861 80.299 27.8742
771.976677 80.309 28.0442
777.570739 80.319 28.2205
783.205337 80.329 28.4077
788.880766 80.340 28.6089
794.597321 80.352 28.8249
800.355301 80.366 29.0541
806.155005 80.382 29.2914
811.996736 80.398 29.5289
817.880799 80.414 29.7589
823.807501 80.431 29.9770
829.777150 80.447 30.1826
835.790057 80.463 30.3782
841.846536 80.480 30.5666
847.946903 80.497 30.7502
854.091476 80.515 30.9310
860.280575 80.534 31.1116
866.514523 80.554 31.2951
872.793644 80.574 31.4841
879.118267 80.595 31.6814
885.488720 80.617 31.8892
891.905336 80.641 32.1088
898.368450 80.667 32.3402
904.878398 80.694 32.5803
911.435520 80.723 32.8243
918.040157 80.751 33.0668
924.692655 80.780 33.3032
931.393359 80.808 33.5305
938.142619 80.836 33.7488
944.940787 80.865 33.9604
951.788218 80.894 34.1675
958.685268 80.925 34.3712
965.632296 80.958 34.5725
972.629666 80.993 34.7726
979.677741 81.030 34.9721
986.776890 81.069 35.1704
993.927482 81.110 35.3670
1001.129891 81.151 35.5600
1008.384491 81.191 35.7455
1015.691660 81.229 35.9173
1023.051781 81.266 36.0710
1030.465236 81.300 36.2058
1037.932411 81.332 36.3245
1045.453698 81.365 36.4312
1053.029486 81.400 36.5314
1060.660172 81.437 36.6311
1068.346153 81.477 36.7349
1076.087829 81.519 36.8440
1083.885605 81.561 36.9550
1091.739887 81.602 37.0620
1099.651084 81.641 37.1591
1107.619609 81.680 37.2427
1115.645878 81.716 37.3130
1123.730308 81.752 37.3723
1131.873321 81.789 37.4233
1140.075341 81.827 37.4691
1148.336797 81.867 37.5134
1156.658119 81.909 37.5589
1165.039741 81.953 37.6045
1173.482099 81.997 37.6457
1181.985634 82.041 37.6756
1190.550789 82.083 37.6867
1199.178011 82.122 37.6740
1207.867749 82.157 37.6360
1216.620457 82.189 37.5741
1225.436590 82.216 37.4923
1234.316609 82.240 37.3976
1243.260976 82.263 37.2995
1252.270157 82.286 37.2070
1261.344623 82.309 37.1257
1270.484846 82.332 37.0551
1279.691303 82.355 36.9909
1288.964474 82.376 36.9275
1298.304842 82.395 36.8590
1307.712894 82.411 36.7792
1317.189120 82.423 36.6822
1326.734016 82.430 36.5648
1336.348077 82.434 36.4280
1346.031806 82.435 36.2755
1355.785708 82.432 36.1128
1365.610290 82.427 35.9462
1375.506065 82.419 35.7820
1385.473549 82.409 35.6262
1395.513261 82.396 35.4862
1405.625726 82.380 35.3710
1415.811469 82.362 35.2896
1426.071023 82.343 35.2480
1436.404921 82.323 35.2478
1446.813703 82.303 35.2847
1457.297912 82.282 35.3527
1467.858093 82.260 35.4470
1478.494798 82.235 35.5633
1489.208581 82.206 35.6955
1500.000000 82.175 35.8354
1510.869618 82.141 35.9772
1521.818002 82.105 36.1224
1532.845723 82.066 36.2828
1543.953355 82.026 36.4767
1555.141477 81.985 36.7210
1566.410674 81.944 37.0246
1577.761531 81.905 37.3885
1589.194642 81.867 37.8087
1600.710601 81.831 38.2777
1612.310010 81.796 38.7873
1623.993473 81.760 39.3301
1635.761599 81.725 39.9027
1647.615002 81.690 40.5099
1659.554299 81.658 41.1649
1671.580114 81.630 41.8869
1683.693072 81.609 42.6938
1695.893807 81.599 43.5968
1708.182952 81.602 44.5967
1720.561150 81.621 45.6826
1733.029045 81.659 46.8323
1745.587288 81.718 48.0147
1758.236533 81.798 49.1947
1770.977440 81.901 50.3351
1783.810673 82.025 51.3994
1796.736900 82.168 52.3557
1809.756796 82.326 53.1837
1822.871040 82.495 53.8784
1836.080315 82.672 54.4475
1849.385310 82.853 54.9053
1862.786718 83.034 55.2668
1876.285239 83.213 55.5453
1889.881575 83.389 55.7489
1903.576436 83.561 55.8799
1917.370535 83.729 55.9360
1931.264593 83.893 55.9133
1945.259332 84.054 55.8088
1959.355483 84.214 55.6197
1973.553781 84.371 55.3448
1987.854965 84.526 54.9867
2002.259781 84.676 54.5525
2016.768981 84.820 54.0521
2031.383320 84.956 53.4979
2046.103561 85.084 52.9059
2060.930471 85.201 52.2951
2075.864823 85.308 51.6836
2090.907395 85.406 51.0863
2106.058972 85.496 50.5131
2121.320344 85.579 49.9659
2136.692305 85.658 49.4372
2152.175658 85.732 48.9135
2167.771210 85.802 48.3796
2183.479774 85.867 47.8233
2199.302169 85.925 47.2406
2215.239219 85.978 46.6361
2231.291755 86.025 46.0195
2247.460615 86.066 45.4030
2263.746641 86.103 44.7989
2280.150683 86.136 44.2185
2296.673595 86.168 43.6708
2313.316238 86.197 43.1584
2330.079481 86.225 42.6761
2346.964198 86.251 42.2117
2363.971268 86.273 41.7494
2381.101578 86.292 41.2733
2398.356022 86.306 40.7733
2415.735498 86.316 40.2473
2433.240913 86.324 39.6999
2450.873180 86.330 39.1396
2468.633217 86.334 38.5758
2486.521951 86.337 38.0164
2504.540314 86.338 37.4667
2522.689246 86.339 36.9308
2540.969692 86.339 36.4151
2559.382606 86.338 35.9280
2577.928947 86.339 35.4787
2596.609683 86.340 35.0742
2615.425787 86.342 34.7171
2634.378241 86.344 34.4024
2653.468031 86.346 34.1159
2672.696154 86.346 33.8370
2692.063613 86.344 33.5452
2711.571415 86.338 33.2260
2731.220579 86.329 32.8746
2751.012130 86.318 32.4963
2770.947098 86.306 32.1064
2791.026522 86.295 31.7278
2811.251451 86.286 31.3818
2831.622938 86.281 31.0795
2852.142045 86.279 30.8189
2872.809842 86.280 30.5865
2893.627406 86.283 30.3603
2914.595823 86.285 30.1136
2935.716186 86.285 29.8234
2956.989596 86.281 29.4755
2978.417161 86.272 29.0659
3000.000000 86.257 28.5983
3021.739237 86.239 28.0816
3043.636005 86.217 27.5272
3065.691446 86.192 26.9478
3087.906710 86.164 26.3563
3110.282955 86.133 25.7664
3132.821347 86.099 25.1935
3155.523062 86.062 24.6573
3178.389283 86.023 24.1799
3201.421202 85.983 23.7788
3224.620020 85.943 23.4609
3247.986946 85.904 23.2200
3271.523198 85.865 23.0383
3295.230004 85.826 22.8890
3319.108599 85.788 22.7421
3343.160228 85.750 22.5714
3367.386145 85.710 22.3619
3391.787613 85.668 22.1110
3416.365904 85.625 21.8289
3441.122300 85.580 21.5369
3466.058091 85.535 21.2612
3491.174576 85.491 21.0249
3516.473066 85.449 20.8401
3541.954880 85.407 20.7064
3567.621345 85.367 20.6099
3593.473800 85.326 20.5270
3619.513592 85.284 20.4305
3645.742080 85.240 20.2988
3672.160630 85.194 20.1198
3698.770620 85.144 19.8940
3725.573436 85.091 19.6368
3752.570477 85.036 19.3754
3779.763150 84.979 19.1417
3807.152872 84.922 18.9625
3834.741071 84.866 18.8511
3862.529185 84.810 18.8038
3890.518664 84.754 18.8027
3918.710966 84.697 18.8201
3947.107561 84.638 18.8268
3975.709929 84.575 18.7994
4004.519563 84.509 18.7261
4033.537962 84.440 18.6098
4062.766641 84.369 18.4698
4092.207123 84.297 18.3381
4121.860942 84.225 18.2499
4151.729646 84.155 18.2344
4181.814790 84.086 18.3059
4212.117944 84.019 18.4595
4242.640687 83.953 18.6717
4273.384610 83.887 18.9086
4304.351317 83.820 19.1361
4335.542421 83.751 19.3303
4366.959549 83.680 19.4821
4398.604338 83.609 19.6000
4430.478438 83.539 19.7092
4462.583511 83.470 19.8456
4494.921231 83.403 20.0460
4527.493283 83.340 20.3368
4560.301365 83.282 20.7262
4593.347189 83.228 21.2025
4626.632476 83.179 21.7372
4660.158962 83.133 22.2928
4693.928395 83.090 22.8318
4727.942535 83.050 23.3241
4762.203156 83.015 23.7540
4796.712043 82.983 24.1218
4831.470996 82.958 24.4404
4866.481826 82.940 24.7272
4901.746360 82.931 24.9984
4937.266434 82.931 25.2662
4973.043902 82.942 25.5402
5009.080628 82.964 25.8289
5045.378492 82.998 26.1444
5081.939384 83.045 26.5010
5118.765212 83.104 26.9099
5155.857894 83.178 27.3708
5193.219366 83.266 27.8654
5230.851574 83.367 28.3554
5268.756481 83.478 28.7879
5306.936062 83.600 29.1046
5345.392309 83.728 29.2545
5384.127225 83.860 29.2040
5423.142830 83.995 28.9423
5462.441159 84.129 28.4830
5502.024259 84.262 27.8606
5541.894195 84.391 27.1199
5582.053045 84.511 26.3024
5622.502902 84.621 25.4345
5663.245876 84.718 24.5217
5704.284090 84.798 23.5505
5745.619684 84.857 22.4954
5787.254813 84.892 21.3282
5829.191647 84.901 20.0294
5871.432373 84.881 18.5956
5913.979192 84.832 17.0438
5956.834323 84.756 15.4088
6000.000000 84.653 13.7358
6043.478473 84.525 12.0717
6087.272010 84.373 10.4604
6131.382892 84.199 8.9419
6175.813420 84.004 7.5551
6220.565910 83.790 6.3415
6265.642695 83.561 5.3469
6311.046124 83.322 4.6180
6356.778566 83.081 4.1877
6402.842404 82.844 4.0532
6449.240040 82.618 4.1588
6495.973891 82.404 4.4075
6543.046396 82.195 4.7057
6590.460007 81.980 5.0088
6638.217197 81.753 5.3248
6686.320456 81.514 5.6918
6734.772290 81.266 6.1604
6783.575226 81.016 6.7867
6832.731809 80.773 7.6298
6882.244600 80.543 8.7472
6932.116181 80.333 10.1873
6982.349153 80.150 11.9749
7032.946133 80.002 14.0964
7083.909760 79.897 16.4893
7135.242690 79.842 19.0428
7186.947600 79.840 21.6168
7239.027185 79.892 24.0869
7291.484160 79.995 26.3951
7344.321260 80.149 28.5545
7397.541239 80.358 30.6073
7451.146872 80.628 32.5800
7505.140954 80.965 34.4594
7559.526299 81.371 36.1839
7614.305743 81.840 37.6454
7669.482141 82.361 38.7040
7725.058371 82.919 39.2112
7781.037328 83.496 39.0364
7837.421932 84.068 38.0888
7894.215122 84.614 36.3349
7951.419859 85.110 33.8082
8009.039125 85.537 30.6088
8067.075924 85.877 26.8922
8125.533282 86.118 22.8511
8184.414245 86.250 18.6931
8243.721885 86.274 14.6161
8303.459292 86.195 10.7839
8363.629581 86.024 7.3098
8424.235888 85.775 4.2515
8485.281374 85.469 1.6173
8546.769221 85.125 -0.6235
8608.702634 84.763 -2.5248
8671.084842 84.399 -4.1461
8733.919097 84.049 -5.5398
8797.208675 83.725 -6.7493
8860.956876 83.434 -7.8128
8925.167022 83.180 -8.7670
8989.842461 82.963 -9.6442
9054.986566 82.782 -10.4690
9120.602731 82.635 -11.2556
9186.694378 82.518 -12.0048
9253.264952 82.430 -12.7039
9320.317925 82.366 -13.3384
9387.856790 82.324 -13.9120
9455.885071 82.300 -14.4648
9524.406312 82.289 -15.0745
9593.424086 82.285 -15.8405
9662.941992 82.284 -16.8610
9732.963653 82.280 -18.2155
9803.492719 82.265 -19.9470
9874.532869 82.234 -22.0499
9946.087805 82.180 -24.4702
10018.161257 82.099 -27.1194
10090.756983 81.982 -29.8931
10163.878768 81.825 -32.6890
10237.530423 81.623 -35.4283
10311.715789 81.372 -38.0688
10386.438732 81.069 -40.6044
10461.703149 80.714 -43.0525
10537.512962 80.305 -45.4401
10613.872125 79.845 -47.7892
10690.784618 79.336 -50.0995
10768.254450 78.781 -52.3359
10846.285661 78.186 -54.4291
10924.882318 77.558 -56.2872
11004.048518 76.902 -57.8116
11083.788390 76.225 -58.9159
11164.106090 75.535 -59.5484
11245.005805 74.837 -59.7081
11326.491752 74.135 -59.4435
11408.568180 73.434 -58.8384
11491.239368 72.736 -57.9947
11574.509626 72.043 -57.0123
11658.383294 71.357 -55.9655
11742.864745 70.679 -54.8862
11827.958384 70.013 -53.7667
11913.668646 69.359 -52.5766
12000.000000 68.719 -51.2780
12086.956947 68.095 -49.8331
12174.544019 67.490 -48.2050
12262.765784 66.902 -46.3542
12351.626840 66.333 -44.2336
12441.131819 65.782 -41.7834
12531.285389 65.251 -38.9351
12622.092249 64.742 -35.6281
12713.557132 64.254 -31.8342
12805.684808 63.791 -27.5707
12898.480079 63.353 -22.8936
12991.947783 62.943 -17.8779
13086.092792 62.569 -12.5911
13180.920015 62.238 -7.0637
13276.434395 61.968 -1.2684
13372.640911 61.780 4.8824
13469.544580 61.702 11.5121
13567.150452 61.768 18.7303
13665.463617 62.010 26.5604
13764.489200 62.456 34.8487
13864.232362 63.114 43.2134
13964.698305 63.975 51.0999
14065.892266 65.007 57.9343
14167.819519 66.166 63.2768
14270.485380 67.403 66.8911
14373.895200 68.670 68.7332
14478.054370 69.925 68.9015
14582.968320 71.128 67.5821
14688.642520 72.246 65.0058
14795.082478 73.249 61.4240
14902.293745 74.115 57.0936
15010.281908 74.824 52.2619
15119.052599 75.370 47.1510
15228.611486 75.755 41.9488
15338.964283 75.996 36.7980
15450.116741 76.121 31.7827
15562.074656 76.163 26.9249
15674.843864 76.159 22.2023
15788.430244 76.142 17.5771
15902.839718 76.139 13.0135
16018.078250 76.163 8.4810
16134.151848 76.219 3.9486
16251.066563 76.298 -0.6213
16368.828491 76.378 -5.2863
16487.443769 76.433 -10.1270
16606.918584 76.430 -15.2307
16727.259161 76.337 -20.6609
16848.471777 76.126 -26.4301
16970.562748 75.775 -32.4841
17093.538442 75.275 -38.6981
17217.405268 74.629 -44.8887
17342.169684 73.851 -50.8472
17467.838194 72.962 -56.3821
17594.417350 71.987 -61.3486
17721.913751 70.951 -65.6578
17850.334044 69.883 -69.2711
17979.684923 68.806 -72.1869
18109.973131 67.744 -74.4249
18241.205462 66.715 -76.0111
18373.388756 65.735 -76.9697
18506.529905 64.812 -77.3329
18640.635849 63.951 -77.1722
18775.713581 63.149 -76.6239
18911.770141 62.399 -75.8821
19048.812624 61.690 -75.1698
19186.848172 61.011 -74.7028
19325.883983 60.354 -74.6477
19465.927305 59.715 -75.0760
19606.985439 59.108 -75.9307
19749.065738 58.565 -77.0221
19892.175609 58.144 -78.0526
20036.322514 57.910 -78.6868
