* Measurement data measured by REW V5.31.3
* Source: Headset (CX31993 HIFI AUDIO), MICROPHONE (Master Volume), R, volume: 0.250
* Format: 256k Log Swept Sine, 1 sweep at -12.0 dBFS with no timing reference
* Dated: 12 31, 24 12:56:18 PM
* REW Settings:
*  C-weighting compensation: Off
*  Target level: 75.0 dB
* Note: ; 
* Measurement: Sony LB Fit Treble Boost L
* Smoothing: 1/12 octave
* Frequency Step: 96 ppo
* Start Frequency: 0.36621094 Hz
*
* Freq(Hz) SPL(dB) Phase(degrees)
0.366211 38.571 -40.0980
0.368865 38.573 -40.1694
0.371538 38.577 -40.2761
0.374230 38.581 -40.4093
0.376942 38.586 -40.5617
0.379673 38.592 -40.7279
0.382424 38.597 -40.9042
0.385196 38.603 -41.0886
0.387987 38.609 -41.2797
0.390798 38.615 -41.4770
0.393630 38.621 -41.6799
0.396483 38.627 -41.8885
0.399356 38.634 -42.1027
0.402250 38.640 -42.3225
0.405165 38.646 -42.5479
0.408101 38.652 -42.7790
0.411058 38.659 -43.0159
0.414037 38.665 -43.2586
0.417037 38.671 -43.5072
0.420059 38.678 -43.7618
0.423103 38.684 -44.0225
0.426169 38.691 -44.2892
0.429257 38.698 -44.5622
0.432368 38.704 -44.8413
0.435501 38.711 -45.1268
0.438656 38.718 -45.4187
0.441835 38.725 -45.7171
0.445037 38.731 -46.0219
0.448262 38.738 -46.3334
0.451510 38.745 -46.6515
0.454782 38.752 -46.9763
0.458077 38.759 -47.3079
0.461397 38.766 -47.6463
0.464740 38.774 -47.9916
0.468108 38.781 -48.3439
0.471500 38.788 -48.7032
0.474917 38.795 -49.0695
0.478358 38.803 -49.4429
0.481825 38.810 -49.8235
0.485316 38.818 -50.2113
0.488833 38.825 -50.6063
0.492375 38.833 -51.0086
0.495943 38.840 -51.4183
0.499537 38.848 -51.8353
0.503157 38.856 -52.2597
0.506803 38.864 -52.6915
0.510475 38.872 -53.1307
0.514175 38.879 -53.5775
0.517900 38.887 -54.0317
0.521653 38.895 -54.4934
0.525434 38.904 -54.9627
0.529241 38.912 -55.4395
0.533076 38.920 -55.9238
0.536939 38.928 -56.4156
0.540830 38.937 -56.9150
0.544749 38.945 -57.4218
0.548696 38.953 -57.9362
0.552673 38.962 -58.4581
0.556677 38.971 -58.9874
0.560711 38.979 -59.5242
0.564774 38.988 -60.0683
0.568867 38.997 -60.6198
0.572989 39.005 -61.1786
0.577141 39.014 -61.7447
0.581324 39.023 -62.3181
0.585536 39.032 -62.8986
0.589779 39.041 -63.4862
0.594053 39.051 -64.0808
0.598358 39.060 -64.6824
0.602694 39.069 -65.2908
0.607061 39.078 -65.9061
0.611460 39.088 -66.5281
0.615891 39.097 -67.1567
0.620354 39.107 -67.7919
0.624849 39.117 -68.4335
0.629377 39.126 -69.0814
0.633938 39.136 -69.7356
0.638532 39.146 -70.3959
0.643159 39.156 -71.0622
0.647819 39.166 -71.7344
0.652514 39.176 -72.4124
0.657242 39.186 -73.0960
0.662005 39.196 -73.7852
0.666802 39.206 -74.4798
0.671634 39.217 -75.1797
0.676501 39.227 -75.8847
0.681403 39.238 -76.5948
0.686341 39.248 -77.3099
0.691314 39.259 -78.0297
0.696324 39.270 -78.7542
0.701370 39.282 -79.4834
0.706452 39.294 -80.2170
0.711571 39.306 -80.9550
0.716728 39.321 -81.6975
0.721921 39.338 -82.4444
0.727153 39.358 -83.1958
0.732422 39.382 -83.9517
0.737729 39.412 -84.7124
0.743075 39.446 -85.4778
0.748460 39.485 -86.2480
0.753883 39.527 -87.0228
0.759346 39.572 -87.8019
0.764849 39.620 -88.5851
0.770391 39.669 -89.3720
0.775974 39.721 -90.1624
0.781597 39.774 -90.9557
0.787261 39.829 -91.7516
0.792966 39.886 -92.5498
0.798712 39.945 -93.3499
0.804500 40.005 -94.1514
0.810329 40.067 -94.9541
0.816201 40.131 -95.7574
0.822116 40.197 -96.5611
0.828073 40.264 -97.3648
0.834074 40.333 -98.1681
0.840118 40.403 -98.9707
0.846206 40.475 -99.7723
0.852338 40.549 -100.5725
0.858514 40.625 -101.3710
0.864735 40.702 -102.1675
0.871001 40.780 -102.9617
0.877313 40.860 -103.7534
0.883670 40.942 -104.5423
0.890074 41.025 -105.3281
0.896524 41.110 -106.1106
0.903020 41.196 -106.8896
0.909564 41.283 -107.6649
0.916155 41.372 -108.4363
0.922794 41.462 -109.2037
0.929481 41.553 -109.9668
0.936216 41.646 -110.7255
0.943000 41.740 -111.4798
0.949834 41.835 -112.2295
0.956717 41.931 -112.9746
0.963649 42.028 -113.7148
0.970632 42.126 -114.4503
0.977666 42.225 -115.1809
0.984750 42.325 -115.9066
0.991886 42.426 -116.6274
0.999074 42.527 -117.3432
1.006314 42.630 -118.0542
1.013606 42.732 -118.7602
1.020951 42.836 -119.4614
1.028349 42.940 -120.1578
1.035801 43.044 -120.8494
1.043307 43.148 -121.5363
1.050867 43.253 -122.2185
1.058482 43.358 -122.8961
1.066152 43.463 -123.5692
1.073878 43.568 -124.2377
1.081660 43.673 -124.9016
1.089498 43.779 -125.5608
1.097393 43.885 -126.2152
1.105345 43.991 -126.8643
1.113355 44.099 -127.5081
1.121423 44.208 -128.1463
1.129549 44.317 -128.7787
1.137734 44.429 -129.4052
1.145979 44.541 -130.0260
1.154283 44.655 -130.6410
1.162647 44.771 -131.2503
1.171072 44.887 -131.8540
1.179558 45.006 -132.4523
1.188106 45.125 -133.0452
1.196715 45.246 -133.6328
1.205387 45.368 -134.2152
1.214122 45.492 -134.7927
1.222920 45.616 -135.3652
1.231782 45.742 -135.9329
1.240708 45.869 -136.4959
1.249699 45.997 -137.0543
1.258754 46.126 -137.6083
1.267876 46.256 -138.1579
1.277063 46.387 -138.7032
1.286318 46.519 -139.2444
1.295639 46.652 -139.7815
1.305027 46.786 -140.3146
1.314484 46.920 -140.8439
1.324009 47.055 -141.3695
1.333604 47.190 -141.8914
1.343268 47.326 -142.4097
1.353002 47.463 -142.9246
1.362806 47.600 -143.4361
1.372681 47.737 -143.9442
1.382628 47.874 -144.4491
1.392647 48.012 -144.9509
1.402739 48.149 -145.4495
1.412904 48.287 -145.9449
1.423142 48.425 -146.4372
1.433455 48.562 -146.9261
1.443843 48.699 -147.4114
1.454305 48.836 -147.8926
1.464844 48.973 -148.3692
1.475459 49.110 -148.8405
1.486150 49.247 -149.3060
1.496920 49.385 -149.7652
1.507767 49.522 -150.2182
1.518693 49.660 -150.6649
1.529698 49.798 -151.1058
1.540783 49.937 -151.5411
1.551948 50.075 -151.9714
1.563194 50.214 -152.3970
1.574521 50.354 -152.8186
1.585931 50.494 -153.2365
1.597423 50.634 -153.6513
1.608999 50.774 -154.0634
1.620658 50.915 -154.4734
1.632402 51.056 -154.8817
1.644232 51.197 -155.2888
1.656146 51.339 -155.6951
1.668147 51.480 -156.1011
1.680235 51.622 -156.5072
1.692411 51.765 -156.9138
1.704675 51.907 -157.3214
1.717028 52.050 -157.7304
1.729470 52.193 -158.1411
1.742003 52.337 -158.5538
1.754626 52.480 -158.9690
1.767341 52.624 -159.3869
1.780147 52.768 -159.8075
1.793047 52.912 -160.2310
1.806040 53.056 -160.6571
1.819128 53.201 -161.0852
1.832310 53.345 -161.5147
1.845587 53.490 -161.9446
1.858961 53.635 -162.3740
1.872432 53.780 -162.8022
1.886001 53.924 -163.2289
1.899667 54.069 -163.6538
1.913433 54.214 -164.0771
1.927299 54.359 -164.4988
1.941265 54.504 -164.9193
1.955332 54.649 -165.3389
1.969501 54.794 -165.7578
1.983773 54.940 -166.1765
1.998148 55.085 -166.5953
2.012627 55.230 -167.0145
2.027212 55.375 -167.4345
2.041902 55.520 -167.8557
2.056698 55.665 -168.2785
2.071602 55.811 -168.7033
2.086614 55.956 -169.1304
2.101734 56.101 -169.5601
2.116964 56.247 -169.9928
2.132304 56.392 -170.4287
2.147756 56.537 -170.8680
2.163320 56.683 -171.3107
2.178996 56.828 -171.7566
2.194786 56.973 -172.2054
2.210690 57.118 -172.6564
2.226710 57.263 -173.1091
2.242845 57.408 -173.5629
2.259098 57.553 -174.0173
2.275468 57.698 -174.4723
2.291957 57.842 -174.9277
2.308566 57.986 -175.3836
2.325295 58.130 -175.8401
2.342145 58.274 -176.2974
2.359117 58.417 -176.7556
2.376212 58.560 -177.2150
2.393431 58.703 -177.6759
2.410775 58.846 -178.1385
2.428244 58.988 -178.6032
2.445840 59.130 -179.0701
2.463564 59.272 -179.5397
2.481416 59.414 179.9878
2.499397 59.555 179.5121
2.517509 59.696 179.0331
2.535752 59.837 178.5505
2.554127 59.977 178.0642
2.572635 60.117 177.5745
2.591277 60.257 177.0815
2.610055 60.396 176.5854
2.628968 60.535 176.0868
2.648019 60.673 175.5858
2.667208 60.811 175.0827
2.686535 60.948 174.5778
2.706003 61.084 174.0712
2.725612 61.220 173.5630
2.745363 61.355 173.0535
2.765257 61.490 172.5427
2.785295 61.625 172.0306
2.805478 61.758 171.5171
2.825808 61.892 171.0023
2.846285 62.024 170.4859
2.866910 62.156 169.9679
2.887685 62.288 169.4479
2.908611 62.419 168.9256
2.929688 62.549 168.4007
2.950917 62.679 167.8728
2.972301 62.808 167.3418
2.993839 62.936 166.8077
3.015534 63.063 166.2707
3.037386 63.189 165.7312
3.059396 63.315 165.1898
3.081565 63.439 164.6469
3.103896 63.563 164.1031
3.126388 63.686 163.5588
3.149043 63.809 163.0147
3.171862 63.930 162.4710
3.194847 64.051 161.9280
3.217998 64.171 161.3861
3.241317 64.290 160.8451
3.264805 64.409 160.3047
3.288463 64.527 159.7647
3.312293 64.644 159.2244
3.336295 64.760 158.6831
3.360471 64.875 158.1407
3.384822 64.988 157.5970
3.409350 65.101 157.0524
3.434056 65.213 156.5074
3.458940 65.324 155.9626
3.484005 65.434 155.4187
3.509252 65.544 154.8764
3.534681 65.652 154.3364
3.560295 65.760 153.7991
3.586094 65.867 153.2651
3.612081 65.973 152.7345
3.638255 66.079 152.2072
3.664620 66.183 151.6827
3.691175 66.287 151.1606
3.717923 66.390 150.6402
3.744864 66.492 150.1213
3.772001 66.593 149.6038
3.799335 66.693 149.0880
3.826866 66.793 148.5744
3.854597 66.891 148.0636
3.882529 66.989 147.5563
3.910664 67.086 147.0530
3.939002 67.183 146.5544
3.967546 67.280 146.0608
3.996296 67.376 145.5724
4.025255 67.471 145.0893
4.054423 67.566 144.6110
4.083804 67.660 144.1373
4.113396 67.754 143.6676
4.143204 67.847 143.2019
4.173227 67.940 142.7400
4.203468 68.032 142.2819
4.233928 68.124 141.8279
4.264609 68.216 141.3780
4.295512 68.308 140.9324
4.326639 68.399 140.4915
4.357992 68.491 140.0554
4.389572 68.582 139.6241
4.421380 68.674 139.1976
4.453419 68.766 138.7758
4.485691 68.857 138.3585
4.518196 68.949 137.9452
4.550936 69.040 137.5355
4.583914 69.132 137.1290
4.617131 69.224 136.7252
4.650589 69.316 136.3239
4.684289 69.408 135.9247
4.718233 69.500 135.5276
4.752424 69.593 135.1326
4.786862 69.687 134.7396
4.821549 69.780 134.3486
4.856488 69.874 133.9596
4.891680 69.969 133.5721
4.927127 70.063 133.1855
4.962831 70.158 132.7992
4.998794 70.253 132.4125
5.035017 70.349 132.0247
5.071503 70.445 131.6353
5.108253 70.541 131.2441
5.145270 70.637 130.8510
5.182555 70.734 130.4560
5.220110 70.831 130.0591
5.257937 70.928 129.6602
5.296038 71.025 129.2589
5.334415 71.123 128.8549
5.373071 71.220 128.4476
5.412006 71.317 128.0367
5.451224 71.414 127.6216
5.490725 71.511 127.2021
5.530514 71.608 126.7781
5.570590 71.704 126.3498
5.610957 71.801 125.9171
5.651616 71.897 125.4804
5.692570 71.992 125.0397
5.733821 72.087 124.5952
5.775370 72.181 124.1468
5.817221 72.275 123.6945
5.859375 72.368 123.2380
5.901834 72.460 122.7775
5.944602 72.551 122.3130
5.987679 72.641 121.8447
6.031068 72.731 121.3732
6.074771 72.819 120.8991
6.118792 72.907 120.4229
6.163131 72.993 119.9450
6.207792 73.078 119.4657
6.252776 73.163 118.9850
6.298086 73.245 118.5030
6.343725 73.327 118.0199
6.389694 73.408 117.5362
6.435996 73.487 117.0527
6.482634 73.565 116.5701
6.529610 73.642 116.0891
6.576926 73.718 115.6101
6.624585 73.792 115.1334
6.672590 73.865 114.6589
6.720942 73.938 114.1870
6.769645 74.009 113.7180
6.818700 74.079 113.2526
6.868111 74.147 112.7913
6.917881 74.215 112.3347
6.968010 74.283 111.8831
7.018504 74.349 111.4366
7.069362 74.414 110.9953
7.120590 74.479 110.5593
7.172189 74.543 110.1289
7.224161 74.606 109.7043
7.276511 74.669 109.2859
7.329239 74.731 108.8737
7.382350 74.793 108.4679
7.435845 74.854 108.0684
7.489729 74.916 107.6750
7.544002 74.977 107.2878
7.598669 75.038 106.9065
7.653732 75.099 106.5312
7.709194 75.160 106.1618
7.765058 75.221 105.7982
7.821327 75.283 105.4400
7.878004 75.344 105.0870
7.935091 75.406 104.7388
7.992592 75.468 104.3950
8.050510 75.531 104.0552
8.108847 75.594 103.7192
8.167607 75.658 103.3867
8.226793 75.723 103.0569
8.286408 75.788 102.7296
8.346454 75.854 102.4037
8.406936 75.920 102.0790
8.467856 75.987 101.7547
8.529218 76.055 101.4305
8.591024 76.124 101.1056
8.653278 76.194 100.7792
8.715983 76.264 100.4504
8.779143 76.335 100.1186
8.842760 76.407 99.7831
8.906839 76.480 99.4432
8.971381 76.553 99.0983
9.036392 76.627 98.7477
9.101873 76.701 98.3904
9.167829 76.775 98.0258
9.234263 76.850 97.6536
9.301178 76.925 97.2732
9.368578 77.000 96.8844
9.436467 77.074 96.4868
9.504847 77.149 96.0803
9.573723 77.222 95.6645
9.643099 77.296 95.2398
9.712976 77.368 94.8065
9.783361 77.439 94.3649
9.854255 77.509 93.9158
9.925663 77.577 93.4597
9.997588 77.644 92.9974
10.070035 77.710 92.5299
10.143007 77.773 92.0586
10.216507 77.835 91.5848
10.290540 77.895 91.1098
10.365109 77.953 90.6349
10.440219 78.009 90.1616
10.515873 78.063 89.6914
10.592076 78.115 89.2261
10.668830 78.165 88.7671
10.746141 78.214 88.3154
10.824012 78.262 87.8723
10.902447 78.308 87.4389
10.981451 78.353 87.0160
11.061027 78.398 86.6042
11.141180 78.442 86.2037
11.221913 78.486 85.8144
11.303232 78.530 85.4360
11.385140 78.575 85.0680
11.467641 78.620 84.7094
11.550741 78.666 84.3592
11.634442 78.713 84.0158
11.718750 78.761 83.6775
11.803669 78.810 83.3429
11.889203 78.861 83.0103
11.975357 78.912 82.6781
12.062136 78.965 82.3445
12.149543 79.018 82.0083
12.237583 79.072 81.6684
12.326262 79.126 81.3242
12.415583 79.180 80.9751
12.505552 79.234 80.6210
12.596172 79.288 80.2621
12.687449 79.341 79.8993
12.779387 79.393 79.5334
12.871992 79.445 79.1654
12.965268 79.496 78.7966
13.059220 79.545 78.4285
13.153852 79.594 78.0622
13.249170 79.642 77.6989
13.345179 79.689 77.3396
13.441884 79.736 76.9847
13.539289 79.783 76.6344
13.637401 79.829 76.2886
13.736223 79.876 75.9464
13.835761 79.924 75.6066
13.936021 79.972 75.2678
14.037007 80.021 74.9283
14.138725 80.070 74.5861
14.241180 80.120 74.2392
14.344377 80.171 73.8860
14.448323 80.221 73.5251
14.553021 80.271 73.1556
14.658478 80.321 72.7772
14.764700 80.369 72.3901
14.871691 80.416 71.9957
14.979457 80.461 71.5956
15.088005 80.504 71.1921
15.197339 80.545 70.7881
15.307465 80.584 70.3866
15.418389 80.621 69.9906
15.530117 80.656 69.6028
15.642655 80.690 69.2253
15.756008 80.723 68.8593
15.870182 80.757 68.5051
15.985184 80.791 68.1616
16.101019 80.827 67.8264
16.217694 80.864 67.4960
16.335214 80.904 67.1659
16.453586 80.946 66.8307
16.572815 80.991 66.4849
16.692909 81.037 66.1234
16.813872 81.084 65.7418
16.935713 81.132 65.3370
17.058436 81.178 64.9077
17.182048 81.223 64.4547
17.306556 81.264 63.9809
17.431967 81.301 63.4914
17.558286 81.333 62.9932
17.685521 81.359 62.4948
17.813677 81.380 62.0052
17.942762 81.396 61.5341
18.072783 81.407 61.0903
18.203746 81.416 60.6809
18.335658 81.424 60.3112
18.468526 81.432 59.9830
18.602356 81.442 59.6951
18.737156 81.456 59.4428
18.872934 81.475 59.2183
19.009695 81.501 59.0112
19.147447 81.534 58.8098
19.286197 81.573 58.6027
19.425953 81.618 58.3793
19.566721 81.668 58.1319
19.708510 81.720 57.8560
19.851326 81.772 57.5508
19.995177 81.824 57.2192
20.140070 81.874 56.8674
20.286013 81.921 56.5033
20.433014 81.966 56.1358
20.581080 82.007 55.7732
20.730219 82.048 55.4218
20.880439 82.087 55.0847
21.031747 82.128 54.7617
21.184152 82.172 54.4487
21.337661 82.218 54.1384
21.492282 82.267 53.8220
21.648024 82.319 53.4902
21.804895 82.373 53.1354
21.962902 82.426 52.7533
22.122054 82.476 52.3440
22.282360 82.522 51.9125
22.443827 82.563 51.4684
22.606464 82.596 51.0248
22.770280 82.623 50.5965
22.935283 82.643 50.1976
23.101481 82.660 49.8394
23.268884 82.676 49.5279
23.437500 82.693 49.2625
23.607338 82.715 49.0349
23.778406 82.744 48.8303
23.950714 82.780 48.6292
24.124271 82.823 48.4107
24.299086 82.871 48.1559
24.475167 82.923 47.8511
24.652524 82.973 47.4907
24.831166 83.020 47.0773
25.011103 83.058 46.6219
25.192344 83.088 46.1416
25.374898 83.108 45.6567
25.558775 83.118 45.1877
25.743984 83.121 44.7516
25.930536 83.120 44.3590
26.118439 83.118 44.0129
26.307704 83.117 43.7082
26.498341 83.121 43.4326
26.690359 83.130 43.1700
26.883768 83.144 42.9039
27.078579 83.162 42.6205
27.274801 83.182 42.3117
27.472446 83.201 41.9764
27.671522 83.218 41.6198
27.872042 83.232 41.2514
28.074014 83.243 40.8827
28.277450 83.250 40.5239
28.482360 83.257 40.1819
28.688755 83.264 39.8585
28.896645 83.274 39.5506
29.106042 83.286 39.2512
29.316957 83.302 38.9519
29.529400 83.321 38.6450
29.743382 83.342 38.3254
29.958915 83.363 37.9922
30.176009 83.384 37.6479
30.394677 83.403 37.2978
30.614929 83.422 36.9482
30.836778 83.439 36.6046
31.060234 83.456 36.2703
31.285309 83.473 35.9459
31.512015 83.492 35.6292
31.740364 83.512 35.3165
31.970368 83.532 35.0037
32.202039 83.554 34.6874
32.435388 83.575 34.3660
32.670428 83.596 34.0400
32.907171 83.615 33.7117
33.145630 83.632 33.3845
33.385817 83.647 33.0621
33.627745 83.661 32.7477
33.871425 83.673 32.4430
34.116871 83.685 32.1485
34.364096 83.696 31.8631
34.613113 83.708 31.5844
34.863934 83.719 31.3098
35.116572 83.731 31.0363
35.371041 83.742 30.7620
35.627354 83.754 30.4852
35.885525 83.765 30.2056
36.145566 83.775 29.9231
36.407492 83.785 29.6377
36.671316 83.795 29.3492
36.937051 83.805 29.0568
37.204712 83.814 28.7596
37.474313 83.823 28.4565
37.745867 83.831 28.1476
38.019389 83.839 27.8341
38.294893 83.845 27.5182
38.572394 83.851 27.2030
38.851905 83.855 26.8915
39.133442 83.860 26.5853
39.417019 83.865 26.2844
39.702651 83.871 25.9871
39.990353 83.879 25.6902
40.280140 83.887 25.3910
40.572026 83.895 25.0876
40.866028 83.903 24.7805
41.162160 83.911 24.4719
41.460438 83.918 24.1654
41.760877 83.924 23.8647
42.063494 83.930 23.5721
42.368303 83.936 23.2874
42.675322 83.943 23.0083
42.984565 83.951 22.7305
43.296048 83.960 22.4497
43.609789 83.969 22.1629
43.925804 83.976 21.8698
44.244108 83.982 21.5729
44.564719 83.987 21.2772
44.887654 83.989 20.9882
45.212928 83.990 20.7106
45.540560 83.990 20.4464
45.870565 83.991 20.1945
46.202962 83.994 19.9506
46.537768 83.998 19.7085
46.875000 84.004 19.4618
47.214676 84.010 19.2053
47.556813 84.017 18.9366
47.901429 84.023 18.6561
48.248542 84.028 18.3668
48.598171 84.031 18.0735
48.950334 84.032 17.7812
49.305048 84.031 17.4946
49.662333 84.030 17.2162
50.022206 84.028 16.9468
50.384688 84.026 16.6851
50.749796 84.025 16.4282
51.117550 84.024 16.1725
51.487969 84.025 15.9148
51.861072 84.025 15.6532
52.236879 84.025 15.3873
52.615409 84.025 15.1180
52.996681 84.024 14.8463
53.380717 84.023 14.5727
53.767536 84.021 14.2970
54.157158 84.019 14.0194
54.549603 84.015 13.7416
54.944892 84.011 13.4667
55.343045 84.006 13.1980
55.744084 84.001 12.9373
56.148028 83.997 12.6833
56.554900 83.994 12.4324
56.964720 83.992 12.1807
57.377510 83.989 11.9269
57.793291 83.986 11.6720
58.212085 83.983 11.4188
58.633914 83.978 11.1697
59.058799 83.973 10.9254
59.486764 83.968 10.6855
59.917829 83.961 10.4495
60.352019 83.954 10.2174
60.789354 83.946 9.9891
61.229859 83.937 9.7637
61.673556 83.927 9.5391
62.120468 83.918 9.3123
62.570618 83.908 9.0797
63.024031 83.897 8.8384
63.480729 83.885 8.5864
63.940736 83.873 8.3240
64.404077 83.859 8.0525
64.870776 83.844 7.7732
65.340856 83.829 7.4869
65.814343 83.812 7.1957
66.291261 83.794 6.9056
66.771635 83.776 6.6261
67.255489 83.758 6.3655
67.742850 83.744 6.1241
68.233743 83.733 5.8939
68.728193 83.726 5.6627
69.226226 83.723 5.4227
69.727867 83.720 5.1736
70.233144 83.717 4.9202
70.742083 83.712 4.6685
71.254709 83.705 4.4243
71.771050 83.697 4.1925
72.291132 83.686 3.9764
72.814984 83.674 3.7754
73.342631 83.661 3.5851
73.874102 83.648 3.4006
74.409424 83.633 3.2185
74.948626 83.616 3.0371
75.491734 83.599 2.8554
76.038779 83.581 2.6715
76.589787 83.563 2.4834
77.144788 83.545 2.2892
77.703811 83.527 2.0880
78.266885 83.508 1.8813
78.834039 83.490 1.6719
79.405303 83.472 1.4628
79.980706 83.455 1.2558
80.560280 83.439 1.0503
81.144053 83.424 0.8446
81.732056 83.409 0.6373
82.324320 83.393 0.4286
82.920876 83.376 0.2200
83.521755 83.357 0.0143
84.126988 83.336 -0.1860
84.736607 83.314 -0.3801
85.350643 83.290 -0.5703
85.969129 83.266 -0.7602
86.592097 83.241 -0.9531
87.219579 83.214 -1.1493
87.851608 83.187 -1.3468
88.488217 83.159 -1.5432
89.129439 83.131 -1.7366
89.775308 83.103 -1.9270
90.425856 83.076 -2.1155
91.081119 83.051 -2.3038
91.741131 83.026 -2.4941
92.405925 83.000 -2.6879
93.075536 82.974 -2.8846
93.750000 82.947 -3.0825
94.429351 82.917 -3.2787
95.113625 82.886 -3.4719
95.802858 82.853 -3.6620
96.497085 82.818 -3.8506
97.196342 82.781 -4.0389
97.900667 82.742 -4.2266
98.610096 82.701 -4.4111
99.324665 82.658 -4.5886
100.044413 82.612 -4.7552
100.769376 82.564 -4.9077
101.499592 82.515 -5.0437
102.235100 82.463 -5.1616
102.975938 82.410 -5.2598
103.722144 82.354 -5.3339
104.473757 82.296 -5.3775
105.230817 82.238 -5.3844
105.993363 82.181 -5.3513
106.761435 82.126 -5.2788
107.535072 82.078 -5.1709
108.314315 82.036 -5.0353
109.099206 82.002 -4.8833
109.889783 81.977 -4.7272
110.686090 81.960 -4.5779
111.488167 81.949 -4.4413
112.296056 81.942 -4.3191
113.109800 81.939 -4.2111
113.929440 81.936 -4.1196
114.755020 81.934 -4.0490
115.586582 81.931 -4.0021
116.424170 81.925 -3.9796
117.267827 81.917 -3.9808
118.117598 81.906 -4.0062
118.973527 81.892 -4.0591
119.835658 81.877 -4.1441
120.704037 81.859 -4.2596
121.578708 81.837 -4.3942
122.459718 81.814 -4.5316
123.347111 81.790 -4.6583
124.240935 81.767 -4.7679
125.141236 81.746 -4.8612
126.048061 81.726 -4.9425
126.961458 81.706 -5.0151
127.881473 81.685 -5.0807
128.808154 81.661 -5.1398
129.741551 81.633 -5.1925
130.681712 81.601 -5.2378
131.628686 81.565 -5.2725
132.582521 81.527 -5.2908
133.543269 81.488 -5.2885
134.510979 81.454 -5.2704
135.485701 81.424 -5.2538
136.467486 81.399 -5.2543
137.456386 81.376 -5.2729
138.452451 81.352 -5.2994
139.455735 81.328 -5.3247
140.466288 81.303 -5.3452
141.484165 81.277 -5.3610
142.509418 81.249 -5.3721
143.542100 81.222 -5.3780
144.582265 81.193 -5.3777
145.629968 81.164 -5.3699
146.685262 81.135 -5.3528
147.748204 81.105 -5.3254
148.818849 81.076 -5.2886
149.897251 81.046 -5.2449
150.983469 81.016 -5.1981
152.077557 80.986 -5.1509
153.179574 80.957 -5.1039
154.289576 80.929 -5.0548
155.407622 80.900 -5.0009
156.533770 80.872 -4.9403
157.668078 80.843 -4.8727
158.810606 80.813 -4.8002
159.961413 80.781 -4.7259
161.120559 80.748 -4.6520
162.288105 80.714 -4.5790
163.464112 80.679 -4.5059
164.648640 80.646 -4.4310
165.841752 80.613 -4.3523
167.043510 80.583 -4.2676
168.253976 80.556 -4.1755
169.473213 80.530 -4.0768
170.701286 80.505 -3.9742
171.938258 80.479 -3.8712
173.184194 80.453 -3.7701
174.439158 80.424 -3.6735
175.703216 80.393 -3.5828
176.976434 80.361 -3.4971
178.258878 80.330 -3.4117
179.550615 80.300 -3.3207
180.851713 80.273 -3.2179
182.162239 80.248 -3.1007
183.482262 80.225 -2.9702
184.811850 80.202 -2.8297
186.151073 80.178 -2.6827
187.500000 80.153 -2.5329
188.858702 80.127 -2.3841
190.227250 80.100 -2.2380
191.605715 80.074 -2.0936
192.994169 80.049 -1.9481
194.392685 80.025 -1.8004
195.801334 80.002 -1.6524
197.220191 79.981 -1.5084
198.649330 79.960 -1.3716
200.088825 79.939 -1.2411
201.538751 79.916 -1.1104
202.999184 79.891 -0.9703
204.470200 79.866 -0.8146
205.951875 79.839 -0.6437
207.444287 79.814 -0.4631
208.947514 79.790 -0.2787
210.461634 79.768 -0.0945
211.986726 79.747 0.0880
213.522869 79.728 0.2699
215.070144 79.710 0.4536
216.628631 79.693 0.6409
218.198411 79.676 0.8323
219.779567 79.660 1.0281
221.372180 79.643 1.2288
222.976334 79.625 1.4352
224.592112 79.606 1.6466
226.219600 79.586 1.8616
227.858880 79.566 2.0780
229.510039 79.548 2.2936
231.173164 79.531 2.5071
232.848340 79.516 2.7180
234.535655 79.502 2.9269
236.235197 79.491 3.1340
237.947054 79.479 3.3381
239.671317 79.467 3.5381
241.408074 79.454 3.7343
243.157416 79.439 3.9274
244.919435 79.423 4.1191
246.694223 79.407 4.3114
248.481871 79.393 4.5050
250.282473 79.379 4.7012
252.096123 79.367 4.9022
253.922915 79.356 5.1108
255.762945 79.346 5.3281
257.616309 79.338 5.5538
259.483103 79.331 5.7865
261.363424 79.324 6.0250
263.257372 79.317 6.2689
265.165043 79.308 6.5179
267.086538 79.298 6.7705
269.021957 79.288 7.0222
270.971401 79.279 7.2671
272.934972 79.270 7.5026
274.912771 79.262 7.7325
276.904902 79.254 7.9642
278.911469 79.247 8.2031
280.932577 79.241 8.4498
282.968330 79.235 8.6995
285.018835 79.230 8.9452
287.084199 79.225 9.1815
289.164530 79.220 9.4075
291.259935 79.215 9.6277
293.370525 79.211 9.8485
295.496408 79.206 10.0748
297.637697 79.203 10.3082
299.794503 79.200 10.5488
301.966937 79.199 10.7955
304.155114 79.198 11.0460
306.359147 79.198 11.2983
308.579152 79.198 11.5507
310.815244 79.198 11.8019
313.067539 79.198 12.0505
315.336156 79.199 12.2958
317.621211 79.200 12.5393
319.922826 79.201 12.7841
322.241118 79.203 13.0322
324.576210 79.204 13.2836
326.928223 79.204 13.5357
329.297280 79.203 13.7866
331.683504 79.202 14.0356
334.087019 79.201 14.2825
336.507952 79.203 14.5252
338.946427 79.208 14.7601
341.402572 79.216 14.9841
343.876516 79.226 15.1984
346.368387 79.236 15.4077
348.878315 79.245 15.6177
351.406431 79.252 15.8313
353.952867 79.258 16.0483
356.517756 79.265 16.2679
359.101230 79.273 16.4902
361.703426 79.282 16.7144
364.324478 79.291 16.9375
366.964523 79.299 17.1583
369.623699 79.305 17.3790
372.302145 79.311 17.6025
375.000000 79.316 17.8298
377.717405 79.322 18.0588
380.454501 79.330 18.2859
383.211431 79.340 18.5070
385.988339 79.353 18.7184
388.785369 79.366 18.9186
391.602668 79.378 19.1091
394.440383 79.388 19.2960
397.298660 79.396 19.4872
400.177650 79.400 19.6899
403.077502 79.402 19.9106
405.998368 79.404 20.1536
408.940400 79.405 20.4203
411.903750 79.408 20.7094
414.888575 79.413 21.0164
417.895028 79.419 21.3345
420.923268 79.428 21.6542
423.973452 79.441 21.9641
427.045738 79.458 22.2550
430.140287 79.477 22.5234
433.257261 79.497 22.7704
436.396822 79.516 22.9991
439.559133 79.534 23.2122
442.744360 79.552 23.4121
445.952668 79.569 23.6029
449.184225 79.586 23.7903
452.439199 79.604 23.9785
455.717760 79.623 24.1671
459.020079 79.643 24.3535
462.346327 79.663 24.5375
465.696680 79.683 24.7222
469.071310 79.703 24.9124
472.470394 79.723 25.1104
475.894109 79.741 25.3147
479.342634 79.758 25.5209
482.816148 79.774 25.7234
486.314833 79.788 25.9161
489.838871 79.802 26.0963
493.388445 79.816 26.2661
496.963741 79.831 26.4321
500.564945 79.846 26.6015
504.192245 79.863 26.7776
507.845830 79.880 26.9592
511.525890 79.896 27.1431
515.232618 79.912 27.3256
518.966206 79.927 27.5054
522.726849 79.942 27.6831
526.514743 79.957 27.8594
530.330086 79.970 28.0316
534.173076 79.983 28.1961
538.043915 79.995 28.3522
541.942803 80.007 28.5040
545.869944 80.019 28.6571
549.825542 80.032 28.8172
553.809805 80.046 28.9887
557.822939 80.061 29.1727
561.865154 80.077 29.3673
565.936660 80.094 29.5684
570.037671 80.110 29.7728
574.168399 80.126 29.9796
578.329060 80.142 30.1880
582.519870 80.158 30.3960
586.741049 80.172 30.6007
590.992817 80.185 30.8004
595.275394 80.197 30.9950
599.589005 80.209 31.1852
603.933874 80.220 31.3737
608.310228 80.231 31.5628
612.718295 80.243 31.7523
617.158304 80.256 31.9386
621.630488 80.270 32.1200
626.135079 80.284 32.3013
630.672311 80.296 32.4908
635.242423 80.306 32.6932
639.845651 80.315 32.9066
644.482237 80.322 33.1241
649.152421 80.329 33.3378
653.856447 80.337 33.5415
658.594560 80.346 33.7333
663.367008 80.357 33.9161
668.174039 80.370 34.0954
673.015903 80.386 34.2765
677.892854 80.404 34.4633
682.805145 80.424 34.6609
687.753032 80.443 34.8724
692.736774 80.461 35.0981
697.756631 80.476 35.3355
702.812863 80.491 35.5814
707.905735 80.505 35.8327
713.035511 80.520 36.0860
718.202461 80.536 36.3369
723.406852 80.553 36.5811
728.648956 80.571 36.8177
733.929047 80.588 37.0500
739.247399 80.605 37.2819
744.604290 80.621 37.5162
750.000000 80.636 37.7560
755.434809 80.651 38.0046
760.909001 80.666 38.2638
766.422861 80.682 38.5331
771.976677 80.698 38.8117
777.570739 80.715 39.0977
783.205337 80.732 39.3884
788.880766 80.750 39.6803
794.597321 80.768 39.9695
800.355301 80.785 40.2525
806.155005 80.803 40.5285
811.996736 80.822 40.8017
817.880799 80.842 41.0794
823.807501 80.863 41.3674
829.777150 80.886 41.6684
835.790057 80.912 41.9817
841.846536 80.939 42.3024
847.946903 80.967 42.6237
854.091476 80.996 42.9393
860.280575 81.026 43.2459
866.514523 81.056 43.5428
872.793644 81.085 43.8322
879.118267 81.113 44.1182
885.488720 81.140 44.4063
891.905336 81.169 44.7025
898.368450 81.198 45.0104
904.878398 81.231 45.3307
911.435520 81.266 45.6608
918.040157 81.304 45.9961
924.692655 81.345 46.3319
931.393359 81.387 46.6643
938.142619 81.430 46.9890
944.940787 81.472 47.3005
951.788218 81.513 47.5961
958.685268 81.554 47.8777
965.632296 81.594 48.1503
972.629666 81.635 48.4193
979.677741 81.679 48.6905
986.776890 81.725 48.9688
993.927482 81.773 49.2550
1001.129891 81.822 49.5443
1008.384491 81.872 49.8276
1015.691660 81.922 50.0950
1023.051781 81.972 50.3401
1030.465236 82.022 50.5618
1037.932411 82.073 50.7612
1045.453698 82.123 50.9396
1053.029486 82.175 51.0978
1060.660172 82.227 51.2364
1068.346153 82.279 51.3582
1076.087829 82.330 51.4688
1083.885605 82.381 51.5755
1091.739887 82.431 51.6856
1099.651084 82.480 51.8053
1107.619609 82.530 51.9386
1115.645878 82.581 52.0869
1123.730308 82.634 52.2473
1131.873321 82.690 52.4137
1140.075341 82.747 52.5778
1148.336797 82.806 52.7311
1156.658119 82.865 52.8654
1165.039741 82.923 52.9724
1173.482099 82.979 53.0470
1181.985634 83.033 53.0897
1190.550789 83.085 53.1074
1199.178011 83.135 53.1107
1207.867749 83.183 53.1116
1216.620457 83.230 53.1197
1225.436590 83.277 53.1393
1234.316609 83.323 53.1683
1243.260976 83.370 53.2010
1252.270157 83.416 53.2312
1261.344623 83.460 53.2532
1270.484846 83.501 53.2600
1279.691303 83.538 53.2451
1288.964474 83.572 53.2047
1298.304842 83.602 53.1391
1307.712894 83.629 53.0514
1317.189120 83.654 52.9465
1326.734016 83.676 52.8307
1336.348077 83.697 52.7110
1346.031806 83.714 52.5958
1355.785708 83.728 52.4954
1365.610290 83.740 52.4209
1375.506065 83.749 52.3802
1385.473549 83.756 52.3763
1395.513261 83.763 52.4084
1405.625726 83.768 52.4720
1415.811469 83.773 52.5590
1426.071023 83.776 52.6589
1436.404921 83.777 52.7623
1446.813703 83.775 52.8642
1457.297912 83.770 52.9658
1467.858093 83.762 53.0728
1478.494798 83.751 53.1930
1489.208581 83.739 53.3343
1500.000000 83.727 53.5049
1510.869618 83.714 53.7128
1521.818002 83.701 53.9642
1532.845723 83.687 54.2596
1543.953355 83.672 54.5929
1555.141477 83.656 54.9549
1566.410674 83.638 55.3374
1577.761531 83.618 55.7374
1589.194642 83.598 56.1578
1600.710601 83.577 56.6090
1612.310010 83.556 57.1075
1623.993473 83.538 57.6714
1635.761599 83.524 58.3151
1647.615002 83.516 59.0446
1659.554299 83.515 59.8583
1671.580114 83.524 60.7498
1683.693072 83.543 61.7097
1695.893807 83.574 62.7271
1708.182952 83.617 63.7916
1720.561150 83.674 64.8915
1733.029045 83.748 66.0121
1745.587288 83.841 67.1340
1758.236533 83.956 68.2346
1770.977440 84.094 69.2910
1783.810673 84.254 70.2814
1796.736900 84.432 71.1872
1809.756796 84.624 71.9915
1822.871040 84.824 72.6791
1836.080315 85.029 73.2396
1849.385310 85.233 73.6692
1862.786718 85.433 73.9720
1876.285239 85.628 74.1578
1889.881575 85.818 74.2397
1903.576436 86.003 74.2312
1917.370535 86.185 74.1451
1931.264593 86.365 73.9911
1945.259332 86.544 73.7744
1959.355483 86.721 73.4962
1973.553781 86.896 73.1576
1987.854965 87.067 72.7632
2002.259781 87.234 72.3210
2016.768981 87.395 71.8409
2031.383320 87.550 71.3334
2046.103561 87.699 70.8068
2060.930471 87.841 70.2661
2075.864823 87.976 69.7128
2090.907395 88.103 69.1449
2106.058972 88.222 68.5571
2121.320344 88.331 67.9442
2136.692305 88.431 67.3040
2152.175658 88.521 66.6378
2167.771210 88.602 65.9525
2183.479774 88.676 65.2635
2199.302169 88.743 64.5917
2215.239219 88.804 63.9562
2231.291755 88.862 63.3660
2247.460615 88.917 62.8164
2263.746641 88.969 62.2912
2280.150683 89.017 61.7686
2296.673595 89.062 61.2285
2313.316238 89.102 60.6593
2330.079481 89.136 60.0573
2346.964198 89.166 59.4239
2363.971268 89.191 58.7634
2381.101578 89.212 58.0829
2398.356022 89.230 57.3906
2415.735498 89.245 56.6946
2433.240913 89.257 56.0029
2450.873180 89.266 55.3235
2468.633217 89.272 54.6659
2486.521951 89.275 54.0408
2504.540314 89.277 53.4589
2522.689246 89.279 52.9261
2540.969692 89.282 52.4408
2559.382606 89.286 51.9930
2577.928947 89.290 51.5656
2596.609683 89.293 51.1378
2615.425787 89.294 50.6916
2634.378241 89.291 50.2170
2653.468031 89.285 49.7147
2672.696154 89.274 49.1950
2692.063613 89.260 48.6772
2711.571415 89.244 48.1860
2731.220579 89.229 47.7421
2751.012130 89.217 47.3554
2770.947098 89.208 47.0233
2791.026522 89.202 46.7299
2811.251451 89.198 46.4502
2831.622938 89.194 46.1578
2852.142045 89.189 45.8306
2872.809842 89.181 45.4542
2893.627406 89.170 45.0236
2914.595823 89.157 44.5463
2935.716186 89.142 44.0440
2956.989596 89.126 43.5452
2978.417161 89.109 43.0732
3000.000000 89.090 42.6389
3021.739237 89.069 42.2391
3043.636005 89.044 41.8593
3065.691446 89.015 41.4785
3087.906710 88.979 41.0757
3110.282955 88.938 40.6357
3132.821347 88.890 40.1540
3155.523062 88.837 39.6393
3178.389283 88.781 39.1125
3201.421202 88.722 38.6030
3224.620020 88.664 38.1407
3247.986946 88.607 37.7466
3271.523198 88.553 37.4286
3295.230004 88.501 37.1802
3319.108599 88.451 36.9827
3343.160228 88.403 36.8083
3367.386145 88.354 36.6275
3391.787613 88.305 36.4166
3416.365904 88.255 36.1625
3441.122300 88.204 35.8654
3466.058091 88.152 35.5396
3491.174576 88.099 35.2106
3516.473066 88.046 34.9075
3541.954880 87.994 34.6530
3567.621345 87.944 34.4571
3593.473800 87.894 34.3129
3619.513592 87.844 34.1992
3645.742080 87.793 34.0876
3672.160630 87.741 33.9500
3698.770620 87.685 33.7645
3725.573436 87.628 33.5197
3752.570477 87.569 33.2155
3779.763150 87.509 32.8627
3807.152872 87.448 32.4766
3834.741071 87.385 32.0705
3862.529185 87.323 31.6548
3890.518664 87.259 31.2406
3918.710966 87.194 30.8418
3947.107561 87.129 30.4755
3975.709929 87.061 30.1614
4004.519563 86.993 29.9193
4033.537962 86.924 29.7636
4062.766641 86.854 29.6972
4092.207123 86.784 29.7073
4121.860942 86.715 29.7662
4151.729646 86.646 29.8391
4181.814790 86.578 29.8940
4212.117944 86.509 29.9099
4242.640687 86.439 29.8822
4273.384610 86.368 29.8243
4304.351317 86.296 29.7643
4335.542421 86.225 29.7380
4366.959549 86.156 29.7787
4398.604338 86.091 29.9080
4430.478438 86.028 30.1305
4462.583511 85.970 30.4315
4494.921231 85.913 30.7805
4527.493283 85.859 31.1387
4560.301365 85.806 31.4698
4593.347189 85.755 31.7482
4626.632476 85.705 31.9630
4660.158962 85.658 32.1184
4693.928395 85.615 32.2294
4727.942535 85.578 32.3156
4762.203156 85.546 32.3967
4796.712043 85.522 32.4900
4831.470996 85.505 32.6091
4866.481826 85.496 32.7667
4901.746360 85.496 32.9783
4937.266434 85.507 33.2608
4973.043902 85.529 33.6261
5009.080628 85.565 34.0726
5045.378492 85.614 34.5799
5081.939384 85.676 35.1089
5118.765212 85.751 35.6093
5155.857894 85.836 36.0304
5193.219366 85.930 36.3291
5230.851574 86.032 36.4773
5268.756481 86.144 36.4663
5306.936062 86.263 36.3093
5345.392309 86.391 36.0349
5384.127225 86.525 35.6745
5423.142830 86.665 35.2499
5462.441159 86.807 34.7664
5502.024259 86.950 34.2101
5541.894195 87.087 33.5501
5582.053045 87.217 32.7452
5622.502902 87.333 31.7559
5663.245876 87.431 30.5535
5704.284090 87.509 29.1289
5745.619684 87.565 27.4962
5787.254813 87.596 25.6910
5829.191647 87.603 23.7598
5871.432373 87.583 21.7499
5913.979192 87.535 19.7040
5956.834323 87.459 17.6610
6000.000000 87.355 15.6591
6043.478473 87.223 13.7411
6087.272010 87.065 11.9562
6131.382892 86.883 10.3574
6175.813420 86.681 8.9926
6220.565910 86.462 7.8929
6265.642695 86.229 7.0635
6311.046124 85.987 6.4816
6356.778566 85.742 6.0988
6402.842404 85.500 5.8438
6449.240040 85.264 5.6311
6495.973891 85.034 5.3868
6543.046396 84.804 5.0895
6590.460007 84.567 4.7925
6638.217197 84.317 4.5996
6686.320456 84.057 4.6201
6734.772290 83.792 4.9351
6783.575226 83.528 5.5825
6832.731809 83.271 6.5576
6882.244600 83.026 7.8239
6932.116181 82.798 9.3292
6982.349153 82.594 11.0198
7032.946133 82.419 12.8487
7083.909760 82.284 14.7803
7135.242690 82.197 16.7842
7186.947600 82.164 18.8330
7239.027185 82.185 20.9146
7291.484160 82.260 23.0465
7344.321260 82.388 25.2539
7397.541239 82.573 27.5231
7451.146872 82.821 29.7762
7505.140954 83.134 31.8804
7559.526299 83.513 33.6735
7614.305743 83.952 34.9954
7669.482141 84.442 35.7184
7725.058371 84.968 35.7651
7781.037328 85.513 35.1113
7837.421932 86.056 33.7783
7894.215122 86.575 31.8207
7951.419859 87.049 29.3149
8009.039125 87.456 26.3475
8067.075924 87.779 23.0079
8125.533282 88.002 19.3879
8184.414245 88.118 15.5841
8243.721885 88.123 11.6978
8303.459292 88.022 7.8312
8363.629581 87.826 4.0851
8424.235888 87.550 0.5564
8485.281374 87.215 -2.6687
8546.769221 86.843 -5.5262
8608.702634 86.454 -7.9840
8671.084842 86.065 -10.0424
8733.919097 85.693 -11.7271
8797.208675 85.348 -13.0781
8860.956876 85.037 -14.1373
8925.167022 84.764 -14.9379
8989.842461 84.530 -15.5016
9054.986566 84.335 -15.8496
9120.602731 84.177 -16.0185
9186.694378 84.053 -16.0732
9253.264952 83.959 -16.1059
9320.317925 83.890 -16.2231
9387.856790 83.840 -16.5283
9455.885071 83.806 -17.1047
9524.406312 83.784 -17.9988
9593.424086 83.768 -19.2128
9662.941992 83.756 -20.7100
9732.963653 83.743 -22.4299
9803.492719 83.723 -24.3057
9874.532869 83.690 -26.2826
9946.087805 83.638 -28.3340
10018.161257 83.558 -30.4657
10090.756983 83.444 -32.7066
10163.878768 83.288 -35.0936
10237.530423 83.085 -37.6561
10311.715789 82.831 -40.4025
10386.438732 82.522 -43.3051
10461.703149 82.160 -46.2946
10537.512962 81.744 -49.2660
10613.872125 81.279 -52.0958
10690.784618 80.767 -54.6602
10768.254450 80.214 -56.8556
10846.285661 79.626 -58.6201
10924.882318 79.008 -59.9446
11004.048518 78.366 -60.8688
11083.788390 77.704 -61.4659
11164.106090 77.027 -61.8225
11245.005805 76.339 -62.0160
11326.491752 75.644 -62.0898
11408.568180 74.946 -62.0392
11491.239368 74.251 -61.8134
11574.509626 73.561 -61.3323
11658.383294 72.882 -60.5082
11742.864745 72.214 -59.2724
11827.958384 71.561 -57.6008
11913.668646 70.924 -55.5259
12000.000000 70.303 -53.1274
12086.956947 69.700 -50.5125
12174.544019 69.113 -47.7904
12262.765784 68.542 -45.0439
12351.626840 67.986 -42.3032
12441.131819 67.446 -39.5355
12531.285389 66.925 -36.6571
12622.092249 66.422 -33.5536
12713.557132 65.941 -30.1045
12805.684808 65.484 -26.2111
12898.480079 65.055 -21.8214
12991.947783 64.659 -16.9388
13086.092792 64.300 -11.6110
13180.920015 63.988 -5.9072
13276.434395 63.738 0.1049
13372.640911 63.571 6.3799
13469.544580 63.513 12.9015
13567.150452 63.600 19.6554
13665.463617 63.864 26.5767
13764.489200 64.331 33.5031
13864.232362 65.012 40.1697
13964.698305 65.893 46.2541
14065.892266 66.944 51.4531
14167.819519 68.121 55.5436
14270.485380 69.375 58.4028
14373.895200 70.658 59.9915
14478.054370 71.928 60.3226
14582.968320 73.144 59.4297
14688.642520 74.271 57.3548
14795.082478 75.281 54.1582
14902.293745 76.148 49.9354
15010.281908 76.855 44.8292
15119.052599 77.394 39.0364
15228.611486 77.769 32.8099
15338.964283 77.997 26.4403
15450.116741 78.107 20.2147
15562.074656 78.137 14.3693
15674.843864 78.122 9.0551
15788.430244 78.098 4.3129
15902.839718 78.089 0.0583
16018.078250 78.110 -3.9084
16134.151848 78.161 -7.8605
16251.066563 78.230 -12.0862
16368.828491 78.298 -16.8356
16487.443769 78.334 -22.2743
16606.918584 78.309 -28.4491
16727.259161 78.191 -35.2800
16848.471777 77.953 -42.5840
16970.562748 77.575 -50.1147
17093.538442 77.047 -57.6051
17217.405268 76.373 -64.8048
17342.169684 75.564 -71.5032
17467.838194 74.642 -77.5336
17594.417350 73.630 -82.7658
17721.913751 72.554 -87.0967
17850.334044 71.442 -90.4485
17979.684923 70.320 -92.7853
18109.973131 69.211 -94.1429
18241.205462 68.135 -94.6483
18373.388756 67.107 -94.5129
18506.529905 66.134 -94.0042
18640.635849 65.221 -93.4044
18775.713581 64.365 -92.9605
18911.770141 63.558 -92.8359
19048.812624 62.791 -93.0861
19186.848172 62.053 -93.6693
19325.883983 61.338 -94.4780
19465.927305 60.646 -95.3713
19606.985439 59.990 -96.2108
19749.065738 59.407 -96.8917
19892.175609 58.955 -97.3566
20036.322514 58.704 -97.5879
