* Measurement data measured by REW V5.31.3
* Source: Headset (CX31993 HIFI AUDIO), MICROPHONE (Master Volume), R, volume: 0.250
* Format: 256k Log Swept Sine, 1 sweep at -12.0 dBFS with no timing reference
* Dated: 12 31, 24 12:53:49 PM
* REW Settings:
*  C-weighting compensation: Off
*  Target level: 75.0 dB
* Note: ; 
* Measurement: Sony Linkbuds Fit L
* Smoothing: 1/12 octave
* Frequency Step: 96 ppo
* Start Frequency: 0.36621094 Hz
*
* Freq(Hz) SPL(dB) Phase(degrees)
0.366211 39.261 -65.5599
0.368865 39.277 -65.6521
0.371538 39.301 -65.7892
0.374230 39.330 -65.9596
0.376942 39.363 -66.1535
0.379673 39.398 -66.3635
0.382424 39.435 -66.5847
0.385196 39.472 -66.8143
0.387987 39.511 -67.0505
0.390798 39.550 -67.2924
0.393630 39.589 -67.5393
0.396483 39.628 -67.7911
0.399356 39.668 -68.0476
0.402250 39.708 -68.3086
0.405165 39.749 -68.5743
0.408101 39.789 -68.8444
0.411058 39.830 -69.1191
0.414037 39.872 -69.3982
0.417037 39.913 -69.6818
0.420059 39.955 -69.9698
0.423103 39.998 -70.2622
0.426169 40.040 -70.5589
0.429257 40.083 -70.8600
0.432368 40.126 -71.1654
0.435501 40.170 -71.4750
0.438656 40.213 -71.7889
0.441835 40.257 -72.1069
0.445037 40.302 -72.4291
0.448262 40.347 -72.7553
0.451510 40.392 -73.0856
0.454782 40.437 -73.4199
0.458077 40.483 -73.7580
0.461397 40.529 -74.1001
0.464740 40.575 -74.4460
0.468108 40.622 -74.7957
0.471500 40.669 -75.1490
0.474917 40.716 -75.5060
0.478358 40.764 -75.8666
0.481825 40.812 -76.2307
0.485316 40.861 -76.5982
0.488833 40.910 -76.9691
0.492375 40.959 -77.3433
0.495943 41.008 -77.7208
0.499537 41.058 -78.1015
0.503157 41.108 -78.4852
0.506803 41.159 -78.8720
0.510475 41.210 -79.2618
0.514175 41.261 -79.6544
0.517900 41.313 -80.0499
0.521653 41.365 -80.4481
0.525434 41.417 -80.8490
0.529241 41.470 -81.2526
0.533076 41.524 -81.6586
0.536939 41.577 -82.0672
0.540830 41.631 -82.4782
0.544749 41.686 -82.8915
0.548696 41.740 -83.3071
0.552673 41.795 -83.7249
0.556677 41.851 -84.1448
0.560711 41.907 -84.5668
0.564774 41.963 -84.9909
0.568867 42.020 -85.4170
0.572989 42.077 -85.8450
0.577141 42.135 -86.2748
0.581324 42.193 -86.7065
0.585536 42.252 -87.1399
0.589779 42.310 -87.5751
0.594053 42.370 -88.0120
0.598358 42.430 -88.4505
0.602694 42.490 -88.8906
0.607061 42.550 -89.3323
0.611460 42.611 -89.7756
0.615891 42.673 -90.2204
0.620354 42.735 -90.6667
0.624849 42.797 -91.1144
0.629377 42.860 -91.5637
0.633938 42.923 -92.0144
0.638532 42.987 -92.4665
0.643159 43.051 -92.9201
0.647819 43.116 -93.3752
0.652514 43.181 -93.8317
0.657242 43.247 -94.2897
0.662005 43.313 -94.7491
0.666802 43.379 -95.2101
0.671634 43.447 -95.6726
0.676501 43.514 -96.1366
0.681403 43.582 -96.6022
0.686341 43.651 -97.0694
0.691314 43.720 -97.5382
0.696324 43.789 -98.0088
0.701370 43.859 -98.4811
0.706452 43.930 -98.9551
0.711571 44.001 -99.4310
0.716728 44.073 -99.9086
0.721921 44.145 -100.3880
0.727153 44.217 -100.8691
0.732422 44.291 -101.3517
0.737729 44.365 -101.8355
0.743075 44.439 -102.3203
0.748460 44.514 -102.8058
0.753883 44.590 -103.2918
0.759346 44.667 -103.7779
0.764849 44.744 -104.2641
0.770391 44.822 -104.7502
0.775974 44.900 -105.2360
0.781597 44.979 -105.7213
0.787261 45.059 -106.2062
0.792966 45.140 -106.6903
0.798712 45.221 -107.1738
0.804500 45.303 -107.6563
0.810329 45.386 -108.1380
0.816201 45.469 -108.6186
0.822116 45.553 -109.0982
0.828073 45.638 -109.5766
0.834074 45.723 -110.0538
0.840118 45.809 -110.5298
0.846206 45.895 -111.0046
0.852338 45.983 -111.4780
0.858514 46.070 -111.9501
0.864735 46.159 -112.4209
0.871001 46.248 -112.8903
0.877313 46.338 -113.3583
0.883670 46.428 -113.8251
0.890074 46.519 -114.2905
0.896524 46.610 -114.7546
0.903020 46.702 -115.2175
0.909564 46.795 -115.6791
0.916155 46.888 -116.1395
0.922794 46.982 -116.5988
0.929481 47.076 -117.0571
0.936216 47.171 -117.5143
0.943000 47.266 -117.9706
0.949834 47.362 -118.4260
0.956717 47.458 -118.8807
0.963649 47.555 -119.3346
0.970632 47.652 -119.7880
0.977666 47.749 -120.2408
0.984750 47.847 -120.6933
0.991886 47.945 -121.1455
0.999074 48.044 -121.5976
1.006314 48.143 -122.0496
1.013606 48.243 -122.5017
1.020951 48.342 -122.9541
1.028349 48.442 -123.4068
1.035801 48.542 -123.8600
1.043307 48.643 -124.3139
1.050867 48.743 -124.7687
1.058482 48.844 -125.2243
1.066152 48.945 -125.6810
1.073878 49.046 -126.1390
1.081660 49.148 -126.5981
1.089498 49.249 -127.0585
1.097393 49.351 -127.5200
1.105345 49.453 -127.9826
1.113355 49.555 -128.4459
1.121423 49.658 -128.9099
1.129549 49.760 -129.3742
1.137734 49.863 -129.8388
1.145979 49.967 -130.3035
1.154283 50.071 -130.7682
1.162647 50.175 -131.2329
1.171072 50.279 -131.6974
1.179558 50.384 -132.1617
1.188106 50.489 -132.6256
1.196715 50.594 -133.0892
1.205387 50.700 -133.5524
1.214122 50.806 -134.0151
1.222920 50.913 -134.4773
1.231782 51.020 -134.9389
1.240708 51.127 -135.3999
1.249699 51.234 -135.8603
1.258754 51.342 -136.3200
1.267876 51.449 -136.7790
1.277063 51.558 -137.2373
1.286318 51.666 -137.6948
1.295639 51.775 -138.1515
1.305027 51.884 -138.6074
1.314484 51.993 -139.0625
1.324009 52.103 -139.5167
1.333604 52.213 -139.9701
1.343268 52.323 -140.4227
1.353002 52.433 -140.8745
1.362806 52.544 -141.3254
1.372681 52.655 -141.7755
1.382628 52.766 -142.2248
1.392647 52.877 -142.6732
1.402739 52.989 -143.1209
1.412904 53.101 -143.5677
1.423142 53.213 -144.0138
1.433455 53.325 -144.4590
1.443843 53.437 -144.9034
1.454305 53.549 -145.3468
1.464844 53.662 -145.7893
1.475459 53.775 -146.2306
1.486150 53.887 -146.6706
1.496920 54.000 -147.1093
1.507767 54.113 -147.5465
1.518693 54.226 -147.9825
1.529698 54.339 -148.4171
1.540783 54.452 -148.8505
1.551948 54.565 -149.2827
1.563194 54.678 -149.7139
1.574521 54.791 -150.1441
1.585931 54.904 -150.5735
1.597423 55.018 -151.0023
1.608999 55.131 -151.4304
1.620658 55.245 -151.8581
1.632402 55.358 -152.2855
1.644232 55.472 -152.7127
1.656146 55.585 -153.1399
1.668147 55.699 -153.5672
1.680235 55.813 -153.9948
1.692411 55.927 -154.4227
1.704675 56.041 -154.8513
1.717028 56.155 -155.2805
1.729470 56.269 -155.7106
1.742003 56.384 -156.1417
1.754626 56.498 -156.5739
1.767341 56.613 -157.0075
1.780147 56.728 -157.4425
1.793047 56.843 -157.8790
1.806040 56.958 -158.3171
1.819128 57.073 -158.7567
1.832310 57.188 -159.1979
1.845587 57.303 -159.6404
1.858961 57.418 -160.0840
1.872432 57.533 -160.5286
1.886001 57.648 -160.9740
1.899667 57.763 -161.4200
1.913433 57.878 -161.8665
1.927299 57.993 -162.3134
1.941265 58.107 -162.7606
1.955332 58.221 -163.2081
1.969501 58.336 -163.6558
1.983773 58.450 -164.1036
1.998148 58.564 -164.5514
2.012627 58.678 -164.9993
2.027212 58.792 -165.4472
2.041902 58.906 -165.8952
2.056698 59.020 -166.3431
2.071602 59.135 -166.7909
2.086614 59.249 -167.2388
2.101734 59.363 -167.6867
2.116964 59.477 -168.1346
2.132304 59.591 -168.5825
2.147756 59.706 -169.0305
2.163320 59.820 -169.4786
2.178996 59.935 -169.9268
2.194786 60.050 -170.3752
2.210690 60.164 -170.8237
2.226710 60.279 -171.2723
2.242845 60.393 -171.7211
2.259098 60.507 -172.1700
2.275468 60.621 -172.6189
2.291957 60.735 -173.0679
2.308566 60.849 -173.5171
2.325295 60.963 -173.9663
2.342145 61.076 -174.4157
2.359117 61.189 -174.8652
2.376212 61.303 -175.3149
2.393431 61.416 -175.7649
2.410775 61.529 -176.2152
2.428244 61.642 -176.6658
2.445840 61.755 -177.1169
2.463564 61.868 -177.5685
2.481416 61.981 -178.0206
2.499397 62.094 -178.4734
2.517509 62.207 -178.9269
2.535752 62.320 -179.3810
2.554127 62.433 -179.8359
2.572635 62.546 179.7085
2.591277 62.659 179.2523
2.610055 62.772 178.7956
2.628968 62.885 178.3383
2.648019 62.997 177.8806
2.667208 63.110 177.4223
2.686535 63.222 176.9634
2.706003 63.334 176.5039
2.725612 63.446 176.0437
2.745363 63.558 175.5826
2.765257 63.669 175.1206
2.785295 63.781 174.6575
2.805478 63.892 174.1932
2.825808 64.003 173.7275
2.846285 64.114 173.2603
2.866910 64.225 172.7915
2.887685 64.336 172.3209
2.908611 64.447 171.8483
2.929688 64.558 171.3737
2.950917 64.668 170.8970
2.972301 64.778 170.4183
2.993839 64.888 169.9377
3.015534 64.998 169.4552
3.037386 65.107 168.9709
3.059396 65.216 168.4851
3.081565 65.325 167.9979
3.103896 65.434 167.5092
3.126388 65.542 167.0191
3.149043 65.650 166.5278
3.171862 65.757 166.0352
3.194847 65.865 165.5412
3.217998 65.971 165.0458
3.241317 66.078 164.5488
3.264805 66.184 164.0499
3.288463 66.289 163.5489
3.312293 66.394 163.0454
3.336295 66.498 162.5393
3.360471 66.602 162.0304
3.384822 66.706 161.5190
3.409350 66.809 161.0052
3.434056 66.911 160.4895
3.458940 67.013 159.9724
3.484005 67.114 159.4542
3.509252 67.214 158.9353
3.534681 67.314 158.4162
3.560295 67.413 157.8970
3.586094 67.511 157.3779
3.612081 67.608 156.8587
3.638255 67.705 156.3392
3.664620 67.801 155.8188
3.691175 67.896 155.2969
3.717923 67.990 154.7731
3.744864 68.083 154.2474
3.772001 68.175 153.7200
3.799335 68.266 153.1918
3.826866 68.357 152.6635
3.854597 68.446 152.1362
3.882529 68.534 151.6107
3.910664 68.622 151.0880
3.939002 68.709 150.5689
3.967546 68.794 150.0538
3.996296 68.879 149.5427
4.025255 68.962 149.0353
4.054423 69.045 148.5311
4.083804 69.126 148.0293
4.113396 69.207 147.5297
4.143204 69.286 147.0325
4.173227 69.364 146.5385
4.203468 69.441 146.0483
4.233928 69.517 145.5635
4.264609 69.593 145.0850
4.295512 69.668 144.6140
4.326639 69.742 144.1516
4.357992 69.815 143.6982
4.389572 69.888 143.2541
4.421380 69.961 142.8189
4.453419 70.032 142.3923
4.485691 70.103 141.9739
4.518196 70.173 141.5635
4.550936 70.243 141.1614
4.583914 70.312 140.7679
4.617131 70.382 140.3837
4.650589 70.452 140.0094
4.684289 70.522 139.6458
4.718233 70.593 139.2937
4.752424 70.664 138.9535
4.786862 70.736 138.6255
4.821549 70.809 138.3094
4.856488 70.882 138.0049
4.891680 70.956 137.7109
4.927127 71.031 137.4264
4.962831 71.108 137.1503
4.998794 71.185 136.8815
5.035017 71.265 136.6193
5.071503 71.346 136.3633
5.108253 71.430 136.1133
5.145270 71.516 135.8698
5.182555 71.605 135.6325
5.220110 71.695 135.4009
5.257937 71.788 135.1736
5.296038 71.883 134.9481
5.334415 71.981 134.7219
5.373071 72.081 134.4924
5.412006 72.184 134.2572
5.451224 72.289 134.0148
5.490725 72.396 133.7645
5.530514 72.507 133.5062
5.570590 72.620 133.2398
5.610957 72.736 132.9645
5.651616 72.854 132.6788
5.692570 72.974 132.3801
5.733821 73.095 132.0661
5.775370 73.219 131.7343
5.817221 73.343 131.3828
5.859375 73.469 131.0109
5.901834 73.596 130.6185
5.944602 73.724 130.2059
5.987679 73.852 129.7736
6.031068 73.981 129.3213
6.074771 74.111 128.8485
6.118792 74.240 128.3546
6.163131 74.368 127.8387
6.207792 74.495 127.3002
6.252776 74.621 126.7389
6.298086 74.745 126.1553
6.343725 74.868 125.5507
6.389694 74.989 124.9265
6.435996 75.108 124.2845
6.482634 75.225 123.6262
6.529610 75.339 122.9525
6.576926 75.450 122.2639
6.624585 75.558 121.5606
6.672590 75.663 120.8434
6.720942 75.764 120.1137
6.769645 75.862 119.3740
6.818700 75.956 118.6272
6.868111 76.047 117.8762
6.917881 76.134 117.1229
6.968010 76.217 116.3687
7.018504 76.296 115.6143
7.069362 76.371 114.8605
7.120590 76.442 114.1095
7.172189 76.509 113.3640
7.224161 76.573 112.6274
7.276511 76.633 111.9025
7.329239 76.690 111.1911
7.382350 76.743 110.4944
7.435845 76.794 109.8133
7.489729 76.841 109.1487
7.544002 76.886 108.5026
7.598669 76.929 107.8771
7.653732 76.971 107.2740
7.709194 77.010 106.6949
7.765058 77.049 106.1401
7.821327 77.087 105.6097
7.878004 77.124 105.1033
7.935091 77.162 104.6205
7.992592 77.200 104.1611
8.050510 77.239 103.7246
8.108847 77.279 103.3108
8.167607 77.322 102.9182
8.226793 77.366 102.5449
8.286408 77.412 102.1882
8.346454 77.461 101.8453
8.406936 77.513 101.5136
8.467856 77.567 101.1911
8.529218 77.625 100.8756
8.591024 77.685 100.5645
8.653278 77.748 100.2546
8.715983 77.814 99.9426
8.779143 77.883 99.6258
8.842760 77.954 99.3019
8.906839 78.026 98.9695
8.971381 78.101 98.6272
9.036392 78.177 98.2736
9.101873 78.253 97.9074
9.167829 78.330 97.5278
9.234263 78.407 97.1344
9.301178 78.484 96.7278
9.368578 78.560 96.3088
9.436467 78.635 95.8787
9.504847 78.709 95.4385
9.573723 78.781 94.9895
9.643099 78.851 94.5334
9.712976 78.919 94.0721
9.783361 78.985 93.6081
9.854255 79.049 93.1436
9.925663 79.110 92.6809
9.997588 79.170 92.2216
10.070035 79.228 91.7675
10.143007 79.283 91.3206
10.216507 79.338 90.8827
10.290540 79.391 90.4551
10.365109 79.443 90.0386
10.440219 79.494 89.6337
10.515873 79.545 89.2406
10.592076 79.596 88.8590
10.668830 79.647 88.4887
10.746141 79.699 88.1288
10.824012 79.751 87.7780
10.902447 79.805 87.4344
10.981451 79.860 87.0963
11.061027 79.916 86.7620
11.141180 79.973 86.4295
11.221913 80.032 86.0967
11.303232 80.092 85.7617
11.385140 80.152 85.4225
11.467641 80.214 85.0777
11.550741 80.276 84.7261
11.634442 80.339 84.3667
11.718750 80.401 83.9989
11.803669 80.463 83.6223
11.889203 80.525 83.2371
11.975357 80.586 82.8438
12.062136 80.646 82.4434
12.149543 80.704 82.0366
12.237583 80.761 81.6247
12.326262 80.817 81.2090
12.415583 80.871 80.7911
12.505552 80.923 80.3723
12.596172 80.975 79.9537
12.687449 81.024 79.5365
12.779387 81.073 79.1216
12.871992 81.120 78.7098
12.965268 81.167 78.3014
13.059220 81.213 77.8965
13.153852 81.258 77.4950
13.249170 81.303 77.0964
13.345179 81.348 76.7003
13.441884 81.392 76.3058
13.539289 81.436 75.9122
13.637401 81.481 75.5188
13.736223 81.524 75.1250
13.835761 81.568 74.7303
13.936021 81.611 74.3343
14.037007 81.653 73.9372
14.138725 81.695 73.5391
14.241180 81.736 73.1407
14.344377 81.776 72.7427
14.448323 81.816 72.3459
14.553021 81.854 71.9514
14.658478 81.892 71.5603
14.764700 81.929 71.1733
14.871691 81.966 70.7910
14.979457 82.003 70.4138
15.088005 82.040 70.0417
15.197339 82.077 69.6739
15.307465 82.115 69.3096
15.418389 82.153 68.9473
15.530117 82.193 68.5854
15.642655 82.233 68.2220
15.756008 82.275 67.8552
15.870182 82.317 67.4833
15.985184 82.359 67.1051
16.101019 82.401 66.7199
16.217694 82.443 66.3277
16.335214 82.484 65.9294
16.453586 82.524 65.5267
16.572815 82.562 65.1219
16.692909 82.599 64.7182
16.813872 82.635 64.3190
16.935713 82.669 63.9277
17.058436 82.702 63.5473
17.182048 82.735 63.1800
17.306556 82.769 62.8268
17.431967 82.804 62.4873
17.558286 82.841 62.1589
17.685521 82.881 61.8376
17.813677 82.924 61.5173
17.942762 82.971 61.1908
18.072783 83.022 60.8499
18.203746 83.076 60.4866
18.335658 83.133 60.0935
18.468526 83.189 59.6653
18.602356 83.245 59.1989
18.737156 83.297 58.6948
18.872934 83.344 58.1566
19.009695 83.385 57.5921
19.147447 83.417 57.0122
19.286197 83.439 56.4309
19.425953 83.451 55.8645
19.566721 83.454 55.3300
19.708510 83.449 54.8443
19.851326 83.437 54.4225
19.995177 83.421 54.0761
20.140070 83.405 53.8114
20.286013 83.392 53.6282
20.433014 83.386 53.5191
20.581080 83.391 53.4693
20.730219 83.408 53.4580
20.880439 83.439 53.4597
21.031747 83.483 53.4477
21.184152 83.539 53.3968
21.337661 83.604 53.2865
21.492282 83.674 53.1033
21.648024 83.746 52.8422
21.804895 83.814 52.5062
21.962902 83.877 52.1063
22.122054 83.930 51.6594
22.282360 83.973 51.1862
22.443827 84.006 50.7084
22.606464 84.029 50.2467
22.770280 84.045 49.8181
22.935283 84.056 49.4341
23.101481 84.065 49.0993
23.268884 84.075 48.8112
23.437500 84.090 48.5608
23.607338 84.110 48.3338
23.778406 84.136 48.1137
23.950714 84.168 47.8842
24.124271 84.205 47.6319
24.299086 84.244 47.3483
24.475167 84.283 47.0306
24.652524 84.320 46.6819
24.831166 84.354 46.3093
25.011103 84.384 45.9228
25.192344 84.409 45.5326
25.374898 84.431 45.1477
25.558775 84.451 44.7737
25.743984 84.470 44.4124
25.930536 84.488 44.0623
26.118439 84.508 43.7188
26.307704 84.529 43.3763
26.498341 84.550 43.0304
26.690359 84.571 42.6786
26.883768 84.591 42.3217
27.078579 84.609 41.9638
27.274801 84.624 41.6115
27.472446 84.638 41.2718
27.671522 84.651 40.9505
27.872042 84.664 40.6505
28.074014 84.680 40.3701
28.277450 84.698 40.1037
28.482360 84.721 39.8415
28.688755 84.749 39.5725
28.896645 84.779 39.2860
29.106042 84.812 38.9747
29.316957 84.844 38.6355
29.529400 84.875 38.2708
29.743382 84.902 37.8875
29.958915 84.925 37.4953
30.176009 84.944 37.1049
30.394677 84.959 36.7255
30.614929 84.972 36.3635
30.836778 84.983 36.0210
31.060234 84.995 35.6967
31.285309 85.008 35.3861
31.512015 85.022 35.0836
31.740364 85.037 34.7839
31.970368 85.054 34.4829
32.202039 85.070 34.1788
32.435388 85.086 33.8714
32.670428 85.102 33.5617
32.907171 85.117 33.2508
33.145630 85.132 32.9398
33.385817 85.146 32.6289
33.627745 85.160 32.3180
33.871425 85.173 32.0070
34.116871 85.186 31.6960
34.364096 85.199 31.3857
34.613113 85.211 31.0773
34.863934 85.222 30.7717
35.116572 85.234 30.4692
35.371041 85.246 30.1689
35.627354 85.258 29.8691
35.885525 85.271 29.5673
36.145566 85.285 29.2611
36.407492 85.298 28.9491
36.671316 85.312 28.6313
36.937051 85.324 28.3092
37.204712 85.335 27.9855
37.474313 85.345 27.6633
37.745867 85.354 27.3453
38.019389 85.363 27.0331
38.294893 85.372 26.7271
38.572394 85.381 26.4261
38.851905 85.390 26.1285
39.133442 85.399 25.8326
39.417019 85.409 25.5367
39.702651 85.418 25.2404
39.990353 85.427 24.9441
40.280140 85.436 24.6489
40.572026 85.443 24.3566
40.866028 85.451 24.0682
41.162160 85.458 23.7843
41.460438 85.465 23.5039
41.760877 85.472 23.2252
42.063494 85.479 22.9454
42.368303 85.486 22.6625
42.675322 85.493 22.3752
42.984565 85.499 22.0845
43.296048 85.503 21.7925
43.609789 85.506 21.5032
43.925804 85.507 21.2197
44.244108 85.508 20.9441
44.564719 85.510 20.6761
44.887654 85.512 20.4128
45.212928 85.516 20.1498
45.540560 85.521 19.8818
45.870565 85.527 19.6052
46.202962 85.532 19.3177
46.537768 85.538 19.0196
46.875000 85.543 18.7131
47.214676 85.546 18.4016
47.556813 85.548 18.0889
47.901429 85.549 17.7782
48.248542 85.549 17.4722
48.598171 85.548 17.1718
48.950334 85.548 16.8771
49.305048 85.548 16.5872
49.662333 85.547 16.3008
50.022206 85.547 16.0172
50.384688 85.547 15.7366
50.749796 85.546 15.4598
51.117550 85.545 15.1880
51.487969 85.544 14.9216
51.861072 85.543 14.6603
52.236879 85.543 14.4027
52.615409 85.542 14.1470
52.996681 85.541 13.8912
53.380717 85.541 13.6339
53.767536 85.539 13.3744
54.157158 85.537 13.1133
54.549603 85.534 12.8522
54.944892 85.531 12.5930
55.343045 85.526 12.3364
55.744084 85.522 12.0812
56.148028 85.518 11.8245
56.554900 85.514 11.5634
56.964720 85.509 11.2969
57.377510 85.504 11.0267
57.793291 85.498 10.7557
58.212085 85.491 10.4865
58.633914 85.485 10.2200
59.058799 85.478 9.9559
59.486764 85.471 9.6941
59.917829 85.464 9.4351
60.352019 85.457 9.1804
60.789354 85.450 8.9313
61.229859 85.443 8.6880
61.673556 85.436 8.4498
62.120468 85.430 8.2149
62.570618 85.424 7.9812
63.024031 85.417 7.7468
63.480729 85.409 7.5117
63.940736 85.399 7.2772
64.404077 85.388 7.0459
64.870776 85.375 6.8200
65.340856 85.360 6.6013
65.814343 85.345 6.3922
66.291261 85.329 6.1949
66.771635 85.314 6.0083
67.255489 85.302 5.8240
67.742850 85.293 5.6279
68.233743 85.286 5.4071
68.728193 85.279 5.1586
69.226226 85.269 4.8909
69.727867 85.258 4.6182
70.233144 85.245 4.3503
70.742083 85.232 4.0900
71.254709 85.221 3.8338
71.771050 85.210 3.5771
72.291132 85.200 3.3177
72.814984 85.189 3.0562
73.342631 85.178 2.7954
73.874102 85.165 2.5393
74.409424 85.152 2.2903
74.948626 85.138 2.0490
75.491734 85.123 1.8140
76.038779 85.108 1.5835
76.589787 85.093 1.3554
77.144788 85.077 1.1283
77.703811 85.060 0.9014
78.266885 85.043 0.6747
78.834039 85.025 0.4493
79.405303 85.006 0.2262
79.980706 84.988 0.0065
80.560280 84.969 -0.2086
81.144053 84.950 -0.4186
81.732056 84.930 -0.6232
82.324320 84.911 -0.8225
82.920876 84.892 -1.0161
83.521755 84.873 -1.2046
84.126988 84.854 -1.3902
84.736607 84.835 -1.5769
85.350643 84.816 -1.7684
85.969129 84.796 -1.9663
86.592097 84.775 -2.1695
87.219579 84.752 -2.3754
87.851608 84.729 -2.5809
88.488217 84.704 -2.7827
89.129439 84.679 -2.9784
89.775308 84.655 -3.1675
90.425856 84.631 -3.3511
91.081119 84.607 -3.5305
91.741131 84.583 -3.7063
92.405925 84.558 -3.8777
93.075536 84.533 -4.0446
93.750000 84.507 -4.2076
94.429351 84.479 -4.3689
95.113625 84.451 -4.5302
95.802858 84.422 -4.6919
96.497085 84.393 -4.8542
97.196342 84.363 -5.0193
97.900667 84.334 -5.1898
98.610096 84.305 -5.3674
99.324665 84.277 -5.5508
100.044413 84.248 -5.7368
100.769376 84.219 -5.9221
101.499592 84.189 -6.1044
102.235100 84.157 -6.2822
102.975938 84.122 -6.4537
103.722144 84.085 -6.6179
104.473757 84.045 -6.7747
105.230817 84.002 -6.9253
105.993363 83.957 -7.0716
106.761435 83.910 -7.2158
107.535072 83.861 -7.3588
108.314315 83.811 -7.4985
109.099206 83.760 -7.6302
109.889783 83.707 -7.7466
110.686090 83.653 -7.8395
111.488167 83.596 -7.8999
112.296056 83.539 -7.9201
113.109800 83.480 -7.8958
113.929440 83.423 -7.8289
114.755020 83.367 -7.7263
115.586582 83.316 -7.5970
116.424170 83.271 -7.4492
117.267827 83.233 -7.2906
118.117598 83.204 -7.1290
118.973527 83.184 -6.9714
119.835658 83.172 -6.8256
120.704037 83.169 -6.7013
121.578708 83.170 -6.6064
122.459718 83.172 -6.5425
123.347111 83.173 -6.5060
124.240935 83.171 -6.4922
125.141236 83.165 -6.4972
126.048061 83.156 -6.5182
126.961458 83.144 -6.5521
127.881473 83.130 -6.5936
128.808154 83.113 -6.6362
129.741551 83.095 -6.6740
130.681712 83.074 -6.7018
131.628686 83.051 -6.7169
132.582521 83.026 -6.7191
133.543269 82.999 -6.7136
134.510979 82.972 -6.7112
135.485701 82.947 -6.7302
136.467486 82.924 -6.7896
137.456386 82.900 -6.8920
138.452451 82.876 -7.0190
139.455735 82.850 -7.1460
140.466288 82.824 -7.2551
141.484165 82.796 -7.3379
142.509418 82.768 -7.3928
143.542100 82.739 -7.4230
144.582265 82.708 -7.4357
145.629968 82.677 -7.4391
146.685262 82.646 -7.4406
147.748204 82.615 -7.4438
148.818849 82.584 -7.4505
149.897251 82.554 -7.4589
150.983469 82.524 -7.4658
152.077557 82.495 -7.4686
153.179574 82.465 -7.4655
154.289576 82.435 -7.4554
155.407622 82.404 -7.4365
156.533770 82.374 -7.4072
157.668078 82.344 -7.3668
158.810606 82.315 -7.3154
159.961413 82.287 -7.2554
161.120559 82.258 -7.1901
162.288105 82.229 -7.1223
163.464112 82.199 -7.0552
164.648640 82.168 -6.9913
165.841752 82.137 -6.9324
167.043510 82.107 -6.8773
168.253976 82.077 -6.8225
169.473213 82.047 -6.7639
170.701286 82.019 -6.6978
171.938258 81.991 -6.6222
173.184194 81.962 -6.5360
174.439158 81.933 -6.4388
175.703216 81.904 -6.3317
176.976434 81.876 -6.2191
178.258878 81.848 -6.1080
179.550615 81.821 -6.0046
180.851713 81.794 -5.9100
182.162239 81.768 -5.8190
183.482262 81.743 -5.7246
184.811850 81.717 -5.6221
186.151073 81.693 -5.5095
187.500000 81.668 -5.3876
188.858702 81.644 -5.2593
190.227250 81.619 -5.1268
191.605715 81.593 -4.9911
192.994169 81.567 -4.8534
194.392685 81.541 -4.7161
195.801334 81.516 -4.5825
197.220191 81.491 -4.4543
198.649330 81.468 -4.3322
200.088825 81.446 -4.2153
201.538751 81.424 -4.1016
202.999184 81.401 -3.9873
204.470200 81.377 -3.8663
205.951875 81.352 -3.7343
207.444287 81.326 -3.5911
208.947514 81.300 -3.4393
210.461634 81.276 -3.2816
211.986726 81.254 -3.1206
213.522869 81.232 -2.9591
215.070144 81.212 -2.7998
216.628631 81.192 -2.6442
218.198411 81.171 -2.4915
219.779567 81.151 -2.3384
221.372180 81.130 -2.1810
222.976334 81.110 -2.0166
224.592112 81.091 -1.8451
226.219600 81.072 -1.6693
227.858880 81.055 -1.4919
229.510039 81.038 -1.3145
231.173164 81.021 -1.1359
232.848340 81.005 -0.9539
234.535655 80.988 -0.7670
236.235197 80.971 -0.5759
237.947054 80.955 -0.3840
239.671317 80.939 -0.1959
241.408074 80.925 -0.0154
243.157416 80.911 0.1566
244.919435 80.899 0.3239
246.694223 80.886 0.4920
248.481871 80.875 0.6662
250.282473 80.864 0.8491
252.096123 80.854 1.0406
253.922915 80.844 1.2390
255.762945 80.834 1.4415
257.616309 80.824 1.6447
259.483103 80.813 1.8444
261.363424 80.803 2.0386
263.257372 80.792 2.2280
265.165043 80.782 2.4155
267.086538 80.771 2.6050
269.021957 80.759 2.7994
270.971401 80.747 3.0001
272.934972 80.736 3.2058
274.912771 80.725 3.4139
276.904902 80.716 3.6218
278.911469 80.709 3.8283
280.932577 80.703 4.0325
282.968330 80.698 4.2343
285.018835 80.695 4.4338
287.084199 80.692 4.6317
289.164530 80.690 4.8285
291.259935 80.687 5.0249
293.370525 80.683 5.2222
295.496408 80.679 5.4216
297.637697 80.675 5.6234
299.794503 80.672 5.8275
301.966937 80.668 6.0341
304.155114 80.665 6.2430
306.359147 80.662 6.4531
308.579152 80.659 6.6622
310.815244 80.656 6.8678
313.067539 80.653 7.0681
315.336156 80.651 7.2631
317.621211 80.650 7.4554
319.922826 80.650 7.6492
322.241118 80.652 7.8478
324.576210 80.654 8.0521
326.928223 80.657 8.2617
329.297280 80.659 8.4757
331.683504 80.661 8.6942
334.087019 80.662 8.9169
336.507952 80.663 9.1411
338.946427 80.664 9.3594
341.402572 80.666 9.5638
343.876516 80.670 9.7521
346.368387 80.676 9.9296
348.878315 80.681 10.1060
351.406431 80.686 10.2891
353.952867 80.690 10.4814
356.517756 80.693 10.6806
359.101230 80.695 10.8810
361.703426 80.697 11.0765
364.324478 80.700 11.2642
366.964523 80.703 11.4457
369.623699 80.707 11.6258
372.302145 80.712 11.8078
375.000000 80.717 11.9919
377.717405 80.723 12.1761
380.454501 80.731 12.3581
383.211431 80.739 12.5369
385.988339 80.749 12.7126
388.785369 80.758 12.8843
391.602668 80.766 13.0494
394.440383 80.771 13.2062
397.298660 80.774 13.3562
400.177650 80.775 13.5039
403.077502 80.775 13.6562
405.998368 80.775 13.8219
408.940400 80.776 14.0098
411.903750 80.779 14.2262
414.888575 80.784 14.4709
417.895028 80.793 14.7360
420.923268 80.805 15.0084
423.973452 80.821 15.2739
427.045738 80.840 15.5223
430.140287 80.863 15.7489
433.257261 80.887 15.9540
436.396822 80.911 16.1404
439.559133 80.934 16.3109
442.744360 80.954 16.4686
445.952668 80.970 16.6177
449.184225 80.982 16.7637
452.439199 80.991 16.9129
455.717760 80.999 17.0692
459.020079 81.008 17.2319
462.346327 81.018 17.3969
465.696680 81.030 17.5593
469.071310 81.043 17.7156
472.470394 81.057 17.8641
475.894109 81.071 18.0025
479.342634 81.084 18.1304
482.816148 81.096 18.2498
486.314833 81.105 18.3633
489.838871 81.113 18.4721
493.388445 81.119 18.5764
496.963741 81.125 18.6766
500.564945 81.132 18.7733
504.192245 81.139 18.8684
507.845830 81.148 18.9661
511.525890 81.158 19.0703
515.232618 81.170 19.1843
518.966206 81.184 19.3096
522.726849 81.199 19.4458
526.514743 81.216 19.5901
530.330086 81.233 19.7384
534.173076 81.249 19.8857
538.043915 81.264 20.0292
541.942803 81.278 20.1671
545.869944 81.290 20.2996
549.825542 81.300 20.4294
553.809805 81.309 20.5610
557.822939 81.318 20.6956
561.865154 81.327 20.8302
565.936660 81.336 20.9612
570.037671 81.348 21.0881
574.168399 81.360 21.2130
578.329060 81.373 21.3384
582.519870 81.385 21.4647
586.741049 81.396 21.5908
590.992817 81.405 21.7178
595.275394 81.412 21.8503
599.589005 81.418 21.9932
603.933874 81.423 22.1475
608.310228 81.428 22.3098
612.718295 81.434 22.4746
617.158304 81.440 22.6364
621.630488 81.448 22.7915
626.135079 81.457 22.9388
630.672311 81.468 23.0797
635.242423 81.481 23.2162
639.845651 81.492 23.3485
644.482237 81.503 23.4772
649.152421 81.510 23.6046
653.856447 81.515 23.7358
658.594560 81.516 23.8790
663.367008 81.518 24.0395
668.174039 81.520 24.2136
673.015903 81.525 24.3906
677.892854 81.532 24.5608
682.805145 81.541 24.7218
687.753032 81.551 24.8781
692.736774 81.559 25.0348
697.756631 81.566 25.1934
702.812863 81.572 25.3521
707.905735 81.577 25.5098
713.035511 81.583 25.6667
718.202461 81.589 25.8199
723.406852 81.595 25.9625
728.648956 81.602 26.0900
733.929047 81.608 26.2040
739.247399 81.615 26.3113
744.604290 81.622 26.4198
750.000000 81.629 26.5380
755.434809 81.637 26.6733
760.909001 81.647 26.8298
766.422861 81.659 27.0076
771.976677 81.672 27.2042
777.570739 81.687 27.4166
783.205337 81.701 27.6406
788.880766 81.714 27.8712
794.597321 81.725 28.1029
800.355301 81.733 28.3294
806.155005 81.739 28.5459
811.996736 81.745 28.7517
817.880799 81.753 28.9518
823.807501 81.764 29.1541
829.777150 81.778 29.3670
835.790057 81.795 29.5950
841.846536 81.814 29.8382
847.946903 81.834 30.0927
854.091476 81.855 30.3526
860.280575 81.876 30.6106
866.514523 81.897 30.8595
872.793644 81.916 31.0953
879.118267 81.935 31.3195
885.488720 81.953 31.5374
891.905336 81.970 31.7548
898.368450 81.987 31.9761
904.878398 82.005 32.2041
911.435520 82.025 32.4399
918.040157 82.047 32.6816
924.692655 82.070 32.9243
931.393359 82.095 33.1616
938.142619 82.122 33.3887
944.940787 82.150 33.6031
951.788218 82.177 33.8040
958.685268 82.204 33.9911
965.632296 82.229 34.1646
972.629666 82.253 34.3256
979.677741 82.276 34.4749
986.776890 82.299 34.6136
993.927482 82.322 34.7451
1001.129891 82.345 34.8768
1008.384491 82.368 35.0184
1015.691660 82.392 35.1780
1023.051781 82.417 35.3613
1030.465236 82.444 35.5710
1037.932411 82.473 35.8073
1045.453698 82.504 36.0678
1053.029486 82.539 36.3481
1060.660172 82.577 36.6422
1068.346153 82.618 36.9420
1076.087829 82.664 37.2368
1083.885605 82.714 37.5144
1091.739887 82.768 37.7622
1099.651084 82.825 37.9702
1107.619609 82.885 38.1344
1115.645878 82.948 38.2563
1123.730308 83.012 38.3405
1131.873321 83.076 38.3916
1140.075341 83.140 38.4124
1148.336797 83.201 38.4045
1156.658119 83.258 38.3694
1165.039741 83.310 38.3076
1173.482099 83.354 38.2197
1181.985634 83.392 38.1078
1190.550789 83.423 37.9779
1199.178011 83.448 37.8399
1207.867749 83.469 37.7070
1216.620457 83.486 37.5938
1225.436590 83.502 37.5131
1234.316609 83.517 37.4703
1243.260976 83.532 37.4617
1252.270157 83.547 37.4780
1261.344623 83.562 37.5096
1270.484846 83.577 37.5480
1279.691303 83.592 37.5857
1288.964474 83.608 37.6163
1298.304842 83.625 37.6349
1307.712894 83.644 37.6382
1317.189120 83.664 37.6248
1326.734016 83.685 37.5966
1336.348077 83.706 37.5569
1346.031806 83.727 37.5093
1355.785708 83.744 37.4551
1365.610290 83.757 37.3929
1375.506065 83.764 37.3188
1385.473549 83.765 37.2305
1395.513261 83.759 37.1303
1405.625726 83.747 37.0226
1415.811469 83.730 36.9125
1426.071023 83.708 36.8055
1436.404921 83.682 36.7086
1446.813703 83.653 36.6292
1457.297912 83.621 36.5744
1467.858093 83.586 36.5508
1478.494798 83.547 36.5653
1489.208581 83.504 36.6256
1500.000000 83.459 36.7412
1510.869618 83.412 36.9237
1521.818002 83.364 37.1852
1532.845723 83.316 37.5331
1543.953355 83.270 37.9654
1555.141477 83.226 38.4728
1566.410674 83.185 39.0436
1577.761531 83.146 39.6696
1589.194642 83.111 40.3462
1600.710601 83.081 41.0717
1612.310010 83.060 41.8479
1623.993473 83.049 42.6803
1635.761599 83.053 43.5744
1647.615002 83.076 44.5298
1659.554299 83.119 45.5336
1671.580114 83.185 46.5577
1683.693072 83.271 47.5638
1695.893807 83.374 48.5103
1708.182952 83.491 49.3580
1720.561150 83.618 50.0768
1733.029045 83.749 50.6514
1745.587288 83.881 51.0832
1758.236533 84.011 51.3864
1770.977440 84.137 51.5836
1783.810673 84.258 51.7015
1796.736900 84.374 51.7678
1809.756796 84.484 51.8078
1822.871040 84.590 51.8425
1836.080315 84.692 51.8892
1849.385310 84.792 51.9606
1862.786718 84.894 52.0634
1876.285239 84.999 52.1978
1889.881575 85.109 52.3569
1903.576436 85.225 52.5276
1917.370535 85.346 52.6909
1931.264593 85.471 52.8254
1945.259332 85.598 52.9108
1959.355483 85.727 52.9314
1973.553781 85.855 52.8777
1987.854965 85.983 52.7471
2002.259781 86.109 52.5442
2016.768981 86.233 52.2822
2031.383320 86.354 51.9790
2046.103561 86.472 51.6515
2060.930471 86.587 51.3105
2075.864823 86.697 50.9599
2090.907395 86.801 50.5980
2106.058972 86.899 50.2182
2121.320344 86.989 49.8114
2136.692305 87.072 49.3701
2152.175658 87.149 48.8914
2167.771210 87.220 48.3794
2183.479774 87.288 47.8464
2199.302169 87.352 47.3096
2215.239219 87.415 46.7849
2231.291755 87.477 46.2831
2247.460615 87.537 45.8065
2263.746641 87.597 45.3498
2280.150683 87.653 44.9030
2296.673595 87.705 44.4535
2313.316238 87.751 43.9886
2330.079481 87.790 43.4984
2346.964198 87.824 42.9789
2363.971268 87.853 42.4350
2381.101578 87.879 41.8803
2398.356022 87.902 41.3338
2415.735498 87.926 40.8138
2433.240913 87.951 40.3325
2450.873180 87.976 39.8923
2468.633217 88.002 39.4850
2486.521951 88.027 39.0937
2504.540314 88.050 38.6971
2522.689246 88.069 38.2755
2540.969692 88.085 37.8163
2559.382606 88.097 37.3162
2577.928947 88.107 36.7827
2596.609683 88.114 36.2324
2615.425787 88.120 35.6861
2634.378241 88.125 35.1623
2653.468031 88.128 34.6712
2672.696154 88.130 34.2125
2692.063613 88.130 33.7755
2711.571415 88.126 33.3421
2731.220579 88.118 32.8926
2751.012130 88.105 32.4128
2770.947098 88.087 31.8974
2791.026522 88.064 31.3495
2811.251451 88.037 30.7771
2831.622938 88.007 30.1903
2852.142045 87.975 29.5989
2872.809842 87.943 29.0107
2893.627406 87.910 28.4319
2914.595823 87.877 27.8692
2935.716186 87.842 27.3328
2956.989596 87.808 26.8344
2978.417161 87.773 26.3851
3000.000000 87.739 25.9929
3021.739237 87.706 25.6593
3043.636005 87.674 25.3781
3065.691446 87.640 25.1360
3087.906710 87.603 24.9153
3110.282955 87.564 24.6959
3132.821347 87.520 24.4592
3155.523062 87.474 24.1938
3178.389283 87.426 23.9014
3201.421202 87.376 23.5967
3224.620020 87.326 23.3036
3247.986946 87.276 23.0478
3271.523198 87.228 22.8498
3295.230004 87.181 22.7184
3319.108599 87.138 22.6477
3343.160228 87.098 22.6177
3367.386145 87.059 22.5989
3391.787613 87.022 22.5592
3416.365904 86.985 22.4719
3441.122300 86.947 22.3212
3466.058091 86.908 22.1034
3491.174576 86.870 21.8253
3516.473066 86.831 21.4999
3541.954880 86.792 21.1413
3567.621345 86.753 20.7621
3593.473800 86.713 20.3741
3619.513592 86.672 19.9899
3645.742080 86.629 19.6243
3672.160630 86.585 19.2953
3698.770620 86.541 19.0224
3725.573436 86.496 18.8206
3752.570477 86.453 18.6930
3779.763150 86.409 18.6283
3807.152872 86.365 18.6016
3834.741071 86.320 18.5812
3862.529185 86.271 18.5366
3890.518664 86.217 18.4470
3918.710966 86.158 18.3067
3947.107561 86.094 18.1261
3975.709929 86.028 17.9297
4004.519563 85.961 17.7510
4033.537962 85.894 17.6228
4062.766641 85.828 17.5688
4092.207123 85.765 17.5970
4121.860942 85.702 17.6974
4151.729646 85.641 17.8447
4181.814790 85.578 18.0050
4212.117944 85.513 18.1461
4242.640687 85.445 18.2468
4273.384610 85.375 18.3032
4304.351317 85.302 18.3293
4335.542421 85.230 18.3549
4366.959549 85.159 18.4171
4398.604338 85.090 18.5491
4430.478438 85.024 18.7710
4462.583511 84.961 19.0852
4494.921231 84.902 19.4761
4527.493283 84.845 19.9142
4560.301365 84.789 20.3636
4593.347189 84.735 20.7924
4626.632476 84.682 21.1820
4660.158962 84.631 21.5325
4693.928395 84.582 21.8631
4727.942535 84.538 22.2072
4762.203156 84.501 22.6024
4796.712043 84.471 23.0801
4831.470996 84.452 23.6546
4866.481826 84.442 24.3184
4901.746360 84.443 25.0440
4937.266434 84.454 25.7897
4973.043902 84.474 26.5076
5009.080628 84.503 27.1523
5045.378492 84.541 27.6898
5081.939384 84.589 28.1035
5118.765212 84.649 28.3944
5155.857894 84.721 28.5741
5193.219366 84.806 28.6541
5230.851574 84.903 28.6429
5268.756481 85.010 28.5461
5306.936062 85.127 28.3686
5345.392309 85.253 28.1174
5384.127225 85.384 27.8037
5423.142830 85.520 27.4410
5462.441159 85.658 27.0380
5502.024259 85.795 26.5910
5541.894195 85.928 26.0800
5582.053045 86.051 25.4722
5622.502902 86.163 24.7298
5663.245876 86.258 23.8196
5704.284090 86.333 22.7230
5745.619684 86.385 21.4435
5787.254813 86.412 20.0117
5829.191647 86.414 18.4817
5871.432373 86.390 16.9215
5913.979192 86.340 15.4006
5956.834323 86.265 13.9771
6000.000000 86.166 12.6880
6043.478473 86.042 11.5446
6087.272010 85.896 10.5353
6131.382892 85.727 9.6349
6175.813420 85.537 8.8164
6220.565910 85.327 8.0646
6265.642695 85.102 7.3857
6311.046124 84.866 6.8080
6356.778566 84.628 6.3693
6402.842404 84.394 6.0977
6449.240040 84.171 5.9954
6495.973891 83.959 6.0421
6543.046396 83.750 6.2201
6590.460007 83.537 6.5339
6638.217197 83.313 6.9977
6686.320456 83.081 7.6144
6734.772290 82.843 8.3703
6783.575226 82.606 9.2487
6832.731809 82.375 10.2487
6882.244600 82.157 11.3956
6932.116181 81.958 12.7379
6982.349153 81.785 14.3342
7032.946133 81.649 16.2305
7083.909760 81.557 18.4302
7135.242690 81.518 20.8743
7186.947600 81.536 23.4486
7239.027185 81.610 26.0252
7291.484160 81.737 28.5074
7344.321260 81.914 30.8360
7397.541239 82.147 32.9692
7451.146872 82.441 34.8683
7505.140954 82.800 36.4945
7559.526299 83.224 37.8052
7614.305743 83.707 38.7510
7669.482141 84.238 39.2718
7725.058371 84.800 39.2964
7781.037328 85.372 38.7477
7837.421932 85.932 37.5547
7894.215122 86.454 35.6689
7951.419859 86.917 33.0806
8009.039125 87.298 29.8297
8067.075924 87.581 26.0107
8125.533282 87.756 21.7709
8184.414245 87.818 17.2949
8243.721885 87.768 12.7790
8303.459292 87.617 8.4055
8363.629581 87.378 4.3267
8424.235888 87.068 0.6577
8485.281374 86.708 -2.5225
8546.769221 86.320 -5.1654
8608.702634 85.922 -7.2476
8671.084842 85.532 -8.7679
8733.919097 85.164 -9.7526
8797.208675 84.830 -10.2626
8860.956876 84.534 -10.3966
8925.167022 84.279 -10.2833
8989.842461 84.064 -10.0625
9054.986566 83.886 -9.8656
9120.602731 83.741 -9.7974
9186.694378 83.627 -9.9198
9253.264952 83.539 -10.2465
9320.317925 83.476 -10.7504
9387.856790 83.435 -11.3820
9455.885071 83.412 -12.0910
9524.406312 83.405 -12.8463
9593.424086 83.410 -13.6503
9662.941992 83.419 -14.5447
9732.963653 83.428 -15.6017
9803.492719 83.428 -16.9067
9874.532869 83.414 -18.5392
9946.087805 83.376 -20.5524
10018.161257 83.309 -22.9584
10090.756983 83.205 -25.7252
10163.878768 83.059 -28.7876
10237.530423 82.867 -32.0644
10311.715789 82.625 -35.4708
10386.438732 82.332 -38.9235
10461.703149 81.985 -42.3414
10537.512962 81.585 -45.6439
10613.872125 81.134 -48.7479
10690.784618 80.635 -51.5671
10768.254450 80.092 -54.0164
10846.285661 79.510 -56.0265
10924.882318 78.896 -57.5618
11004.048518 78.254 -58.6321
11083.788390 77.591 -59.2872
11164.106090 76.910 -59.6035
11245.005805 76.216 -59.6675
11326.491752 75.515 -59.5549
11408.568180 74.809 -59.3073
11491.239368 74.105 -58.9177
11574.509626 73.406 -58.3351
11658.383294 72.718 -57.4821
11742.864745 72.043 -56.2780
11827.958384 71.384 -54.6660
11913.668646 70.744 -52.6341
12000.000000 70.123 -50.2223
12086.956947 69.522 -47.5137
12174.544019 68.940 -44.6158
12262.765784 68.377 -41.6336
12351.626840 67.832 -38.6396
12441.131819 67.304 -35.6503
12531.285389 66.794 -32.6193
12622.092249 66.304 -29.4518
12713.557132 65.835 -26.0259
12805.684808 65.390 -22.2156
12898.480079 64.973 -17.9205
12991.947783 64.588 -13.0902
13086.092792 64.241 -7.7301
13180.920015 63.941 -1.8859
13276.434395 63.705 4.3768
13372.640911 63.552 10.9941
13469.544580 63.509 17.9247
13567.150452 63.611 25.1521
13665.463617 63.890 32.6528
13764.489200 64.373 40.3296
13864.232362 65.069 47.9575
13964.698305 65.963 55.1804
14065.892266 67.022 61.5699
14167.819519 68.198 66.7210
14270.485380 69.441 70.3347
14373.895200 70.702 72.2466
14478.054370 71.936 72.4170
14582.968320 73.104 70.9092
14688.642520 74.173 67.8746
14795.082478 75.114 63.5382
14902.293745 75.907 58.1763
15010.281908 76.536 52.0931
15119.052599 77.001 45.5993
15228.611486 77.310 38.9928
15338.964283 77.486 32.5345
15450.116741 77.560 26.4268
15562.074656 77.570 20.8014
15674.843864 77.551 15.7196
15788.430244 77.534 11.1739
15902.839718 77.542 7.0822
16018.078250 77.582 3.2828
16134.151848 77.652 -0.4521
16251.066563 77.734 -4.3768
16368.828491 77.803 -8.7220
16487.443769 77.829 -13.6532
16606.918584 77.780 -19.2377
16727.259161 77.629 -25.4178
16848.471777 77.352 -32.0060
16970.562748 76.936 -38.7146
17093.538442 76.378 -45.2119
17217.405268 75.685 -51.1766
17342.169684 74.873 -56.3490
17467.838194 73.966 -60.5701
17594.417350 72.988 -63.8018
17721.913751 71.968 -66.1166
17850.334044 70.930 -67.6714
17979.684923 69.897 -68.6773
18109.973131 68.888 -69.3610
18241.205462 67.919 -69.9182
18373.388756 66.998 -70.4855
18506.529905 66.134 -71.1456
18640.635849 65.326 -71.9478
18775.713581 64.573 -72.9244
18911.770141 63.866 -74.0989
19048.812624 63.195 -75.4819
19186.848172 62.547 -77.0592
19325.883983 61.912 -78.7800
19465.927305 61.289 -80.5513
19606.985439 60.690 -82.2419
19749.065738 60.150 -83.6976
19892.175609 59.728 -84.7686
20036.322514 59.494 -85.3369
