* Measurement data measured by REW V5.31.3
* Source: Headset (CX31993 HIFI AUDIO), MICROPHONE (Master Volume), R, volume: 0.250
* Format: 256k Log Swept Sine, 1 sweep at -12.0 dBFS with no timing reference
* Dated: 12 31, 24 12:55:34 PM
* REW Settings:
*  C-weighting compensation: Off
*  Target level: 75.0 dB
* Note: ; 
* Measurement: Sony LB Fit Relaxed L
* Smoothing: 1/12 octave
* Frequency Step: 96 ppo
* Start Frequency: 0.36621094 Hz
*
* Freq(Hz) SPL(dB) Phase(degrees)
0.366211 25.069 -101.7026
0.368865 25.103 -101.7908
0.371538 25.154 -101.9203
0.374230 25.217 -102.0785
0.376942 25.287 -102.2545
0.379673 25.363 -102.4404
0.382424 25.441 -102.6312
0.385196 25.522 -102.8237
0.387987 25.604 -103.0161
0.390798 25.687 -103.2076
0.393630 25.770 -103.3976
0.396483 25.855 -103.5860
0.399356 25.940 -103.7725
0.402250 26.025 -103.9572
0.405165 26.112 -104.1402
0.408101 26.199 -104.3214
0.411058 26.286 -104.5010
0.414037 26.374 -104.6789
0.417037 26.463 -104.8553
0.420059 26.553 -105.0302
0.423103 26.643 -105.2037
0.426169 26.734 -105.3759
0.429257 26.825 -105.5468
0.432368 26.917 -105.7166
0.435501 27.010 -105.8853
0.438656 27.103 -106.0530
0.441835 27.197 -106.2197
0.445037 27.292 -106.3857
0.448262 27.388 -106.5509
0.451510 27.484 -106.7154
0.454782 27.581 -106.8794
0.458077 27.678 -107.0430
0.461397 27.777 -107.2062
0.464740 27.876 -107.3691
0.468108 27.975 -107.5319
0.471500 28.076 -107.6946
0.474917 28.177 -107.8574
0.478358 28.279 -108.0202
0.481825 28.382 -108.1834
0.485316 28.485 -108.3468
0.488833 28.589 -108.5107
0.492375 28.694 -108.6752
0.495943 28.800 -108.8402
0.499537 28.906 -109.0061
0.503157 29.013 -109.1728
0.506803 29.121 -109.3405
0.510475 29.230 -109.5092
0.514175 29.340 -109.6791
0.517900 29.450 -109.8503
0.521653 29.561 -110.0228
0.525434 29.673 -110.1968
0.529241 29.786 -110.3724
0.533076 29.899 -110.5497
0.536939 30.014 -110.7288
0.540830 30.129 -110.9097
0.544749 30.245 -111.0927
0.548696 30.362 -111.2777
0.552673 30.480 -111.4650
0.556677 30.598 -111.6545
0.560711 30.718 -111.8463
0.564774 30.838 -112.0407
0.568867 30.959 -112.2376
0.572989 31.082 -112.4372
0.577141 31.205 -112.6396
0.581324 31.328 -112.8448
0.585536 31.453 -113.0529
0.589779 31.579 -113.2641
0.594053 31.705 -113.4783
0.598358 31.833 -113.6958
0.602694 31.961 -113.9166
0.607061 32.091 -114.1407
0.611460 32.221 -114.3682
0.615891 32.352 -114.5993
0.620354 32.485 -114.8340
0.624849 32.618 -115.0723
0.629377 32.752 -115.3144
0.633938 32.887 -115.5604
0.638532 33.023 -115.8102
0.643159 33.160 -116.0639
0.647819 33.298 -116.3217
0.652514 33.437 -116.5835
0.657242 33.578 -116.8495
0.662005 33.719 -117.1197
0.666802 33.861 -117.3941
0.671634 34.004 -117.6729
0.676501 34.148 -117.9560
0.681403 34.293 -118.2434
0.686341 34.440 -118.5353
0.691314 34.587 -118.8317
0.696324 34.735 -119.1324
0.701370 34.884 -119.4376
0.706452 35.034 -119.7469
0.711571 35.183 -120.0603
0.716728 35.333 -120.3773
0.721921 35.482 -120.6971
0.727153 35.630 -121.0188
0.732422 35.775 -121.3409
0.737729 35.918 -121.6619
0.743075 36.059 -121.9802
0.748460 36.198 -122.2946
0.753883 36.336 -122.6043
0.759346 36.473 -122.9089
0.764849 36.610 -123.2083
0.770391 36.747 -123.5026
0.775974 36.884 -123.7918
0.781597 37.021 -124.0764
0.787261 37.158 -124.3564
0.792966 37.295 -124.6323
0.798712 37.433 -124.9044
0.804500 37.570 -125.1729
0.810329 37.708 -125.4381
0.816201 37.846 -125.7005
0.822116 37.984 -125.9602
0.828073 38.123 -126.2176
0.834074 38.261 -126.4729
0.840118 38.400 -126.7266
0.846206 38.539 -126.9788
0.852338 38.678 -127.2300
0.858514 38.817 -127.4803
0.864735 38.956 -127.7300
0.871001 39.096 -127.9795
0.877313 39.236 -128.2290
0.883670 39.376 -128.4787
0.890074 39.516 -128.7290
0.896524 39.656 -128.9802
0.903020 39.797 -129.2324
0.909564 39.938 -129.4860
0.916155 40.079 -129.7411
0.922794 40.220 -129.9981
0.929481 40.362 -130.2572
0.936216 40.503 -130.5186
0.943000 40.645 -130.7826
0.949834 40.788 -131.0494
0.956717 40.930 -131.3192
0.963649 41.073 -131.5922
0.970632 41.216 -131.8688
0.977666 41.359 -132.1490
0.984750 41.503 -132.4332
0.991886 41.647 -132.7215
0.999074 41.792 -133.0141
1.006314 41.936 -133.3113
1.013606 42.081 -133.6132
1.020951 42.227 -133.9200
1.028349 42.373 -134.2319
1.035801 42.519 -134.5491
1.043307 42.666 -134.8718
1.050867 42.813 -135.2000
1.058482 42.961 -135.5338
1.066152 43.109 -135.8732
1.073878 43.257 -136.2179
1.081660 43.406 -136.5675
1.089498 43.555 -136.9214
1.097393 43.705 -137.2784
1.105345 43.854 -137.6373
1.113355 44.004 -137.9969
1.121423 44.154 -138.3559
1.129549 44.304 -138.7136
1.137734 44.454 -139.0697
1.145979 44.604 -139.4238
1.154283 44.753 -139.7760
1.162647 44.903 -140.1263
1.171072 45.052 -140.4748
1.179558 45.202 -140.8218
1.188106 45.351 -141.1674
1.196715 45.500 -141.5118
1.205387 45.649 -141.8552
1.214122 45.798 -142.1979
1.222920 45.947 -142.5401
1.231782 46.096 -142.8819
1.240708 46.245 -143.2236
1.249699 46.394 -143.5655
1.258754 46.542 -143.9077
1.267876 46.691 -144.2505
1.277063 46.840 -144.5941
1.286318 46.989 -144.9387
1.295639 47.137 -145.2847
1.305027 47.286 -145.6321
1.314484 47.435 -145.9812
1.324009 47.584 -146.3324
1.333604 47.733 -146.6857
1.343268 47.882 -147.0414
1.353002 48.031 -147.3998
1.362806 48.180 -147.7611
1.372681 48.330 -148.1255
1.382628 48.479 -148.4933
1.392647 48.629 -148.8645
1.402739 48.779 -149.2395
1.412904 48.930 -149.6183
1.423142 49.080 -150.0009
1.433455 49.231 -150.3874
1.443843 49.382 -150.7773
1.454305 49.533 -151.1702
1.464844 49.684 -151.5653
1.475459 49.835 -151.9616
1.486150 49.986 -152.3582
1.496920 50.137 -152.7543
1.507767 50.287 -153.1495
1.518693 50.438 -153.5435
1.529698 50.588 -153.9365
1.540783 50.737 -154.3285
1.551948 50.886 -154.7197
1.563194 51.035 -155.1104
1.574521 51.184 -155.5010
1.585931 51.332 -155.8916
1.597423 51.481 -156.2827
1.608999 51.628 -156.6745
1.620658 51.776 -157.0674
1.632402 51.923 -157.4618
1.644232 52.070 -157.8579
1.656146 52.217 -158.2561
1.668147 52.364 -158.6568
1.680235 52.511 -159.0602
1.692411 52.657 -159.4667
1.704675 52.804 -159.8767
1.717028 52.950 -160.2905
1.729470 53.096 -160.7084
1.742003 53.242 -161.1307
1.754626 53.388 -161.5578
1.767341 53.534 -161.9900
1.780147 53.681 -162.4273
1.793047 53.827 -162.8700
1.806040 53.973 -163.3180
1.819128 54.119 -163.7711
1.832310 54.265 -164.2289
1.845587 54.410 -164.6907
1.858961 54.556 -165.1558
1.872432 54.700 -165.6237
1.886001 54.845 -166.0939
1.899667 54.989 -166.5659
1.913433 55.132 -167.0396
1.927299 55.275 -167.5146
1.941265 55.418 -167.9910
1.955332 55.559 -168.4685
1.969501 55.701 -168.9473
1.983773 55.842 -169.4272
1.998148 55.983 -169.9083
2.012627 56.123 -170.3906
2.027212 56.263 -170.8742
2.041902 56.402 -171.3591
2.056698 56.542 -171.8455
2.071602 56.680 -172.3335
2.086614 56.819 -172.8233
2.101734 56.957 -173.3149
2.116964 57.096 -173.8086
2.132304 57.234 -174.3046
2.147756 57.371 -174.8030
2.163320 57.509 -175.3041
2.178996 57.646 -175.8080
2.194786 57.783 -176.3149
2.210690 57.920 -176.8247
2.226710 58.056 -177.3374
2.242845 58.191 -177.8528
2.259098 58.326 -178.3707
2.275468 58.461 -178.8909
2.291957 58.594 -179.4130
2.308566 58.727 -179.9368
2.325295 58.860 179.5380
2.342145 58.991 179.0115
2.359117 59.123 178.4840
2.376212 59.253 177.9556
2.393431 59.383 177.4265
2.410775 59.513 176.8968
2.428244 59.642 176.3666
2.445840 59.771 175.8359
2.463564 59.899 175.3048
2.481416 60.027 174.7731
2.499397 60.155 174.2409
2.517509 60.282 173.7079
2.535752 60.409 173.1738
2.554127 60.536 172.6385
2.572635 60.662 172.1014
2.591277 60.787 171.5623
2.610055 60.912 171.0211
2.628968 61.036 170.4776
2.648019 61.159 169.9321
2.667208 61.282 169.3848
2.686535 61.404 168.8360
2.706003 61.525 168.2861
2.725612 61.646 167.7354
2.745363 61.766 167.1842
2.765257 61.885 166.6329
2.785295 62.004 166.0818
2.805478 62.122 165.5311
2.825808 62.240 164.9811
2.846285 62.357 164.4318
2.866910 62.474 163.8832
2.887685 62.591 163.3354
2.908611 62.707 162.7881
2.929688 62.823 162.2408
2.950917 62.938 161.6931
2.972301 63.053 161.1446
2.993839 63.167 160.5951
3.015534 63.280 160.0445
3.037386 63.392 159.4929
3.059396 63.504 158.9407
3.081565 63.615 158.3881
3.103896 63.725 157.8356
3.126388 63.835 157.2833
3.149043 63.944 156.7319
3.171862 64.053 156.1815
3.194847 64.162 155.6324
3.217998 64.270 155.0849
3.241317 64.377 154.5391
3.264805 64.485 153.9948
3.288463 64.592 153.4520
3.312293 64.698 152.9102
3.336295 64.804 152.3690
3.360471 64.910 151.8282
3.384822 65.015 151.2877
3.409350 65.119 150.7472
3.434056 65.223 150.2070
3.458940 65.326 149.6672
3.484005 65.429 149.1281
3.509252 65.531 148.5897
3.534681 65.633 148.0524
3.560295 65.735 147.5163
3.586094 65.836 146.9816
3.612081 65.937 146.4484
3.638255 66.038 145.9165
3.664620 66.139 145.3860
3.691175 66.240 144.8565
3.717923 66.340 144.3279
3.744864 66.439 143.7999
3.772001 66.539 143.2725
3.799335 66.637 142.7455
3.826866 66.736 142.2189
3.854597 66.834 141.6927
3.882529 66.932 141.1670
3.910664 67.030 140.6417
3.939002 67.128 140.1168
3.967546 67.225 139.5923
3.996296 67.322 139.0682
4.025255 67.419 138.5445
4.054423 67.516 138.0210
4.083804 67.613 137.4976
4.113396 67.709 136.9742
4.143204 67.806 136.4507
4.173227 67.901 135.9270
4.203468 67.997 135.4029
4.233928 68.093 134.8783
4.264609 68.188 134.3531
4.295512 68.283 133.8271
4.326639 68.378 133.3003
4.357992 68.472 132.7724
4.389572 68.566 132.2433
4.421380 68.660 131.7130
4.453419 68.754 131.1812
4.485691 68.848 130.6480
4.518196 68.941 130.1135
4.550936 69.034 129.5775
4.583914 69.126 129.0402
4.617131 69.218 128.5015
4.650589 69.310 127.9614
4.684289 69.401 127.4198
4.718233 69.492 126.8765
4.752424 69.582 126.3313
4.786862 69.672 125.7841
4.821549 69.761 125.2346
4.856488 69.850 124.6830
4.891680 69.938 124.1294
4.927127 70.026 123.5740
4.962831 70.113 123.0172
4.998794 70.199 122.4592
5.035017 70.285 121.9002
5.071503 70.370 121.3403
5.108253 70.454 120.7794
5.145270 70.537 120.2173
5.182555 70.620 119.6537
5.220110 70.701 119.0887
5.257937 70.782 118.5224
5.296038 70.862 117.9554
5.334415 70.942 117.3882
5.373071 71.020 116.8214
5.412006 71.097 116.2554
5.451224 71.174 115.6906
5.490725 71.249 115.1268
5.530514 71.324 114.5641
5.570590 71.398 114.0022
5.610957 71.471 113.4413
5.651616 71.543 112.8816
5.692570 71.613 112.3237
5.733821 71.684 111.7683
5.775370 71.753 111.2159
5.817221 71.822 110.6671
5.859375 71.889 110.1219
5.901834 71.956 109.5804
5.944602 72.023 109.0424
5.987679 72.088 108.5079
6.031068 72.153 107.9770
6.074771 72.217 107.4500
6.118792 72.281 106.9273
6.163131 72.345 106.4091
6.207792 72.408 105.8958
6.252776 72.471 105.3872
6.298086 72.533 104.8835
6.343725 72.596 104.3843
6.389694 72.658 103.8893
6.435996 72.720 103.3983
6.482634 72.782 102.9109
6.529610 72.844 102.4272
6.576926 72.907 101.9468
6.624585 72.969 101.4698
6.672590 73.032 100.9958
6.720942 73.095 100.5244
6.769645 73.159 100.0550
6.818700 73.222 99.5869
6.868111 73.286 99.1195
6.917881 73.351 98.6520
6.968010 73.416 98.1841
7.018504 73.481 97.7154
7.069362 73.547 97.2457
7.120590 73.613 96.7743
7.172189 73.679 96.3006
7.224161 73.746 95.8239
7.276511 73.812 95.3436
7.329239 73.879 94.8591
7.382350 73.946 94.3701
7.435845 74.013 93.8765
7.489729 74.080 93.3781
7.544002 74.147 92.8748
7.598669 74.213 92.3665
7.653732 74.279 91.8528
7.709194 74.344 91.3338
7.765058 74.408 90.8093
7.821327 74.472 90.2797
7.878004 74.535 89.7454
7.935091 74.598 89.2069
7.992592 74.659 88.6647
8.050510 74.719 88.1193
8.108847 74.778 87.5710
8.167607 74.836 87.0201
8.226793 74.892 86.4674
8.286408 74.948 85.9137
8.346454 75.002 85.3600
8.406936 75.054 84.8071
8.467856 75.106 84.2556
8.529218 75.157 83.7058
8.591024 75.206 83.1583
8.653278 75.254 82.6138
8.715983 75.302 82.0730
8.779143 75.348 81.5364
8.842760 75.394 81.0045
8.906839 75.439 80.4772
8.971381 75.484 79.9546
9.036392 75.529 79.4366
9.101873 75.573 78.9230
9.167829 75.617 78.4138
9.234263 75.661 77.9086
9.301178 75.706 77.4069
9.368578 75.750 76.9078
9.436467 75.795 76.4104
9.504847 75.840 75.9139
9.573723 75.886 75.4175
9.643099 75.932 74.9203
9.712976 75.979 74.4215
9.783361 76.025 73.9199
9.854255 76.072 73.4146
9.925663 76.119 72.9046
9.997588 76.166 72.3895
10.070035 76.213 71.8689
10.143007 76.259 71.3423
10.216507 76.305 70.8096
10.290540 76.350 70.2707
10.365109 76.394 69.7258
10.440219 76.437 69.1755
10.515873 76.479 68.6207
10.592076 76.519 68.0623
10.668830 76.557 67.5015
10.746141 76.594 66.9393
10.824012 76.629 66.3773
10.902447 76.662 65.8172
10.981451 76.693 65.2608
11.061027 76.722 64.7097
11.141180 76.750 64.1653
11.221913 76.776 63.6291
11.303232 76.800 63.1028
11.385140 76.824 62.5874
11.467641 76.847 62.0840
11.550741 76.869 61.5929
11.634442 76.891 61.1143
11.718750 76.914 60.6482
11.803669 76.937 60.1940
11.889203 76.960 59.7506
11.975357 76.985 59.3164
12.062136 77.012 58.8896
12.149543 77.040 58.4681
12.237583 77.070 58.0496
12.326262 77.102 57.6313
12.415583 77.135 57.2106
12.505552 77.170 56.7847
12.596172 77.207 56.3514
12.687449 77.244 55.9085
12.779387 77.283 55.4541
12.871992 77.321 54.9869
12.965268 77.360 54.5060
13.059220 77.397 54.0115
13.153852 77.434 53.5038
13.249170 77.469 52.9837
13.345179 77.502 52.4531
13.441884 77.533 51.9141
13.539289 77.561 51.3694
13.637401 77.586 50.8222
13.736223 77.608 50.2754
13.835761 77.627 49.7326
13.936021 77.643 49.1971
14.037007 77.657 48.6718
14.138725 77.668 48.1596
14.241180 77.678 47.6624
14.344377 77.687 47.1821
14.448323 77.694 46.7191
14.553021 77.702 46.2735
14.658478 77.711 45.8441
14.764700 77.720 45.4292
14.871691 77.731 45.0261
14.979457 77.744 44.6314
15.088005 77.758 44.2415
15.197339 77.775 43.8524
15.307465 77.794 43.4601
15.418389 77.815 43.0608
15.530117 77.836 42.6515
15.642655 77.858 42.2299
15.756008 77.881 41.7944
15.870182 77.902 41.3446
15.985184 77.923 40.8813
16.101019 77.941 40.4061
16.217694 77.957 39.9217
16.335214 77.971 39.4315
16.453586 77.981 38.9395
16.572815 77.988 38.4499
16.692909 77.992 37.9666
16.813872 77.994 37.4936
16.935713 77.993 37.0339
17.058436 77.991 36.5897
17.182048 77.988 36.1621
17.306556 77.985 35.7511
17.431967 77.982 35.3554
17.558286 77.980 34.9729
17.685521 77.980 34.6003
17.813677 77.981 34.2340
17.942762 77.984 33.8703
18.072783 77.988 33.5056
18.203746 77.993 33.1369
18.335658 77.999 32.7622
18.468526 78.006 32.3805
18.602356 78.011 31.9921
18.737156 78.016 31.5983
18.872934 78.020 31.2010
19.009695 78.023 30.8031
19.147447 78.024 30.4073
19.286197 78.024 30.0161
19.425953 78.023 29.6312
19.566721 78.023 29.2534
19.708510 78.022 28.8821
19.851326 78.023 28.5157
19.995177 78.024 28.1512
20.140070 78.027 27.7852
20.286013 78.031 27.4139
20.433014 78.035 27.0341
20.581080 78.040 26.6432
20.730219 78.043 26.2402
20.880439 78.046 25.8259
21.031747 78.046 25.4030
21.184152 78.043 24.9755
21.337661 78.037 24.5491
21.492282 78.027 24.1299
21.648024 78.015 23.7240
21.804895 78.000 23.3365
21.962902 77.984 22.9708
22.122054 77.968 22.6283
22.282360 77.953 22.3077
22.443827 77.940 22.0051
22.606464 77.930 21.7147
22.770280 77.923 21.4294
22.935283 77.919 21.1415
23.101481 77.918 20.8441
23.268884 77.918 20.5319
23.437500 77.918 20.2018
23.607338 77.917 19.8538
23.778406 77.915 19.4901
23.950714 77.909 19.1158
24.124271 77.900 18.7374
24.299086 77.887 18.3622
24.475167 77.871 17.9976
24.652524 77.851 17.6499
24.831166 77.830 17.3239
25.011103 77.808 17.0220
25.192344 77.786 16.7444
25.374898 77.766 16.4886
25.558775 77.748 16.2503
25.743984 77.732 16.0227
25.930536 77.721 15.7983
26.118439 77.712 15.5687
26.307704 77.707 15.3260
26.498341 77.703 15.0632
26.690359 77.700 14.7753
26.883768 77.696 14.4598
27.078579 77.690 14.1178
27.274801 77.680 13.7535
27.472446 77.665 13.3746
27.671522 77.643 12.9915
27.872042 77.616 12.6161
28.074014 77.582 12.2609
28.277450 77.544 11.9362
28.482360 77.503 11.6495
28.688755 77.461 11.4035
28.896645 77.421 11.1955
29.106042 77.383 11.0179
29.316957 77.350 10.8595
29.529400 77.322 10.7076
29.743382 77.297 10.5506
29.958915 77.275 10.3802
30.176009 77.254 10.1930
30.394677 77.233 9.9901
30.614929 77.210 9.7767
30.836778 77.185 9.5601
31.060234 77.159 9.3467
31.285309 77.131 9.1411
31.512015 77.104 8.9437
31.740364 77.077 8.7520
31.970368 77.052 8.5602
32.202039 77.027 8.3629
32.435388 77.003 8.1561
32.670428 76.978 7.9391
32.907171 76.950 7.7156
33.145630 76.920 7.4924
33.385817 76.886 7.2783
33.627745 76.850 7.0819
33.871425 76.813 6.9092
34.116871 76.775 6.7625
34.364096 76.740 6.6399
34.613113 76.706 6.5358
34.863934 76.676 6.4423
35.116572 76.650 6.3510
35.371041 76.625 6.2542
35.627354 76.603 6.1466
35.885525 76.581 6.0255
36.145566 76.559 5.8912
36.407492 76.535 5.7465
36.671316 76.509 5.5966
36.937051 76.481 5.4480
37.204712 76.450 5.3080
37.474313 76.416 5.1826
37.745867 76.381 5.0758
38.019389 76.347 4.9886
38.294893 76.313 4.9186
38.572394 76.281 4.8605
38.851905 76.251 4.8075
39.133442 76.224 4.7530
39.417019 76.198 4.6916
39.702651 76.172 4.6199
39.990353 76.147 4.5367
40.280140 76.121 4.4422
40.572026 76.094 4.3383
40.866028 76.066 4.2283
41.162160 76.035 4.1174
41.460438 76.002 4.0121
41.760877 75.968 3.9187
42.063494 75.932 3.8422
42.368303 75.898 3.7830
42.675322 75.864 3.7369
42.984565 75.834 3.6961
43.296048 75.804 3.6530
43.609789 75.775 3.6040
43.925804 75.745 3.5529
44.244108 75.713 3.5101
44.564719 75.678 3.4884
44.887654 75.643 3.4969
45.212928 75.610 3.5358
45.540560 75.581 3.5950
45.870565 75.557 3.6583
46.202962 75.535 3.7103
46.537768 75.515 3.7437
46.875000 75.492 3.7615
47.214676 75.466 3.7753
47.556813 75.437 3.7990
47.901429 75.406 3.8417
48.248542 75.375 3.9045
48.598171 75.345 3.9810
48.950334 75.317 4.0615
49.305048 75.290 4.1379
49.662333 75.262 4.2069
50.022206 75.235 4.2700
50.384688 75.206 4.3316
50.749796 75.176 4.3962
51.117550 75.147 4.4663
51.487969 75.117 4.5422
51.861072 75.089 4.6224
52.236879 75.063 4.7047
52.615409 75.037 4.7873
52.996681 75.013 4.8688
53.380717 74.991 4.9484
53.767536 74.969 5.0248
54.157158 74.948 5.0975
54.549603 74.928 5.1663
54.944892 74.907 5.2329
55.343045 74.884 5.3013
55.744084 74.861 5.3765
56.148028 74.836 5.4634
56.554900 74.811 5.5654
56.964720 74.786 5.6841
57.377510 74.760 5.8205
57.793291 74.735 5.9753
58.212085 74.712 6.1489
58.633914 74.691 6.3389
59.058799 74.673 6.5399
59.486764 74.658 6.7429
59.917829 74.647 6.9391
60.352019 74.638 7.1234
60.789354 74.629 7.2963
61.229859 74.620 7.4628
61.673556 74.611 7.6286
62.120468 74.601 7.7970
62.570618 74.591 7.9697
63.024031 74.580 8.1491
63.480729 74.568 8.3396
63.940736 74.554 8.5469
64.404077 74.540 8.7761
64.870776 74.525 9.0322
65.340856 74.511 9.3212
65.814343 74.500 9.6453
66.291261 74.495 9.9931
66.771635 74.498 10.3335
67.255489 74.509 10.6242
67.742850 74.522 10.8353
68.233743 74.529 10.9708
68.728193 74.527 11.0689
69.226226 74.514 11.1793
69.727867 74.498 11.3345
70.233144 74.484 11.5349
70.742083 74.476 11.7532
71.254709 74.476 11.9535
71.771050 74.480 12.1116
72.291132 74.483 12.2261
72.814984 74.484 12.3158
73.342631 74.480 12.4054
73.874102 74.475 12.5116
74.409424 74.469 12.6378
74.948626 74.465 12.7787
75.491734 74.461 12.9291
76.038779 74.459 13.0867
76.589787 74.457 13.2524
77.144788 74.456 13.4275
77.703811 74.456 13.6126
78.266885 74.458 13.8066
78.834039 74.462 14.0062
79.405303 74.469 14.2063
79.980706 74.478 14.4032
80.560280 74.489 14.5952
81.144053 74.500 14.7823
81.732056 74.513 14.9653
82.324320 74.526 15.1445
82.920876 74.539 15.3204
83.521755 74.553 15.4943
84.126988 74.565 15.6680
84.736607 74.577 15.8447
85.350643 74.589 16.0269
85.969129 74.601 16.2151
86.592097 74.614 16.4077
87.219579 74.627 16.6023
87.851608 74.641 16.7972
88.488217 74.656 16.9911
89.129439 74.671 17.1817
89.775308 74.687 17.3658
90.425856 74.702 17.5412
91.081119 74.717 17.7083
91.741131 74.729 17.8702
92.405925 74.740 18.0311
93.075536 74.750 18.1935
93.750000 74.759 18.3581
94.429351 74.767 18.5248
95.113625 74.776 18.6926
95.802858 74.785 18.8598
96.497085 74.794 19.0250
97.196342 74.803 19.1891
97.900667 74.811 19.3568
98.610096 74.817 19.5361
99.324665 74.821 19.7372
100.044413 74.824 19.9689
100.769376 74.827 20.2354
101.499592 74.831 20.5357
102.235100 74.838 20.8676
102.975938 74.849 21.2285
103.722144 74.866 21.6120
104.473757 74.891 22.0066
105.230817 74.925 22.3981
105.993363 74.966 22.7756
106.761435 75.013 23.1354
107.535072 75.066 23.4791
108.314315 75.123 23.8095
109.099206 75.183 24.1260
109.889783 75.246 24.4235
110.686090 75.312 24.6941
111.488167 75.378 24.9289
112.296056 75.443 25.1216
113.109800 75.506 25.2728
113.929440 75.566 25.3898
114.755020 75.624 25.4844
115.586582 75.680 25.5677
116.424170 75.735 25.6459
117.267827 75.791 25.7170
118.117598 75.846 25.7733
118.973527 75.899 25.8053
119.835658 75.947 25.8130
120.704037 75.989 25.8083
121.578708 76.027 25.8062
122.459718 76.062 25.8120
123.347111 76.098 25.8243
124.240935 76.136 25.8395
125.141236 76.179 25.8545
126.048061 76.225 25.8689
126.961458 76.274 25.8851
127.881473 76.325 25.9070
128.808154 76.375 25.9373
129.741551 76.424 25.9764
130.681712 76.471 26.0227
131.628686 76.517 26.0715
132.582521 76.564 26.1130
133.543269 76.613 26.1318
134.510979 76.665 26.1125
135.485701 76.719 26.0497
136.467486 76.774 25.9538
137.456386 76.829 25.8417
138.452451 76.883 25.7271
139.455735 76.936 25.6191
140.466288 76.987 25.5234
141.484165 77.036 25.4413
142.509418 77.082 25.3707
143.542100 77.128 25.3083
144.582265 77.172 25.2491
145.629968 77.217 25.1854
146.685262 77.263 25.1095
147.748204 77.308 25.0170
148.818849 77.352 24.9100
149.897251 77.394 24.7928
150.983469 77.435 24.6689
152.077557 77.476 24.5388
153.179574 77.516 24.4012
154.289576 77.556 24.2566
155.407622 77.595 24.1080
156.533770 77.635 23.9600
157.668078 77.675 23.8154
158.810606 77.716 23.6732
159.961413 77.757 23.5280
161.120559 77.799 23.3736
162.288105 77.840 23.2062
163.464112 77.880 23.0247
164.648640 77.920 22.8304
165.841752 77.958 22.6260
167.043510 77.996 22.4148
168.253976 78.034 22.2014
169.473213 78.071 21.9901
170.701286 78.109 21.7831
171.938258 78.146 21.5807
173.184194 78.182 21.3807
174.439158 78.217 21.1781
175.703216 78.249 20.9673
176.976434 78.279 20.7438
178.258878 78.307 20.5060
179.550615 78.333 20.2549
180.851713 78.359 19.9941
182.162239 78.384 19.7285
183.482262 78.409 19.4628
184.811850 78.435 19.2002
186.151073 78.460 18.9401
187.500000 78.484 18.6799
188.858702 78.507 18.4176
190.227250 78.528 18.1523
191.605715 78.548 17.8849
192.994169 78.568 17.6167
194.392685 78.586 17.3479
195.801334 78.604 17.0768
197.220191 78.621 16.8004
198.649330 78.638 16.5149
200.088825 78.653 16.2163
201.538751 78.667 15.9017
202.999184 78.679 15.5711
204.470200 78.689 15.2302
205.951875 78.696 14.8893
207.444287 78.701 14.5570
208.947514 78.704 14.2379
210.461634 78.706 13.9333
211.986726 78.707 13.6422
213.522869 78.706 13.3611
215.070144 78.704 13.0854
216.628631 78.700 12.8109
218.198411 78.694 12.5345
219.779567 78.687 12.2561
221.372180 78.679 11.9773
222.976334 78.670 11.7015
224.592112 78.660 11.4338
226.219600 78.648 11.1793
227.858880 78.635 10.9406
229.510039 78.621 10.7156
231.173164 78.604 10.4978
232.848340 78.587 10.2795
234.535655 78.568 10.0563
236.235197 78.549 9.8287
237.947054 78.529 9.6018
239.671317 78.509 9.3821
241.408074 78.488 9.1724
243.157416 78.466 8.9684
244.919435 78.443 8.7629
246.694223 78.419 8.5515
248.481871 78.394 8.3367
250.282473 78.369 8.1255
252.096123 78.343 7.9254
253.922915 78.317 7.7395
255.762945 78.291 7.5660
257.616309 78.265 7.4009
259.483103 78.238 7.2416
261.363424 78.211 7.0895
263.257372 78.183 6.9490
265.165043 78.155 6.8228
267.086538 78.125 6.7083
269.021957 78.094 6.5978
270.971401 78.063 6.4843
272.934972 78.030 6.3683
274.912771 77.997 6.2577
276.904902 77.962 6.1608
278.911469 77.927 6.0807
280.932577 77.893 6.0148
282.968330 77.858 5.9581
285.018835 77.823 5.9059
287.084199 77.788 5.8558
289.164530 77.752 5.8078
291.259935 77.715 5.7637
293.370525 77.678 5.7249
295.496408 77.642 5.6917
297.637697 77.606 5.6635
299.794503 77.570 5.6406
301.966937 77.536 5.6251
304.155114 77.502 5.6182
306.359147 77.469 5.6194
308.579152 77.436 5.6272
310.815244 77.402 5.6414
313.067539 77.367 5.6647
315.336156 77.332 5.7012
317.621211 77.296 5.7519
319.922826 77.259 5.8142
322.241118 77.223 5.8848
324.576210 77.187 5.9628
326.928223 77.153 6.0494
329.297280 77.120 6.1466
331.683504 77.089 6.2539
334.087019 77.058 6.3690
336.507952 77.028 6.4888
338.946427 76.997 6.6104
341.402572 76.967 6.7316
343.876516 76.936 6.8543
346.368387 76.907 6.9822
348.878315 76.877 7.1193
351.406431 76.848 7.2687
353.952867 76.820 7.4315
356.517756 76.792 7.6047
359.101230 76.767 7.7812
361.703426 76.744 7.9552
364.324478 76.722 8.1260
366.964523 76.700 8.2972
369.623699 76.679 8.4734
372.302145 76.656 8.6581
375.000000 76.633 8.8553
377.717405 76.609 9.0674
380.454501 76.587 9.2919
383.211431 76.567 9.5226
385.988339 76.549 9.7551
388.785369 76.532 9.9882
391.602668 76.515 10.2210
394.440383 76.497 10.4521
397.298660 76.480 10.6810
400.177650 76.463 10.9095
403.077502 76.447 11.1415
405.998368 76.433 11.3820
408.940400 76.420 11.6385
411.903750 76.410 11.9196
414.888575 76.402 12.2299
417.895028 76.397 12.5657
420.923268 76.394 12.9161
423.973452 76.395 13.2683
427.045738 76.399 13.6122
430.140287 76.407 13.9396
433.257261 76.418 14.2448
436.396822 76.433 14.5253
439.559133 76.451 14.7828
442.744360 76.471 15.0208
445.952668 76.492 15.2437
449.184225 76.513 15.4553
452.439199 76.532 15.6583
455.717760 76.550 15.8540
459.020079 76.565 16.0430
462.346327 76.578 16.2259
465.696680 76.589 16.4059
469.071310 76.599 16.5865
472.470394 76.608 16.7691
475.894109 76.618 16.9513
479.342634 76.628 17.1284
482.816148 76.640 17.2972
486.314833 76.654 17.4598
489.838871 76.671 17.6234
493.388445 76.690 17.7954
496.963741 76.710 17.9783
500.564945 76.731 18.1683
504.192245 76.752 18.3583
507.845830 76.772 18.5413
511.525890 76.791 18.7145
515.232618 76.809 18.8787
518.966206 76.826 19.0360
522.726849 76.841 19.1888
526.514743 76.856 19.3386
530.330086 76.872 19.4857
534.173076 76.889 19.6298
538.043915 76.909 19.7693
541.942803 76.931 19.9027
545.869944 76.955 20.0291
549.825542 76.980 20.1466
553.809805 77.006 20.2534
557.822939 77.031 20.3477
561.865154 77.056 20.4279
565.936660 77.079 20.4940
570.037671 77.101 20.5491
574.168399 77.122 20.5983
578.329060 77.143 20.6455
582.519870 77.164 20.6932
586.741049 77.185 20.7429
590.992817 77.205 20.7948
595.275394 77.225 20.8484
599.589005 77.245 20.9036
603.933874 77.264 20.9623
608.310228 77.284 21.0282
612.718295 77.303 21.1045
617.158304 77.321 21.1921
621.630488 77.338 21.2882
626.135079 77.353 21.3870
630.672311 77.365 21.4826
635.242423 77.377 21.5720
639.845651 77.388 21.6557
644.482237 77.401 21.7352
649.152421 77.416 21.8103
653.856447 77.434 21.8792
658.594560 77.453 21.9409
663.367008 77.473 21.9965
668.174039 77.492 22.0483
673.015903 77.510 22.0997
677.892854 77.525 22.1528
682.805145 77.538 22.2077
687.753032 77.548 22.2616
692.736774 77.557 22.3119
697.756631 77.565 22.3558
702.812863 77.575 22.3894
707.905735 77.585 22.4105
713.035511 77.597 22.4215
718.202461 77.609 22.4307
723.406852 77.621 22.4482
728.648956 77.633 22.4830
733.929047 77.643 22.5389
739.247399 77.652 22.6152
744.604290 77.661 22.7056
750.000000 77.672 22.8035
755.434809 77.685 22.9062
760.909001 77.700 23.0151
766.422861 77.717 23.1307
771.976677 77.734 23.2516
777.570739 77.750 23.3749
783.205337 77.763 23.4959
788.880766 77.774 23.6099
794.597321 77.783 23.7132
800.355301 77.792 23.8069
806.155005 77.801 23.8971
811.996736 77.812 23.9913
817.880799 77.825 24.0938
823.807501 77.839 24.2052
829.777150 77.855 24.3243
835.790057 77.872 24.4482
841.846536 77.888 24.5742
847.946903 77.905 24.7002
854.091476 77.922 24.8250
860.280575 77.938 24.9481
866.514523 77.955 25.0706
872.793644 77.972 25.1940
879.118267 77.990 25.3208
885.488720 78.010 25.4532
891.905336 78.032 25.5926
898.368450 78.055 25.7368
904.878398 78.080 25.8817
911.435520 78.106 26.0235
918.040157 78.131 26.1605
924.692655 78.156 26.2917
931.393359 78.180 26.4155
938.142619 78.204 26.5296
944.940787 78.229 26.6340
951.788218 78.254 26.7319
958.685268 78.283 26.8301
965.632296 78.314 26.9354
972.629666 78.350 27.0510
979.677741 78.388 27.1730
986.776890 78.429 27.2924
993.927482 78.470 27.3990
1001.129891 78.510 27.4856
1008.384491 78.548 27.5497
1015.691660 78.585 27.5947
1023.051781 78.618 27.6268
1030.465236 78.650 27.6523
1037.932411 78.682 27.6738
1045.453698 78.716 27.6896
1053.029486 78.753 27.6966
1060.660172 78.793 27.6947
1068.346153 78.835 27.6881
1076.087829 78.878 27.6827
1083.885605 78.920 27.6817
1091.739887 78.961 27.6825
1099.651084 79.001 27.6775
1107.619609 79.040 27.6566
1115.645878 79.077 27.6102
1123.730308 79.114 27.5332
1131.873321 79.151 27.4261
1140.075341 79.188 27.2928
1148.336797 79.225 27.1375
1156.658119 79.263 26.9645
1165.039741 79.301 26.7798
1173.482099 79.337 26.5895
1181.985634 79.372 26.3997
1190.550789 79.405 26.2161
1199.178011 79.436 26.0413
1207.867749 79.467 25.8744
1216.620457 79.496 25.7122
1225.436590 79.524 25.5488
1234.316609 79.550 25.3761
1243.260976 79.571 25.1849
1252.270157 79.590 24.9698
1261.344623 79.604 24.7319
1270.484846 79.615 24.4775
1279.691303 79.624 24.2155
1288.964474 79.631 23.9542
1298.304842 79.637 23.7007
1307.712894 79.642 23.4595
1317.189120 79.647 23.2310
1326.734016 79.650 23.0114
1336.348077 79.650 22.7946
1346.031806 79.645 22.5738
1355.785708 79.637 22.3438
1365.610290 79.623 22.1034
1375.506065 79.604 21.8562
1385.473549 79.581 21.6088
1395.513261 79.555 21.3699
1405.625726 79.526 21.1507
1415.811469 79.497 20.9620
1426.071023 79.468 20.8112
1436.404921 79.437 20.6982
1446.813703 79.404 20.6163
1457.297912 79.369 20.5559
1467.858093 79.330 20.5078
1478.494798 79.289 20.4641
1489.208581 79.246 20.4193
1500.000000 79.200 20.3740
1510.869618 79.151 20.3365
1521.818002 79.099 20.3202
1532.845723 79.044 20.3375
1543.953355 78.988 20.3987
1555.141477 78.930 20.5100
1566.410674 78.873 20.6743
1577.761531 78.817 20.8903
1589.194642 78.761 21.1553
1600.710601 78.705 21.4651
1612.310010 78.647 21.8156
1623.993473 78.588 22.2024
1635.761599 78.529 22.6245
1647.615002 78.472 23.0851
1659.554299 78.422 23.5921
1671.580114 78.379 24.1555
1683.693072 78.347 24.7844
1695.893807 78.326 25.4843
1708.182952 78.318 26.2565
1720.561150 78.327 27.0997
1733.029045 78.354 28.0067
1745.587288 78.402 28.9605
1758.236533 78.472 29.9308
1770.977440 78.565 30.8770
1783.810673 78.680 31.7573
1796.736900 78.812 32.5345
1809.756796 78.956 33.1799
1822.871040 79.105 33.6765
1836.080315 79.255 34.0221
1849.385310 79.401 34.2299
1862.786718 79.541 34.3240
1876.285239 79.677 34.3343
1889.881575 79.810 34.2906
1903.576436 79.942 34.2173
1917.370535 80.073 34.1288
1931.264593 80.206 34.0260
1945.259332 80.340 33.8984
1959.355483 80.472 33.7284
1973.553781 80.603 33.4954
1987.854965 80.728 33.1817
2002.259781 80.846 32.7756
2016.768981 80.955 32.2739
2031.383320 81.055 31.6833
2046.103561 81.145 31.0180
2060.930471 81.226 30.2966
2075.864823 81.297 29.5381
2090.907395 81.360 28.7576
2106.058972 81.415 27.9686
2121.320344 81.463 27.1880
2136.692305 81.505 26.4336
2152.175658 81.543 25.7189
2167.771210 81.576 25.0500
2183.479774 81.606 24.4260
2199.302169 81.632 23.8391
2215.239219 81.654 23.2782
2231.291755 81.671 22.7303
2247.460615 81.682 22.1832
2263.746641 81.689 21.6274
2280.150683 81.691 21.0593
2296.673595 81.689 20.4811
2313.316238 81.682 19.9019
2330.079481 81.673 19.3342
2346.964198 81.661 18.7916
2363.971268 81.648 18.2864
2381.101578 81.634 17.8260
2398.356022 81.619 17.4102
2415.735498 81.604 17.0295
2433.240913 81.589 16.6671
2450.873180 81.572 16.3058
2468.633217 81.554 15.9332
2486.521951 81.534 15.5436
2504.540314 81.514 15.1371
2522.689246 81.492 14.7208
2540.969692 81.471 14.3073
2559.382606 81.450 13.9113
2577.928947 81.430 13.5450
2596.609683 81.410 13.2155
2615.425787 81.391 12.9208
2634.378241 81.371 12.6503
2653.468031 81.349 12.3871
2672.696154 81.326 12.1148
2692.063613 81.299 11.8227
2711.571415 81.271 11.5064
2731.220579 81.242 11.1680
2751.012130 81.213 10.8174
2770.947098 81.185 10.4708
2791.026522 81.160 10.1447
2811.251451 81.139 9.8519
2831.622938 81.121 9.5964
2852.142045 81.106 9.3700
2872.809842 81.092 9.1545
2893.627406 81.078 8.9258
2914.595823 81.063 8.6593
2935.716186 81.046 8.3373
2956.989596 81.025 7.9544
2978.417161 81.000 7.5197
3000.000000 80.971 7.0541
3021.739237 80.940 6.5861
3043.636005 80.906 6.1420
3065.691446 80.872 5.7390
3087.906710 80.838 5.3811
3110.282955 80.804 5.0598
3132.821347 80.768 4.7571
3155.523062 80.730 4.4509
3178.389283 80.688 4.1231
3201.421202 80.642 3.7621
3224.620020 80.591 3.3629
3247.986946 80.537 2.9261
3271.523198 80.482 2.4579
3295.230004 80.427 1.9678
3319.108599 80.373 1.4641
3343.160228 80.320 0.9540
3367.386145 80.267 0.4449
3391.787613 80.214 -0.0518
3416.365904 80.161 -0.5206
3441.122300 80.108 -0.9447
3466.058091 80.055 -1.3113
3491.174576 80.003 -1.6169
3516.473066 79.953 -1.8702
3541.954880 79.902 -2.0902
3567.621345 79.848 -2.3027
3593.473800 79.792 -2.5339
3619.513592 79.731 -2.8048
3645.742080 79.666 -3.1260
3672.160630 79.597 -3.4952
3698.770620 79.524 -3.8974
3725.573436 79.450 -4.3071
3752.570477 79.374 -4.6957
3779.763150 79.298 -5.0377
3807.152872 79.223 -5.3196
3834.741071 79.147 -5.5433
3862.529185 79.071 -5.7258
3890.518664 78.993 -5.8935
3918.710966 78.912 -6.0762
3947.107561 78.826 -6.2999
3975.709929 78.735 -6.5803
4004.519563 78.639 -6.9207
4033.537962 78.539 -7.3142
4062.766641 78.436 -7.7480
4092.207123 78.331 -8.2062
4121.860942 78.226 -8.6718
4151.729646 78.120 -9.1262
4181.814790 78.014 -9.5505
4212.117944 77.907 -9.9254
4242.640687 77.798 -10.2305
4273.384610 77.688 -10.4471
4304.351317 77.576 -10.5627
4335.542421 77.464 -10.5769
4366.959549 77.352 -10.5043
4398.604338 77.240 -10.3721
4430.478438 77.128 -10.2142
4462.583511 77.015 -10.0637
4494.921231 76.902 -9.9442
4527.493283 76.787 -9.8632
4560.301365 76.670 -9.8085
4593.347189 76.554 -9.7510
4626.632476 76.439 -9.6529
4660.158962 76.326 -9.4789
4693.928395 76.217 -9.2052
4727.942535 76.114 -8.8265
4762.203156 76.016 -8.3577
4796.712043 75.924 -7.8300
4831.470996 75.837 -7.2833
4866.481826 75.756 -6.7562
4901.746360 75.679 -6.2758
4937.266434 75.608 -5.8497
4973.043902 75.544 -5.4662
5009.080628 75.488 -5.0979
5045.378492 75.442 -4.7122
5081.939384 75.409 -4.2820
5118.765212 75.388 -3.7964
5155.857894 75.380 -3.2657
5193.219366 75.384 -2.7221
5230.851574 75.399 -2.2139
5268.756481 75.424 -1.7948
5306.936062 75.455 -1.5123
5345.392309 75.490 -1.3979
5384.127225 75.529 -1.4611
5423.142830 75.569 -1.6888
5462.441159 75.609 -2.0507
5502.024259 75.646 -2.5087
5541.894195 75.678 -3.0287
5582.053045 75.704 -3.5903
5622.502902 75.719 -4.1920
5663.245876 75.720 -4.8501
5704.284090 75.704 -5.5918
5745.619684 75.668 -6.4459
5787.254813 75.609 -7.4329
5829.191647 75.524 -8.5566
5871.432373 75.412 -9.8009
5913.979192 75.274 -11.1302
5956.834323 75.109 -12.4983
6000.000000 74.917 -13.8564
6043.478473 74.701 -15.1600
6087.272010 74.460 -16.3682
6131.382892 74.197 -17.4415
6175.813420 73.913 -18.3362
6220.565910 73.612 -19.0022
6265.642695 73.298 -19.3868
6311.046124 72.976 -19.4467
6356.778566 72.655 -19.1671
6402.842404 72.343 -18.5823
6449.240040 72.043 -17.7797
6495.973891 71.757 -16.8773
6543.046396 71.477 -15.9710
6590.460007 71.194 -15.0895
6638.217197 70.903 -14.1970
6686.320456 70.604 -13.2246
6734.772290 70.302 -12.0944
6783.575226 70.004 -10.7322
6832.731809 69.717 -9.0732
6882.244600 69.450 -7.0694
6932.116181 69.208 -4.6978
6982.349153 68.998 -1.9697
7032.946133 68.829 1.0626
7083.909760 68.707 4.3068
7135.242690 68.641 7.6382
7186.947600 68.633 10.9258
7239.027185 68.685 14.0784
7291.484160 68.793 17.0825
7344.321260 68.959 19.9846
7397.541239 69.187 22.8368
7451.146872 69.483 25.6524
7505.140954 69.852 28.3860
7559.526299 70.292 30.9317
7614.305743 70.797 33.1385
7669.482141 71.355 34.8365
7725.058371 71.948 35.8681
7781.037328 72.557 36.1160
7837.421932 73.161 35.5228
7894.215122 73.738 34.0998
7951.419859 74.266 31.9230
8009.039125 74.724 29.1215
8067.075924 75.096 25.8618
8125.533282 75.368 22.3309
8184.414245 75.532 18.7149
8243.721885 75.589 15.1782
8303.459292 75.543 11.8491
8363.629581 75.405 8.8146
8424.235888 75.192 6.1212
8485.281374 74.923 3.7814
8546.769221 74.616 1.7888
8608.702634 74.293 0.1338
8671.084842 73.970 -1.1860
8733.919097 73.664 -2.1671
8797.208675 73.385 -2.8069
8860.956876 73.140 -3.1161
8925.167022 72.935 -3.1321
8989.842461 72.768 -2.9256
9054.986566 72.639 -2.5969
9120.602731 72.542 -2.2617
9186.694378 72.474 -2.0366
9253.264952 72.429 -2.0236
9320.317925 72.405 -2.2938
9387.856790 72.399 -2.8807
9455.885071 72.408 -3.7841
9524.406312 72.430 -4.9866
9593.424086 72.459 -6.4667
9662.941992 72.490 -8.2041
9732.963653 72.517 -10.1783
9803.492719 72.535 -12.3643
9874.532869 72.535 -14.7266
9946.087805 72.511 -17.2163
10018.161257 72.456 -19.7728
10090.756983 72.366 -22.3351
10163.878768 72.235 -24.8569
10237.530423 72.059 -27.3187
10311.715789 71.833 -29.7291
10386.438732 71.554 -32.1147
10461.703149 71.220 -34.5054
10537.512962 70.831 -36.9183
10613.872125 70.389 -39.3419
10690.784618 69.896 -41.7261
10768.254450 69.357 -43.9852
10846.285661 68.780 -46.0135
10924.882318 68.169 -47.7031
11004.048518 67.532 -48.9639
11083.788390 66.875 -49.7444
11164.106090 66.204 -50.0468
11245.005805 65.523 -49.9242
11326.491752 64.837 -49.4651
11408.568180 64.148 -48.7724
11491.239368 63.459 -47.9405
11574.509626 62.772 -47.0308
11658.383294 62.090 -46.0613
11742.864745 61.415 -45.0172
11827.958384 60.751 -43.8691
11913.668646 60.101 -42.5850
12000.000000 59.466 -41.1335
12086.956947 58.848 -39.4835
12174.544019 58.250 -37.5997
12262.765784 57.672 -35.4363
12351.626840 57.112 -32.9344
12441.131819 56.572 -30.0270
12531.285389 56.052 -26.6591
12622.092249 55.553 -22.8120
12713.557132 55.076 -18.5144
12805.684808 54.623 -13.8319
12898.480079 54.195 -8.8470
12991.947783 53.796 -3.6351
13086.092792 53.433 1.7676
13180.920015 53.115 7.3921
13276.434395 52.858 13.3428
13372.640911 52.684 19.7803
13469.544580 52.623 26.8788
13567.150452 52.710 34.7537
13665.463617 52.981 43.3654
13764.489200 53.461 52.4398
13864.232362 54.157 61.4706
13964.698305 55.057 69.8378
14065.892266 56.127 76.9805
14167.819519 57.321 82.5248
14270.485380 58.592 86.3214
14373.895200 59.892 88.4026
14478.054370 61.179 88.9122
14582.968320 62.414 88.0458
14688.642520 63.563 86.0176
14795.082478 64.597 83.0432
14902.293745 65.493 79.3271
15010.281908 66.232 75.0601
15119.052599 66.809 70.4230
15228.611486 67.227 65.5876
15338.964283 67.506 60.7014
15450.116741 67.674 55.8743
15562.074656 67.766 51.1799
15674.843864 67.820 46.6678
15788.430244 67.870 42.3689
15902.839718 67.942 38.2893
16018.078250 68.048 34.3990
16134.151848 68.190 30.6219
16251.066563 68.354 26.8344
16368.828491 68.518 22.8781
16487.443769 68.653 18.5941
16606.918584 68.727 13.8616
16727.259161 68.706 8.6255
16848.471777 68.565 2.9154
16970.562748 68.284 -3.1434
17093.538442 67.855 -9.3452
17217.405268 67.285 -15.4475
17342.169684 66.587 -21.2209
17467.838194 65.786 -26.4799
17594.417350 64.908 -31.0961
17721.913751 63.982 -34.9957
17850.334044 63.036 -38.1486
17979.684923 62.096 -40.5511
18109.973131 61.187 -42.2139
18241.205462 60.326 -43.1576
18373.388756 59.527 -43.4257
18506.529905 58.797 -43.1127
18640.635849 58.134 -42.3845
18775.713581 57.532 -41.4679
18911.770141 56.981 -40.6164
19048.812624 56.469 -40.0676
19186.848172 55.983 -39.9980
19325.883983 55.513 -40.4821
19465.927305 55.054 -41.4747
19606.985439 54.614 -42.8204
19749.065738 54.220 -44.2722
19892.175609 53.913 -45.5182
20036.322514 53.743 -46.2447
