* Measurement data measured by REW V5.31.3
* Source: Headset (CX31993 HIFI AUDIO), MICROPHONE (Master Volume), R, volume: 0.250
* Format: 256k Log Swept Sine, 1 sweep at -12.0 dBFS with no timing reference
* Dated: 12 31, 24 12:59:53 PM
* REW Settings:
*  C-weighting compensation: Off
*  Target level: 75.0 dB
* Note: ; 
* Measurement: Sony LB CB +5 L
* Smoothing: 1/12 octave
* Frequency Step: 96 ppo
* Start Frequency: 0.36621094 Hz
*
* Freq(Hz) SPL(dB) Phase(degrees)
0.366211 34.508 -58.9931
0.368865 34.523 -59.0996
0.371538 34.544 -59.2579
0.374230 34.571 -59.4550
0.376942 34.601 -59.6792
0.379673 34.634 -59.9223
0.382424 34.667 -60.1787
0.385196 34.702 -60.4450
0.387987 34.737 -60.7193
0.390798 34.773 -61.0003
0.393630 34.809 -61.2877
0.396483 34.845 -61.5810
0.399356 34.881 -61.8801
0.402250 34.918 -62.1849
0.405165 34.955 -62.4954
0.408101 34.992 -62.8116
0.411058 35.030 -63.1335
0.414037 35.068 -63.4611
0.417037 35.106 -63.7944
0.420059 35.144 -64.1333
0.423103 35.183 -64.4779
0.426169 35.222 -64.8282
0.429257 35.261 -65.1841
0.432368 35.301 -65.5456
0.435501 35.341 -65.9127
0.438656 35.381 -66.2854
0.441835 35.421 -66.6637
0.445037 35.462 -67.0474
0.448262 35.503 -67.4367
0.451510 35.544 -67.8314
0.454782 35.586 -68.2316
0.458077 35.628 -68.6371
0.461397 35.670 -69.0479
0.464740 35.713 -69.4640
0.468108 35.755 -69.8853
0.471500 35.799 -70.3118
0.474917 35.842 -70.7434
0.478358 35.886 -71.1800
0.481825 35.930 -71.6216
0.485316 35.974 -72.0681
0.488833 36.019 -72.5194
0.492375 36.064 -72.9755
0.495943 36.109 -73.4363
0.499537 36.155 -73.9016
0.503157 36.201 -74.3716
0.506803 36.247 -74.8459
0.510475 36.294 -75.3246
0.514175 36.341 -75.8075
0.517900 36.389 -76.2947
0.521653 36.436 -76.7859
0.525434 36.484 -77.2811
0.529241 36.533 -77.7802
0.533076 36.581 -78.2831
0.536939 36.631 -78.7897
0.540830 36.680 -79.2999
0.544749 36.730 -79.8137
0.548696 36.780 -80.3308
0.552673 36.831 -80.8513
0.556677 36.882 -81.3750
0.560711 36.933 -81.9018
0.564774 36.985 -82.4316
0.568867 37.037 -82.9644
0.572989 37.089 -83.5000
0.577141 37.142 -84.0383
0.581324 37.195 -84.5793
0.585536 37.249 -85.1228
0.589779 37.303 -85.6688
0.594053 37.357 -86.2172
0.598358 37.412 -86.7679
0.602694 37.467 -87.3208
0.607061 37.522 -87.8758
0.611460 37.578 -88.4329
0.615891 37.635 -88.9920
0.620354 37.691 -89.5530
0.624849 37.749 -90.1159
0.629377 37.806 -90.6805
0.633938 37.864 -91.2468
0.638532 37.923 -91.8148
0.643159 37.981 -92.3844
0.647819 38.041 -92.9556
0.652514 38.100 -93.5283
0.657242 38.160 -94.1025
0.662005 38.221 -94.6781
0.666802 38.282 -95.2551
0.671634 38.344 -95.8334
0.676501 38.405 -96.4132
0.681403 38.468 -96.9942
0.686341 38.531 -97.5766
0.691314 38.594 -98.1603
0.696324 38.658 -98.7453
0.701370 38.722 -99.3315
0.706452 38.787 -99.9190
0.711571 38.853 -100.5076
0.716728 38.920 -101.0973
0.721921 38.988 -101.6879
0.727153 39.058 -102.2792
0.732422 39.131 -102.8707
0.737729 39.205 -103.4619
0.743075 39.282 -104.0524
0.748460 39.361 -104.6417
0.753883 39.442 -105.2293
0.759346 39.525 -105.8150
0.764849 39.609 -106.3984
0.770391 39.694 -106.9794
0.775974 39.781 -107.5578
0.781597 39.869 -108.1335
0.787261 39.959 -108.7062
0.792966 40.050 -109.2760
0.798712 40.142 -109.8426
0.804500 40.235 -110.4061
0.810329 40.330 -110.9664
0.816201 40.425 -111.5234
0.822116 40.522 -112.0770
0.828073 40.621 -112.6273
0.834074 40.720 -113.1742
0.840118 40.821 -113.7177
0.846206 40.923 -114.2578
0.852338 41.026 -114.7944
0.858514 41.130 -115.3277
0.864735 41.235 -115.8577
0.871001 41.341 -116.3843
0.877313 41.449 -116.9077
0.883670 41.557 -117.4279
0.890074 41.666 -117.9449
0.896524 41.777 -118.4588
0.903020 41.888 -118.9697
0.909564 42.001 -119.4777
0.916155 42.114 -119.9829
0.922794 42.228 -120.4853
0.929481 42.343 -120.9851
0.936216 42.459 -121.4824
0.943000 42.575 -121.9772
0.949834 42.692 -122.4698
0.956717 42.810 -122.9602
0.963649 42.929 -123.4485
0.970632 43.048 -123.9350
0.977666 43.168 -124.4197
0.984750 43.288 -124.9027
0.991886 43.409 -125.3843
0.999074 43.530 -125.8645
1.006314 43.651 -126.3436
1.013606 43.773 -126.8216
1.020951 43.895 -127.2988
1.028349 44.017 -127.7753
1.035801 44.139 -128.2511
1.043307 44.261 -128.7266
1.050867 44.383 -129.2019
1.058482 44.505 -129.6770
1.066152 44.627 -130.1520
1.073878 44.749 -130.6270
1.081660 44.870 -131.1019
1.089498 44.991 -131.5766
1.097393 45.113 -132.0506
1.105345 45.234 -132.5237
1.113355 45.355 -132.9952
1.121423 45.477 -133.4648
1.129549 45.599 -133.9321
1.137734 45.722 -134.3971
1.145979 45.844 -134.8595
1.154283 45.968 -135.3193
1.162647 46.091 -135.7766
1.171072 46.215 -136.2314
1.179558 46.340 -136.6836
1.188106 46.465 -137.1334
1.196715 46.590 -137.5808
1.205387 46.716 -138.0258
1.214122 46.842 -138.4687
1.222920 46.968 -138.9093
1.231782 47.095 -139.3478
1.240708 47.222 -139.7843
1.249699 47.350 -140.2188
1.258754 47.478 -140.6515
1.267876 47.606 -141.0823
1.277063 47.735 -141.5115
1.286318 47.864 -141.9391
1.295639 47.993 -142.3651
1.305027 48.122 -142.7897
1.314484 48.252 -143.2130
1.324009 48.382 -143.6351
1.333604 48.513 -144.0560
1.343268 48.643 -144.4759
1.353002 48.774 -144.8948
1.362806 48.906 -145.3129
1.372681 49.037 -145.7303
1.382628 49.169 -146.1470
1.392647 49.300 -146.5631
1.402739 49.432 -146.9787
1.412904 49.565 -147.3939
1.423142 49.697 -147.8087
1.433455 49.829 -148.2230
1.443843 49.962 -148.6367
1.454305 50.095 -149.0494
1.464844 50.227 -149.4609
1.475459 50.360 -149.8706
1.486150 50.493 -150.2782
1.496920 50.626 -150.6833
1.507767 50.758 -151.0857
1.518693 50.891 -151.4855
1.529698 51.024 -151.8827
1.540783 51.157 -152.2775
1.551948 51.289 -152.6702
1.563194 51.422 -153.0609
1.574521 51.555 -153.4499
1.585931 51.688 -153.8374
1.597423 51.820 -154.2238
1.608999 51.953 -154.6093
1.620658 52.086 -154.9942
1.632402 52.218 -155.3787
1.644232 52.351 -155.7630
1.656146 52.484 -156.1475
1.668147 52.617 -156.5325
1.680235 52.750 -156.9181
1.692411 52.883 -157.3046
1.704675 53.016 -157.6924
1.717028 53.149 -158.0816
1.729470 53.282 -158.4725
1.742003 53.415 -158.8653
1.754626 53.549 -159.2604
1.767341 53.682 -159.6578
1.780147 53.816 -160.0577
1.793047 53.949 -160.4602
1.806040 54.083 -160.8653
1.819128 54.217 -161.2728
1.832310 54.351 -161.6823
1.845587 54.484 -162.0936
1.858961 54.618 -162.5060
1.872432 54.752 -162.9191
1.886001 54.885 -163.3328
1.899667 55.018 -163.7467
1.913433 55.151 -164.1608
1.927299 55.284 -164.5750
1.941265 55.416 -164.9892
1.955332 55.548 -165.4035
1.969501 55.680 -165.8178
1.983773 55.812 -166.2323
1.998148 55.944 -166.6469
2.012627 56.076 -167.0618
2.027212 56.207 -167.4770
2.041902 56.338 -167.8926
2.056698 56.469 -168.3087
2.071602 56.601 -168.7254
2.086614 56.732 -169.1428
2.101734 56.863 -169.5610
2.116964 56.993 -169.9801
2.132304 57.124 -170.4003
2.147756 57.255 -170.8217
2.163320 57.386 -171.2444
2.178996 57.517 -171.6683
2.194786 57.647 -172.0935
2.210690 57.778 -172.5199
2.226710 57.908 -172.9473
2.242845 58.038 -173.3758
2.259098 58.167 -173.8050
2.275468 58.296 -174.2348
2.291957 58.425 -174.6653
2.308566 58.554 -175.0962
2.325295 58.682 -175.5274
2.342145 58.810 -175.9590
2.359117 58.937 -176.3909
2.376212 59.064 -176.8231
2.393431 59.191 -177.2555
2.410775 59.318 -177.6882
2.428244 59.444 -178.1211
2.445840 59.570 -178.5543
2.463564 59.696 -178.9878
2.481416 59.822 -179.4218
2.499397 59.948 -179.8562
2.517509 60.073 179.7089
2.535752 60.198 179.2733
2.554127 60.324 178.8368
2.572635 60.448 178.3995
2.591277 60.573 177.9611
2.610055 60.697 177.5218
2.628968 60.820 177.0815
2.648019 60.943 176.6403
2.667208 61.066 176.1984
2.686535 61.188 175.7559
2.706003 61.310 175.3129
2.725612 61.431 174.8696
2.745363 61.552 174.4261
2.765257 61.673 173.9825
2.785295 61.793 173.5390
2.805478 61.913 173.0956
2.825808 62.033 172.6524
2.846285 62.152 172.2094
2.866910 62.272 171.7666
2.887685 62.390 171.3239
2.908611 62.509 170.8811
2.929688 62.627 170.4381
2.950917 62.745 169.9947
2.972301 62.863 169.5506
2.993839 62.980 169.1059
3.015534 63.096 168.6605
3.037386 63.212 168.2146
3.059396 63.328 167.7683
3.081565 63.443 167.3219
3.103896 63.557 166.8755
3.126388 63.672 166.4294
3.149043 63.785 165.9838
3.171862 63.899 165.5388
3.194847 64.012 165.0947
3.217998 64.125 164.6516
3.241317 64.237 164.2093
3.264805 64.350 163.7680
3.288463 64.462 163.3275
3.312293 64.573 162.8875
3.336295 64.684 162.4479
3.360471 64.795 162.0084
3.384822 64.905 161.5691
3.409350 65.015 161.1299
3.434056 65.124 160.6910
3.458940 65.233 160.2525
3.484005 65.342 159.8146
3.509252 65.450 159.3776
3.534681 65.557 158.9414
3.560295 65.665 158.5063
3.586094 65.772 158.0725
3.612081 65.879 157.6399
3.638255 65.985 157.2084
3.664620 66.092 156.7780
3.691175 66.198 156.3484
3.717923 66.303 155.9195
3.744864 66.408 155.4911
3.772001 66.513 155.0634
3.799335 66.617 154.6362
3.826866 66.721 154.2098
3.854597 66.825 153.7844
3.882529 66.928 153.3600
3.910664 67.031 152.9368
3.939002 67.134 152.5149
3.967546 67.236 152.0945
3.996296 67.339 151.6754
4.025255 67.441 151.2577
4.054423 67.542 150.8411
4.083804 67.644 150.4257
4.113396 67.745 150.0112
4.143204 67.846 149.5977
4.173227 67.946 149.1851
4.203468 68.046 148.7734
4.233928 68.146 148.3630
4.264609 68.246 147.9537
4.295512 68.345 147.5456
4.326639 68.444 147.1389
4.357992 68.543 146.7334
4.389572 68.642 146.3292
4.421380 68.740 145.9262
4.453419 68.838 145.5242
4.485691 68.936 145.1232
4.518196 69.034 144.7233
4.550936 69.131 144.3243
4.583914 69.228 143.9264
4.617131 69.325 143.5296
4.650589 69.422 143.1341
4.684289 69.519 142.7398
4.718233 69.615 142.3469
4.752424 69.711 141.9552
4.786862 69.807 141.5647
4.821549 69.903 141.1754
4.856488 69.998 140.7871
4.891680 70.094 140.3999
4.927127 70.189 140.0138
4.962831 70.284 139.6287
4.998794 70.378 139.2448
5.035017 70.473 138.8622
5.071503 70.567 138.4807
5.108253 70.662 138.1004
5.145270 70.756 137.7213
5.182555 70.850 137.3434
5.220110 70.944 136.9665
5.257937 71.037 136.5906
5.296038 71.131 136.2157
5.334415 71.224 135.8417
5.373071 71.318 135.4685
5.412006 71.411 135.0963
5.451224 71.504 134.7249
5.490725 71.597 134.3543
5.530514 71.690 133.9846
5.570590 71.783 133.6155
5.610957 71.876 133.2471
5.651616 71.969 132.8792
5.692570 72.062 132.5117
5.733821 72.155 132.1443
5.775370 72.248 131.7771
5.817221 72.340 131.4098
5.859375 72.433 131.0424
5.901834 72.526 130.6749
5.944602 72.619 130.3071
5.987679 72.711 129.9390
6.031068 72.804 129.5703
6.074771 72.897 129.2008
6.118792 72.989 128.8303
6.163131 73.082 128.4586
6.207792 73.174 128.0856
6.252776 73.266 127.7111
6.298086 73.359 127.3350
6.343725 73.451 126.9573
6.389694 73.543 126.5780
6.435996 73.634 126.1968
6.482634 73.726 125.8136
6.529610 73.817 125.4283
6.576926 73.908 125.0406
6.624585 73.998 124.6507
6.672590 74.089 124.2583
6.720942 74.179 123.8636
6.769645 74.268 123.4667
6.818700 74.357 123.0676
6.868111 74.445 122.6666
6.917881 74.533 122.2635
6.968010 74.620 121.8585
7.018504 74.706 121.4515
7.069362 74.792 121.0427
7.120590 74.877 120.6324
7.172189 74.961 120.2211
7.224161 75.044 119.8091
7.276511 75.126 119.3969
7.329239 75.208 118.9845
7.382350 75.288 118.5722
7.435845 75.368 118.1602
7.489729 75.447 117.7490
7.544002 75.524 117.3391
7.598669 75.601 116.9310
7.653732 75.677 116.5253
7.709194 75.752 116.1224
7.765058 75.826 115.7224
7.821327 75.900 115.3256
7.878004 75.972 114.9324
7.935091 76.044 114.5432
7.992592 76.115 114.1584
8.050510 76.186 113.7785
8.108847 76.256 113.4035
8.167607 76.325 113.0336
8.226793 76.394 112.6687
8.286408 76.463 112.3090
8.346454 76.532 111.9543
8.406936 76.600 111.6047
8.467856 76.668 111.2601
8.529218 76.737 110.9204
8.591024 76.805 110.5851
8.653278 76.874 110.2539
8.715983 76.943 109.9262
8.779143 77.012 109.6017
8.842760 77.082 109.2798
8.906839 77.152 108.9602
8.971381 77.222 108.6423
9.036392 77.293 108.3254
9.101873 77.364 108.0089
9.167829 77.435 107.6920
9.234263 77.507 107.3745
9.301178 77.579 107.0557
9.368578 77.652 106.7353
9.436467 77.724 106.4127
9.504847 77.797 106.0875
9.573723 77.870 105.7595
9.643099 77.942 105.4283
9.712976 78.015 105.0939
9.783361 78.087 104.7563
9.854255 78.159 104.4155
9.925663 78.231 104.0714
9.997588 78.302 103.7242
10.070035 78.373 103.3742
10.143007 78.444 103.0216
10.216507 78.513 102.6667
10.290540 78.583 102.3099
10.365109 78.651 101.9515
10.440219 78.719 101.5917
10.515873 78.786 101.2309
10.592076 78.853 100.8695
10.668830 78.919 100.5078
10.746141 78.985 100.1458
10.824012 79.050 99.7839
10.902447 79.115 99.4220
10.981451 79.179 99.0602
11.061027 79.242 98.6987
11.141180 79.306 98.3371
11.221913 79.369 97.9755
11.303232 79.432 97.6136
11.385140 79.494 97.2513
11.467641 79.557 96.8883
11.550741 79.619 96.5243
11.634442 79.680 96.1591
11.718750 79.742 95.7925
11.803669 79.803 95.4242
11.889203 79.864 95.0541
11.975357 79.924 94.6821
12.062136 79.984 94.3081
12.149543 80.044 93.9320
12.237583 80.103 93.5541
12.326262 80.161 93.1742
12.415583 80.219 92.7927
12.505552 80.276 92.4097
12.596172 80.333 92.0255
12.687449 80.389 91.6402
12.779387 80.444 91.2541
12.871992 80.499 90.8676
12.965268 80.553 90.4808
13.059220 80.607 90.0939
13.153852 80.660 89.7070
13.249170 80.713 89.3204
13.345179 80.765 88.9340
13.441884 80.817 88.5479
13.539289 80.869 88.1620
13.637401 80.920 87.7762
13.736223 80.971 87.3903
13.835761 81.021 87.0043
13.936021 81.072 86.6180
14.037007 81.122 86.2310
14.138725 81.172 85.8434
14.241180 81.222 85.4548
14.344377 81.271 85.0652
14.448323 81.321 84.6743
14.553021 81.370 84.2821
14.658478 81.418 83.8885
14.764700 81.467 83.4935
14.871691 81.515 83.0970
14.979457 81.562 82.6992
15.088005 81.610 82.3001
15.197339 81.657 81.8998
15.307465 81.703 81.4984
15.418389 81.749 81.0963
15.530117 81.795 80.6935
15.642655 81.841 80.2903
15.756008 81.886 79.8870
15.870182 81.930 79.4838
15.985184 81.974 79.0810
16.101019 82.018 78.6787
16.217694 82.062 78.2772
16.335214 82.106 77.8764
16.453586 82.149 77.4763
16.572815 82.193 77.0767
16.692909 82.236 76.6774
16.813872 82.280 76.2777
16.935713 82.324 75.8773
17.058436 82.368 75.4752
17.182048 82.412 75.0707
17.306556 82.456 74.6631
17.431967 82.501 74.2516
17.558286 82.545 73.8354
17.685521 82.589 73.4144
17.813677 82.632 72.9882
17.942762 82.674 72.5571
18.072783 82.716 72.1218
18.203746 82.756 71.6832
18.335658 82.795 71.2427
18.468526 82.832 70.8019
18.602356 82.868 70.3628
18.737156 82.902 69.9273
18.872934 82.935 69.4974
19.009695 82.967 69.0749
19.147447 82.997 68.6613
19.286197 83.027 68.2574
19.425953 83.056 67.8640
19.566721 83.085 67.4810
19.708510 83.114 67.1081
19.851326 83.143 66.7444
19.995177 83.173 66.3889
20.140070 83.204 66.0405
20.286013 83.235 65.6984
20.433014 83.267 65.3616
20.581080 83.299 65.0298
20.730219 83.332 64.7028
20.880439 83.365 64.3808
21.031747 83.399 64.0641
21.184152 83.434 63.7527
21.337661 83.470 63.4466
21.492282 83.507 63.1448
21.648024 83.546 62.8459
21.804895 83.586 62.5475
21.962902 83.629 62.2465
22.122054 83.674 61.9388
22.282360 83.721 61.6205
22.443827 83.770 61.2877
22.606464 83.820 60.9367
22.770280 83.870 60.5655
22.935283 83.919 60.1728
23.101481 83.968 59.7595
23.268884 84.014 59.3276
23.437500 84.057 58.8809
23.607338 84.097 58.4242
23.778406 84.133 57.9630
23.950714 84.166 57.5028
24.124271 84.196 57.0486
24.299086 84.224 56.6042
24.475167 84.250 56.1723
24.652524 84.274 55.7538
24.831166 84.299 55.3480
25.011103 84.324 54.9528
25.192344 84.350 54.5652
25.374898 84.376 54.1815
25.558775 84.404 53.7985
25.743984 84.432 53.4131
25.930536 84.461 53.0235
26.118439 84.489 52.6288
26.307704 84.517 52.2293
26.498341 84.544 51.8261
26.690359 84.571 51.4213
26.883768 84.596 51.0170
27.078579 84.621 50.6151
27.274801 84.645 50.2173
27.472446 84.669 49.8246
27.671522 84.693 49.4367
27.872042 84.717 49.0532
28.074014 84.742 48.6724
28.277450 84.767 48.2926
28.482360 84.793 47.9119
28.688755 84.820 47.5283
28.896645 84.847 47.1407
29.106042 84.874 46.7486
29.316957 84.901 46.3520
29.529400 84.927 45.9517
29.743382 84.953 45.5492
29.958915 84.978 45.1461
30.176009 85.002 44.7438
30.394677 85.025 44.3434
30.614929 85.049 43.9456
30.836778 85.072 43.5502
31.060234 85.094 43.1564
31.285309 85.117 42.7632
31.512015 85.140 42.3695
31.740364 85.163 41.9743
31.970368 85.185 41.5772
32.202039 85.206 41.1786
32.435388 85.227 40.7796
32.670428 85.247 40.3814
32.907171 85.266 39.9860
33.145630 85.284 39.5948
33.385817 85.302 39.2089
33.627745 85.320 38.8282
33.871425 85.338 38.4518
34.116871 85.357 38.0779
34.364096 85.376 37.7034
34.613113 85.397 37.3255
34.863934 85.418 36.9414
35.116572 85.438 36.5494
35.371041 85.459 36.1490
35.627354 85.478 35.7418
35.885525 85.495 35.3305
36.145566 85.511 34.9192
36.407492 85.526 34.5117
36.671316 85.539 34.1114
36.937051 85.552 33.7199
37.204712 85.565 33.3370
37.474313 85.579 32.9605
37.745867 85.593 32.5871
38.019389 85.609 32.2132
38.294893 85.625 31.8360
38.572394 85.641 31.4543
38.851905 85.657 31.0686
39.133442 85.672 30.6807
39.417019 85.686 30.2927
39.702651 85.700 29.9065
39.990353 85.713 29.5226
40.280140 85.726 29.1401
40.572026 85.739 28.7571
40.866028 85.752 28.3715
41.162160 85.765 27.9813
41.460438 85.777 27.5861
41.760877 85.787 27.1870
42.063494 85.796 26.7864
42.368303 85.803 26.3876
42.675322 85.809 25.9940
42.984565 85.814 25.6084
43.296048 85.818 25.2314
43.609789 85.822 24.8623
43.925804 85.828 24.4980
44.244108 85.834 24.1342
44.564719 85.841 23.7668
44.887654 85.849 23.3931
45.212928 85.857 23.0123
45.540560 85.863 22.6263
45.870565 85.869 22.2390
46.202962 85.874 21.8539
46.537768 85.879 21.4734
46.875000 85.884 21.0973
47.214676 85.889 20.7234
47.556813 85.895 20.3482
47.901429 85.901 19.9691
48.248542 85.907 19.5849
48.598171 85.912 19.1967
48.950334 85.916 18.8066
49.305048 85.918 18.4172
49.662333 85.919 18.0303
50.022206 85.920 17.6464
50.384688 85.919 17.2654
50.749796 85.918 16.8868
51.117550 85.915 16.5107
51.487969 85.912 16.1376
51.861072 85.908 15.7683
52.236879 85.904 15.4031
52.615409 85.900 15.0416
52.996681 85.896 14.6820
53.380717 85.893 14.3214
53.767536 85.891 13.9569
54.157158 85.888 13.5869
54.549603 85.886 13.2105
54.944892 85.884 12.8286
55.343045 85.881 12.4426
55.744084 85.878 12.0542
56.148028 85.873 11.6648
56.554900 85.868 11.2761
56.964720 85.862 10.8900
57.377510 85.855 10.5080
57.793291 85.847 10.1312
58.212085 85.839 9.7606
58.633914 85.829 9.3972
59.058799 85.819 9.0421
59.486764 85.808 8.6957
59.917829 85.798 8.3564
60.352019 85.788 8.0199
60.789354 85.779 7.6803
61.229859 85.771 7.3323
61.673556 85.762 6.9731
62.120468 85.754 6.6029
62.570618 85.744 6.2230
63.024031 85.734 5.8354
63.480729 85.723 5.4420
63.940736 85.711 5.0458
64.404077 85.699 4.6507
64.870776 85.686 4.2589
65.340856 85.675 3.8693
65.814343 85.663 3.4786
66.291261 85.651 3.0851
66.771635 85.638 2.6934
67.255489 85.621 2.3140
67.742850 85.603 1.9572
68.233743 85.584 1.6266
68.728193 85.567 1.3168
69.226226 85.550 1.0166
69.727867 85.534 0.7157
70.233144 85.518 0.4084
70.742083 85.500 0.0945
71.254709 85.479 -0.2220
71.771050 85.456 -0.5365
72.291132 85.432 -0.8456
72.814984 85.407 -1.1503
73.342631 85.382 -1.4545
73.874102 85.357 -1.7628
74.409424 85.333 -2.0767
74.948626 85.308 -2.3945
75.491734 85.283 -2.7141
76.038779 85.258 -3.0332
76.589787 85.233 -3.3506
77.144788 85.207 -3.6648
77.703811 85.181 -3.9751
78.266885 85.155 -4.2811
78.834039 85.128 -4.5835
79.405303 85.100 -4.8828
79.980706 85.072 -5.1797
80.560280 85.043 -5.4747
81.144053 85.013 -5.7677
81.732056 84.982 -6.0569
82.324320 84.951 -6.3406
82.920876 84.920 -6.6185
83.521755 84.890 -6.8927
84.126988 84.860 -7.1660
84.736607 84.830 -7.4398
85.350643 84.800 -7.7134
85.969129 84.769 -7.9846
86.592097 84.737 -8.2516
87.219579 84.703 -8.5132
87.851608 84.669 -8.7701
88.488217 84.634 -9.0244
89.129439 84.598 -9.2791
89.775308 84.561 -9.5365
90.425856 84.524 -9.7975
91.081119 84.486 -10.0620
91.741131 84.448 -10.3303
92.405925 84.410 -10.6030
93.075536 84.372 -10.8795
93.750000 84.333 -11.1570
94.429351 84.295 -11.4319
95.113625 84.256 -11.7006
95.802858 84.216 -11.9595
96.497085 84.175 -12.2054
97.196342 84.133 -12.4370
97.900667 84.090 -12.6550
98.610096 84.046 -12.8623
99.324665 84.001 -13.0626
100.044413 83.955 -13.2594
100.769376 83.908 -13.4564
101.499592 83.860 -13.6570
102.235100 83.811 -13.8638
102.975938 83.760 -14.0775
103.722144 83.707 -14.2963
104.473757 83.653 -14.5153
105.230817 83.596 -14.7273
105.993363 83.538 -14.9255
106.761435 83.479 -15.1071
107.535072 83.419 -15.2729
108.314315 83.359 -15.4249
109.099206 83.297 -15.5627
109.889783 83.234 -15.6854
110.686090 83.168 -15.7917
111.488167 83.100 -15.8789
112.296056 83.030 -15.9409
113.109800 82.957 -15.9704
113.929440 82.885 -15.9623
114.755020 82.816 -15.9167
115.586582 82.751 -15.8381
116.424170 82.693 -15.7350
117.267827 82.642 -15.6176
118.117598 82.599 -15.4965
118.973527 82.564 -15.3818
119.835658 82.535 -15.2834
120.704037 82.510 -15.2081
121.578708 82.487 -15.1588
122.459718 82.463 -15.1333
123.347111 82.438 -15.1241
124.240935 82.412 -15.1208
125.141236 82.384 -15.1144
126.048061 82.356 -15.1016
126.961458 82.329 -15.0845
127.881473 82.302 -15.0682
128.808154 82.276 -15.0562
129.741551 82.247 -15.0493
130.681712 82.215 -15.0470
131.628686 82.179 -15.0501
132.582521 82.140 -15.0631
133.543269 82.097 -15.0940
134.510979 82.053 -15.1487
135.485701 82.007 -15.2261
136.467486 81.962 -15.3193
137.456386 81.917 -15.4202
138.452451 81.873 -15.5197
139.455735 81.830 -15.6063
140.466288 81.787 -15.6702
141.484165 81.743 -15.7068
142.509418 81.698 -15.7183
143.542100 81.651 -15.7101
144.582265 81.602 -15.6880
145.629968 81.552 -15.6565
146.685262 81.503 -15.6198
147.748204 81.456 -15.5806
148.818849 81.411 -15.5391
149.897251 81.367 -15.4929
150.983469 81.324 -15.4397
152.077557 81.282 -15.3795
153.179574 81.239 -15.3143
154.289576 81.195 -15.2468
155.407622 81.150 -15.1777
156.533770 81.104 -15.1061
157.668078 81.060 -15.0295
158.810606 81.017 -14.9454
159.961413 80.976 -14.8528
161.120559 80.937 -14.7522
162.288105 80.900 -14.6456
163.464112 80.863 -14.5350
164.648640 80.825 -14.4213
165.841752 80.786 -14.3049
167.043510 80.746 -14.1860
168.253976 80.705 -14.0640
169.473213 80.663 -13.9372
170.701286 80.623 -13.8035
171.938258 80.583 -13.6611
173.184194 80.545 -13.5092
174.439158 80.507 -13.3469
175.703216 80.471 -13.1752
176.976434 80.434 -12.9978
178.258878 80.397 -12.8198
179.550615 80.358 -12.6431
180.851713 80.318 -12.4672
182.162239 80.278 -12.2935
183.482262 80.238 -12.1270
184.811850 80.199 -11.9711
186.151073 80.161 -11.8235
187.500000 80.122 -11.6768
188.858702 80.084 -11.5223
190.227250 80.047 -11.3556
191.605715 80.011 -11.1760
192.994169 79.977 -10.9869
194.392685 79.944 -10.7933
195.801334 79.913 -10.5996
197.220191 79.883 -10.4078
198.649330 79.853 -10.2170
200.088825 79.824 -10.0247
201.538751 79.796 -9.8279
202.999184 79.769 -9.6248
204.470200 79.742 -9.4141
205.951875 79.716 -9.1956
207.444287 79.688 -8.9688
208.947514 79.661 -8.7333
210.461634 79.633 -8.4901
211.986726 79.604 -8.2413
213.522869 79.576 -7.9895
215.070144 79.548 -7.7365
216.628631 79.521 -7.4838
218.198411 79.495 -7.2322
219.779567 79.469 -6.9828
221.372180 79.445 -6.7372
222.976334 79.422 -6.4966
224.592112 79.400 -6.2603
226.219600 79.379 -6.0243
227.858880 79.359 -5.7835
229.510039 79.340 -5.5334
231.173164 79.322 -5.2739
232.848340 79.303 -5.0096
234.535655 79.285 -4.7484
236.235197 79.267 -4.4958
237.947054 79.250 -4.2534
239.671317 79.234 -4.0179
241.408074 79.218 -3.7854
243.157416 79.203 -3.5532
244.919435 79.190 -3.3197
246.694223 79.177 -3.0839
248.481871 79.165 -2.8444
250.282473 79.153 -2.6006
252.096123 79.140 -2.3518
253.922915 79.128 -2.0978
255.762945 79.115 -1.8400
257.616309 79.103 -1.5804
259.483103 79.090 -1.3195
261.363424 79.078 -1.0544
263.257372 79.065 -0.7819
265.165043 79.052 -0.5005
267.086538 79.039 -0.2150
269.021957 79.028 0.0643
270.971401 79.020 0.3265
272.934972 79.014 0.5706
274.912771 79.010 0.8054
276.904902 79.008 1.0414
278.911469 79.008 1.2838
280.932577 79.008 1.5334
282.968330 79.008 1.7880
285.018835 79.007 2.0436
287.084199 79.004 2.2958
289.164530 79.001 2.5413
291.259935 78.995 2.7783
293.370525 78.989 3.0081
295.496408 78.982 3.2345
297.637697 78.975 3.4615
299.794503 78.970 3.6909
301.966937 78.967 3.9222
304.155114 78.965 4.1542
306.359147 78.966 4.3861
308.579152 78.968 4.6198
310.815244 78.971 4.8589
313.067539 78.975 5.1050
315.336156 78.979 5.3555
317.621211 78.982 5.6063
319.922826 78.984 5.8550
322.241118 78.985 6.1013
324.576210 78.984 6.3458
326.928223 78.982 6.5876
329.297280 78.980 6.8253
331.683504 78.979 7.0581
334.087019 78.979 7.2871
336.507952 78.983 7.5158
338.946427 78.990 7.7478
341.402572 79.000 7.9846
343.876516 79.011 8.2274
346.368387 79.023 8.4763
348.878315 79.035 8.7281
351.406431 79.046 8.9772
353.952867 79.056 9.2202
356.517756 79.065 9.4567
359.101230 79.075 9.6868
361.703426 79.085 9.9093
364.324478 79.095 10.1224
366.964523 79.105 10.3254
369.623699 79.115 10.5198
372.302145 79.123 10.7095
375.000000 79.130 10.8992
377.717405 79.137 11.0920
380.454501 79.144 11.2883
383.211431 79.151 11.4877
385.988339 79.159 11.6896
388.785369 79.167 11.8950
391.602668 79.175 12.1057
394.440383 79.183 12.3213
397.298660 79.190 12.5382
400.177650 79.195 12.7503
403.077502 79.199 12.9534
405.998368 79.201 13.1498
408.940400 79.203 13.3501
411.903750 79.205 13.5690
414.888575 79.208 13.8165
417.895028 79.213 14.0912
420.923268 79.222 14.3800
423.973452 79.233 14.6658
427.045738 79.248 14.9351
430.140287 79.267 15.1804
433.257261 79.287 15.4000
436.396822 79.310 15.5973
439.559133 79.333 15.7769
442.744360 79.356 15.9408
445.952668 79.378 16.0901
449.184225 79.400 16.2275
452.439199 79.420 16.3594
455.717760 79.438 16.4933
459.020079 79.454 16.6333
462.346327 79.469 16.7771
465.696680 79.481 16.9182
469.071310 79.493 17.0507
472.470394 79.505 17.1738
475.894109 79.517 17.2952
479.342634 79.530 17.4250
482.816148 79.545 17.5694
486.314833 79.561 17.7278
489.838871 79.578 17.8961
493.388445 79.595 18.0685
496.963741 79.611 18.2399
500.564945 79.625 18.4071
504.192245 79.638 18.5689
507.845830 79.649 18.7247
511.525890 79.658 18.8745
515.232618 79.667 19.0200
518.966206 79.676 19.1641
522.726849 79.685 19.3090
526.514743 79.697 19.4555
530.330086 79.710 19.6032
534.173076 79.726 19.7514
538.043915 79.743 19.8998
541.942803 79.760 20.0487
545.869944 79.777 20.1984
549.825542 79.792 20.3472
553.809805 79.807 20.4932
557.822939 79.819 20.6354
561.865154 79.831 20.7745
565.936660 79.841 20.9105
570.037671 79.850 21.0396
574.168399 79.860 21.1567
578.329060 79.869 21.2605
582.519870 79.879 21.3547
586.741049 79.889 21.4456
590.992817 79.900 21.5381
595.275394 79.911 21.6359
599.589005 79.923 21.7419
603.933874 79.935 21.8585
608.310228 79.949 21.9868
612.718295 79.963 22.1267
617.158304 79.977 22.2777
621.630488 79.992 22.4352
626.135079 80.004 22.5924
630.672311 80.015 22.7457
635.242423 80.024 22.8950
639.845651 80.030 23.0413
644.482237 80.035 23.1846
649.152421 80.038 23.3262
653.856447 80.042 23.4683
658.594560 80.047 23.6144
663.367008 80.053 23.7687
668.174039 80.061 23.9347
673.015903 80.070 24.1115
677.892854 80.081 24.2911
682.805145 80.092 24.4639
687.753032 80.103 24.6233
692.736774 80.113 24.7711
697.756631 80.121 24.9172
702.812863 80.128 25.0732
707.905735 80.132 25.2445
713.035511 80.136 25.4301
718.202461 80.142 25.6252
723.406852 80.149 25.8256
728.648956 80.159 26.0281
733.929047 80.171 26.2293
739.247399 80.186 26.4274
744.604290 80.201 26.6238
750.000000 80.215 26.8228
755.434809 80.228 27.0274
760.909001 80.238 27.2379
766.422861 80.247 27.4512
771.976677 80.256 27.6640
777.570739 80.265 27.8752
783.205337 80.277 28.0865
788.880766 80.291 28.3002
794.597321 80.306 28.5167
800.355301 80.322 28.7347
806.155005 80.337 28.9525
811.996736 80.353 29.1680
817.880799 80.368 29.3798
823.807501 80.381 29.5872
829.777150 80.395 29.7894
835.790057 80.408 29.9852
841.846536 80.422 30.1743
847.946903 80.438 30.3581
854.091476 80.455 30.5407
860.280575 80.473 30.7275
866.514523 80.492 30.9239
872.793644 80.513 31.1327
879.118267 80.534 31.3550
885.488720 80.556 31.5911
891.905336 80.579 31.8396
898.368450 80.604 32.0969
904.878398 80.631 32.3569
911.435520 80.661 32.6122
918.040157 80.692 32.8566
924.692655 80.723 33.0856
931.393359 80.755 33.2970
938.142619 80.786 33.4927
944.940787 80.816 33.6780
951.788218 80.847 33.8608
958.685268 80.878 34.0479
965.632296 80.912 34.2428
972.629666 80.947 34.4456
979.677741 80.985 34.6552
986.776890 81.025 34.8698
993.927482 81.066 35.0862
1001.129891 81.106 35.2988
1008.384491 81.145 35.5005
1015.691660 81.181 35.6829
1023.051781 81.216 35.8379
1030.465236 81.251 35.9610
1037.932411 81.287 36.0522
1045.453698 81.324 36.1161
1053.029486 81.363 36.1594
1060.660172 81.402 36.1911
1068.346153 81.442 36.2213
1076.087829 81.481 36.2583
1083.885605 81.519 36.3069
1091.739887 81.558 36.3694
1099.651084 81.597 36.4462
1107.619609 81.638 36.5356
1115.645878 81.681 36.6329
1123.730308 81.724 36.7310
1131.873321 81.766 36.8228
1140.075341 81.807 36.9023
1148.336797 81.847 36.9656
1156.658119 81.884 37.0096
1165.039741 81.921 37.0321
1173.482099 81.957 37.0323
1181.985634 81.993 37.0133
1190.550789 82.030 36.9818
1199.178011 82.068 36.9451
1207.867749 82.106 36.9087
1216.620457 82.143 36.8740
1225.436590 82.179 36.8380
1234.316609 82.212 36.7950
1243.260976 82.241 36.7388
1252.270157 82.265 36.6651
1261.344623 82.286 36.5746
1270.484846 82.304 36.4721
1279.691303 82.319 36.3642
1288.964474 82.333 36.2563
1298.304842 82.347 36.1536
1307.712894 82.360 36.0607
1317.189120 82.373 35.9800
1326.734016 82.386 35.9099
1336.348077 82.396 35.8455
1346.031806 82.404 35.7809
1355.785708 82.407 35.7114
1365.610290 82.405 35.6335
1375.506065 82.398 35.5480
1385.473549 82.386 35.4606
1395.513261 82.371 35.3815
1405.625726 82.353 35.3217
1415.811469 82.333 35.2896
1426.071023 82.313 35.2895
1436.404921 82.292 35.3214
1446.813703 82.270 35.3828
1457.297912 82.247 35.4694
1467.858093 82.223 35.5756
1478.494798 82.197 35.6932
1489.208581 82.169 35.8130
1500.000000 82.138 35.9312
1510.869618 82.105 36.0542
1521.818002 82.070 36.1983
1532.845723 82.034 36.3816
1543.953355 81.996 36.6173
1555.141477 81.958 36.9093
1566.410674 81.920 37.2545
1577.761531 81.882 37.6471
1589.194642 81.843 38.0807
1600.710601 81.805 38.5499
1612.310010 81.766 39.0511
1623.993473 81.726 39.5823
1635.761599 81.687 40.1423
1647.615002 81.650 40.7340
1659.554299 81.617 41.3664
1671.580114 81.591 42.0523
1683.693072 81.573 42.8028
1695.893807 81.564 43.6250
1708.182952 81.569 44.5219
1720.561150 81.589 45.4929
1733.029045 81.628 46.5330
1745.587288 81.688 47.6296
1758.236533 81.772 48.7603
1770.977440 81.880 49.8913
1783.810673 82.012 50.9800
1796.736900 82.164 51.9818
1809.756796 82.333 52.8585
1822.871040 82.512 53.5844
1836.080315 82.695 54.1485
1849.385310 82.877 54.5547
1862.786718 83.053 54.8205
1876.285239 83.225 54.9752
1889.881575 83.391 55.0543
1903.576436 83.555 55.0900
1917.370535 83.717 55.1042
1931.264593 83.879 55.1040
1945.259332 84.041 55.0819
1959.355483 84.202 55.0190
1973.553781 84.361 54.8937
1987.854965 84.516 54.6912
2002.259781 84.665 54.4058
2016.768981 84.806 54.0402
2031.383320 84.940 53.6031
2046.103561 85.065 53.1080
2060.930471 85.182 52.5717
2075.864823 85.291 52.0137
2090.907395 85.391 51.4510
2106.058972 85.484 50.8936
2121.320344 85.570 50.3452
2136.692305 85.650 49.8041
2152.175658 85.723 49.2640
2167.771210 85.790 48.7162
2183.479774 85.850 48.1516
2199.302169 85.904 47.5644
2215.239219 85.953 46.9570
2231.291755 85.998 46.3412
2247.460615 86.039 45.7336
2263.746641 86.079 45.1506
2280.150683 86.116 44.6038
2296.673595 86.151 44.0981
2313.316238 86.184 43.6293
2330.079481 86.213 43.1833
2346.964198 86.238 42.7389
2363.971268 86.258 42.2773
2381.101578 86.275 41.7873
2398.356022 86.288 41.2665
2415.735498 86.299 40.7203
2433.240913 86.309 40.1585
2450.873180 86.316 39.5910
2468.633217 86.322 39.0255
2486.521951 86.326 38.4680
2504.540314 86.329 37.9233
2522.689246 86.330 37.3978
2540.969692 86.331 36.9001
2559.382606 86.332 36.4404
2577.928947 86.334 36.0270
2596.609683 86.336 35.6632
2615.425787 86.338 35.3450
2634.378241 86.340 35.0599
2653.468031 86.342 34.7889
2672.696154 86.341 34.5117
2692.063613 86.338 34.2131
2711.571415 86.333 33.8864
2731.220579 86.325 33.5344
2751.012130 86.315 33.1681
2770.947098 86.305 32.8050
2791.026522 86.296 32.4619
2811.251451 86.289 32.1480
2831.622938 86.287 31.8636
2852.142045 86.288 31.6035
2872.809842 86.291 31.3569
2893.627406 86.294 31.1068
2914.595823 86.295 30.8311
2935.716186 86.293 30.5088
2956.989596 86.287 30.1249
2978.417161 86.276 29.6724
3000.000000 86.262 29.1545
3021.739237 86.244 28.5852
3043.636005 86.224 27.9855
3065.691446 86.200 27.3762
3087.906710 86.172 26.7739
3110.282955 86.140 26.1935
3132.821347 86.103 25.6501
3155.523062 86.064 25.1599
3178.389283 86.023 24.7384
3201.421202 85.982 24.3953
3224.620020 85.942 24.1307
3247.986946 85.903 23.9335
3271.523198 85.865 23.7805
3295.230004 85.826 23.6425
3319.108599 85.786 23.4911
3343.160228 85.745 23.3062
3367.386145 85.702 23.0803
3391.787613 85.658 22.8201
3416.365904 85.614 22.5432
3441.122300 85.570 22.2749
3466.058091 85.528 22.0396
3491.174576 85.487 21.8533
3516.473066 85.448 21.7184
3541.954880 85.410 21.6241
3567.621345 85.372 21.5486
3593.473800 85.332 21.4634
3619.513592 85.290 21.3419
3645.742080 85.243 21.1644
3672.160630 85.193 20.9231
3698.770620 85.140 20.6215
3725.573436 85.084 20.2719
3752.570477 85.028 19.8905
3779.763150 84.971 19.4928
3807.152872 84.913 19.0928
3834.741071 84.854 18.7051
3862.529185 84.794 18.3461
3890.518664 84.733 18.0344
3918.710966 84.672 17.7871
3947.107561 84.610 17.6171
3975.709929 84.549 17.5305
4004.519563 84.489 17.5227
4033.537962 84.429 17.5772
4062.766641 84.368 17.6665
4092.207123 84.306 17.7570
4121.860942 84.242 17.8181
4151.729646 84.175 17.8326
4181.814790 84.106 17.8021
4212.117944 84.034 17.7468
4242.640687 83.961 17.7005
4273.384610 83.888 17.7013
4304.351317 83.817 17.7795
4335.542421 83.746 17.9498
4366.959549 83.678 18.2075
4398.604338 83.612 18.5310
4430.478438 83.547 18.8881
4462.583511 83.483 19.2442
4494.921231 83.419 19.5718
4527.493283 83.356 19.8582
4560.301365 83.293 20.1097
4593.347189 83.231 20.3513
4626.632476 83.173 20.6189
4660.158962 83.119 20.9496
4693.928395 83.072 21.3706
4727.942535 83.032 21.8922
4762.203156 82.999 22.5052
4796.712043 82.975 23.1816
4831.470996 82.959 23.8809
4866.481826 82.950 24.5607
4901.746360 82.948 25.1865
4937.266434 82.952 25.7408
4973.043902 82.964 26.2281
5009.080628 82.985 26.6731
5045.378492 83.016 27.1108
5081.939384 83.060 27.5747
5118.765212 83.118 28.0841
5155.857894 83.191 28.6359
5193.219366 83.279 29.2013
5230.851574 83.379 29.7318
5268.756481 83.489 30.1692
5306.936062 83.609 30.4590
5345.392309 83.735 30.5623
5384.127225 83.865 30.4629
5423.142830 83.998 30.1683
5462.441159 84.131 29.7046
5502.024259 84.264 29.1085
5541.894195 84.391 28.4184
5582.053045 84.512 27.6636
5622.502902 84.622 26.8550
5663.245876 84.718 25.9832
5704.284090 84.797 25.0251
5745.619684 84.854 23.9529
5787.254813 84.886 22.7427
5829.191647 84.892 21.3835
5871.432373 84.871 19.8847
5913.979192 84.822 18.2755
5956.834323 84.747 16.5988
6000.000000 84.645 14.9022
6043.478473 84.519 13.2316
6087.272010 84.367 11.6288
6131.382892 84.193 10.1331
6175.813420 83.996 8.7849
6220.565910 83.781 7.6292
6265.642695 83.552 6.7156
6311.046124 83.313 6.0890
6356.778566 83.073 5.7715
6402.842404 82.839 5.7422
6449.240040 82.616 5.9274
6495.973891 82.403 6.2177
6543.046396 82.194 6.5164
6590.460007 81.979 6.7847
6638.217197 81.751 7.0449
6686.320456 81.511 7.3549
6734.772290 81.263 7.7859
6783.575226 81.015 8.4107
6832.731809 80.774 9.2975
6882.244600 80.545 10.5016
6932.116181 80.337 12.0538
6982.349153 80.155 13.9510
7032.946133 80.009 16.1512
7083.909760 79.905 18.5731
7135.242690 79.851 21.0980
7186.947600 79.850 23.5885
7239.027185 79.904 25.9321
7291.484160 80.008 28.0824
7344.321260 80.165 30.0503
7397.541239 80.378 31.8568
7451.146872 80.653 33.4969
7505.140954 80.993 34.9310
7559.526299 81.398 36.0941
7614.305743 81.863 36.9102
7669.482141 82.379 37.3080
7725.058371 82.931 37.2318
7781.037328 83.503 36.6451
7837.421932 84.073 35.5245
7894.215122 84.620 33.8548
7951.419859 85.119 31.6302
8009.039125 85.549 28.8629
8067.075924 85.892 25.5941
8125.533282 86.132 21.9020
8184.414245 86.262 17.9032
8243.721885 86.280 13.7499
8303.459292 86.192 9.6204
8363.629581 86.009 5.7001
8424.235888 85.748 2.1594
8485.281374 85.431 -0.8671
8546.769221 85.078 -3.2969
8608.702634 84.711 -5.1135
8671.084842 84.348 -6.3676
8733.919097 84.003 -7.1661
8797.208675 83.685 -7.6503
8860.956876 83.402 -7.9681
8925.167022 83.153 -8.2461
8989.842461 82.939 -8.5659
9054.986566 82.758 -8.9579
9120.602731 82.610 -9.4092
9186.694378 82.493 -9.8824
9253.264952 82.404 -10.3361
9320.317925 82.340 -10.7484
9387.856790 82.299 -11.1374
9455.885071 82.276 -11.5636
9524.406312 82.267 -12.1168
9593.424086 82.266 -12.8960
9662.941992 82.266 -13.9888
9732.963653 82.262 -15.4501
9803.492719 82.248 -17.2881
9874.532869 82.218 -19.4621
9946.087805 82.165 -21.8956
10018.161257 82.084 -24.4941
10090.756983 81.968 -27.1624
10163.878768 81.811 -29.8221
10237.530423 81.610 -32.4258
10311.715789 81.360 -34.9614
10386.438732 81.057 -37.4429
10461.703149 80.702 -39.8978
10537.512962 80.292 -42.3540
10613.872125 79.831 -44.8240
10690.784618 79.320 -47.2924
10768.254450 78.764 -49.7148
10846.285661 78.170 -52.0319
10924.882318 77.544 -54.1833
11004.048518 76.890 -56.1161
11083.788390 76.215 -57.7857
11164.106090 75.525 -59.1537
11245.005805 74.824 -60.1834
11326.491752 74.117 -60.8348
11408.568180 73.409 -61.0627
11491.239368 72.705 -60.8239
11574.509626 72.007 -60.0947
11658.383294 71.320 -58.8900
11742.864745 70.645 -57.2697
11827.958384 69.984 -55.3297
11913.668646 69.336 -53.1833
12000.000000 68.703 -50.9342
12086.956947 68.085 -48.6491
12174.544019 67.481 -46.3397
12262.765784 66.894 -43.9615
12351.626840 66.325 -41.4289
12441.131819 65.774 -38.6360
12531.285389 65.244 -35.4832
12622.092249 64.735 -31.9056
12713.557132 64.250 -27.8940
12805.684808 63.788 -23.4899
12898.480079 63.352 -18.7659
12991.947783 62.945 -13.8023
13086.092792 62.572 -8.6588
13180.920015 62.244 -3.3466
13276.434395 61.977 2.1799
13372.640911 61.791 8.0032
13469.544580 61.716 14.2023
13567.150452 61.783 20.8092
13665.463617 62.027 27.7712
13764.489200 62.473 34.9265
13864.232362 63.133 42.0106
13964.698305 63.996 48.6976
14065.892266 65.031 54.6621
14167.819519 66.196 59.6259
14270.485380 67.440 63.3752
14373.895200 68.715 65.7586
14478.054370 69.976 66.6866
14582.968320 71.183 66.1322
14688.642520 72.301 64.1318
14795.082478 73.301 60.7875
14902.293745 74.158 56.2759
15010.281908 74.856 50.8585
15119.052599 75.388 44.8701
15228.611486 75.760 38.6813
15338.964283 75.988 32.6472
15450.116741 76.102 27.0532
15562.074656 76.138 22.0675
15674.843864 76.133 17.7112
15788.430244 76.120 13.8613
15902.839718 76.125 10.2872
16018.078250 76.160 6.7018
16134.151848 76.225 2.8168
16251.066563 76.309 -1.5950
16368.828491 76.388 -6.6498
16487.443769 76.436 -12.3386
16606.918584 76.422 -18.5455
16727.259161 76.315 -25.0768
16848.471777 76.089 -31.6865
16970.562748 75.726 -38.1132
17093.538442 75.219 -44.1260
17217.405268 74.569 -49.5623
17342.169684 73.790 -54.3391
17467.838194 72.903 -58.4462
17594.417350 71.930 -61.9305
17721.913751 70.899 -64.8654
17850.334044 69.834 -67.3131
17979.684923 68.761 -69.2969
18109.973131 67.703 -70.7988
18241.205462 66.678 -71.7803
18373.388756 65.703 -72.2112
18506.529905 64.785 -72.1024
18640.635849 63.929 -71.5386
18775.713581 63.132 -70.6849
18911.770141 62.386 -69.7639
19048.812624 61.682 -69.0130
19186.848172 61.005 -68.6372
19325.883983 60.348 -68.7612
19465.927305 59.708 -69.3950
19606.985439 59.098 -70.4291
19749.065738 58.552 -71.6460
19892.175609 58.127 -72.7441
20036.322514 57.891 -73.4022
