* Measurement data measured by REW V5.31.3
* Source: Headset (CX31993 HIFI AUDIO), MICROPHONE (Master Volume), R, volume: 0.250
* Format: 256k Log Swept Sine, 1 sweep at -12.0 dBFS with no timing reference
* Dated: 12 31, 24 12:58:42 PM
* REW Settings:
*  C-weighting compensation: Off
*  Target level: 75.0 dB
* Note: ; 
* Measurement: Sony LB CB -3 L
* Smoothing: 1/12 octave
* Frequency Step: 96 ppo
* Start Frequency: 0.36621094 Hz
*
* Freq(Hz) SPL(dB) Phase(degrees)
0.366211 34.479 -69.1749
0.368865 34.499 -69.2699
0.371538 34.528 -69.4109
0.374230 34.564 -69.5856
0.376942 34.605 -69.7835
0.379673 34.648 -69.9969
0.382424 34.694 -70.2207
0.385196 34.740 -70.4517
0.387987 34.788 -70.6882
0.390798 34.836 -70.9291
0.393630 34.884 -71.1738
0.396483 34.933 -71.4221
0.399356 34.982 -71.6738
0.402250 35.032 -71.9288
0.405165 35.082 -72.1869
0.408101 35.132 -72.4483
0.411058 35.183 -72.7128
0.414037 35.234 -72.9804
0.417037 35.286 -73.2511
0.420059 35.338 -73.5248
0.423103 35.390 -73.8016
0.426169 35.442 -74.0813
0.429257 35.495 -74.3640
0.432368 35.549 -74.6497
0.435501 35.602 -74.9382
0.438656 35.657 -75.2295
0.441835 35.711 -75.5237
0.445037 35.766 -75.8206
0.448262 35.821 -76.1203
0.451510 35.877 -76.4227
0.454782 35.933 -76.7278
0.458077 35.990 -77.0355
0.461397 36.047 -77.3458
0.464740 36.104 -77.6586
0.468108 36.162 -77.9740
0.471500 36.220 -78.2918
0.474917 36.279 -78.6121
0.478358 36.338 -78.9348
0.481825 36.397 -79.2599
0.485316 36.457 -79.5872
0.488833 36.517 -79.9169
0.492375 36.578 -80.2489
0.495943 36.639 -80.5831
0.499537 36.701 -80.9195
0.503157 36.763 -81.2581
0.506803 36.826 -81.5988
0.510475 36.889 -81.9416
0.514175 36.952 -82.2866
0.517900 37.016 -82.6335
0.521653 37.080 -82.9826
0.525434 37.145 -83.3336
0.529241 37.211 -83.6866
0.533076 37.276 -84.0416
0.536939 37.343 -84.3986
0.540830 37.409 -84.7575
0.544749 37.477 -85.1183
0.548696 37.544 -85.4811
0.552673 37.613 -85.8457
0.556677 37.681 -86.2123
0.560711 37.750 -86.5808
0.564774 37.820 -86.9511
0.568867 37.890 -87.3234
0.572989 37.961 -87.6976
0.577141 38.032 -88.0737
0.581324 38.104 -88.4517
0.585536 38.176 -88.8316
0.589779 38.249 -89.2135
0.594053 38.323 -89.5973
0.598358 38.396 -89.9831
0.602694 38.471 -90.3709
0.607061 38.546 -90.7608
0.611460 38.621 -91.1527
0.615891 38.697 -91.5466
0.620354 38.774 -91.9427
0.624849 38.851 -92.3410
0.629377 38.929 -92.7414
0.633938 39.007 -93.1441
0.638532 39.086 -93.5490
0.643159 39.165 -93.9563
0.647819 39.245 -94.3660
0.652514 39.326 -94.7781
0.657242 39.407 -95.1927
0.662005 39.489 -95.6098
0.666802 39.571 -96.0296
0.671634 39.654 -96.4521
0.676501 39.737 -96.8773
0.681403 39.822 -97.3053
0.686341 39.906 -97.7362
0.691314 39.992 -98.1701
0.696324 40.077 -98.6071
0.701370 40.164 -99.0471
0.706452 40.251 -99.4902
0.711571 40.339 -99.9364
0.716728 40.427 -100.3855
0.721921 40.515 -100.8374
0.727153 40.604 -101.2917
0.732422 40.692 -101.7477
0.737729 40.781 -102.2048
0.743075 40.870 -102.6623
0.748460 40.959 -103.1195
0.753883 41.049 -103.5758
0.759346 41.139 -104.0310
0.764849 41.229 -104.4849
0.770391 41.321 -104.9372
0.775974 41.412 -105.3878
0.781597 41.504 -105.8368
0.787261 41.597 -106.2840
0.792966 41.691 -106.7294
0.798712 41.785 -107.1731
0.804500 41.880 -107.6151
0.810329 41.975 -108.0553
0.816201 42.071 -108.4938
0.822116 42.167 -108.9307
0.828073 42.265 -109.3659
0.834074 42.362 -109.7995
0.840118 42.461 -110.2317
0.846206 42.559 -110.6624
0.852338 42.659 -111.0918
0.858514 42.759 -111.5199
0.864735 42.859 -111.9468
0.871001 42.961 -112.3726
0.877313 43.062 -112.7975
0.883670 43.165 -113.2215
0.890074 43.267 -113.6447
0.896524 43.371 -114.0673
0.903020 43.475 -114.4895
0.909564 43.579 -114.9113
0.916155 43.684 -115.3328
0.922794 43.789 -115.7543
0.929481 43.895 -116.1759
0.936216 44.002 -116.5977
0.943000 44.109 -117.0200
0.949834 44.216 -117.4428
0.956717 44.324 -117.8663
0.963649 44.432 -118.2908
0.970632 44.541 -118.7163
0.977666 44.650 -119.1432
0.984750 44.760 -119.5715
0.991886 44.870 -120.0014
0.999074 44.980 -120.4332
1.006314 45.091 -120.8671
1.013606 45.202 -121.3032
1.020951 45.313 -121.7418
1.028349 45.425 -122.1831
1.035801 45.537 -122.6272
1.043307 45.650 -123.0744
1.050867 45.762 -123.5249
1.058482 45.875 -123.9788
1.066152 45.988 -124.4363
1.073878 46.102 -124.8974
1.081660 46.215 -125.3620
1.089498 46.329 -125.8299
1.097393 46.443 -126.3007
1.105345 46.558 -126.7739
1.113355 46.672 -127.2487
1.121423 46.787 -127.7247
1.129549 46.902 -128.2013
1.137734 47.018 -128.6782
1.145979 47.134 -129.1552
1.154283 47.250 -129.6320
1.162647 47.366 -130.1087
1.171072 47.483 -130.5852
1.179558 47.600 -131.0613
1.188106 47.717 -131.5371
1.196715 47.835 -132.0125
1.205387 47.953 -132.4876
1.214122 48.071 -132.9623
1.222920 48.190 -133.4367
1.231782 48.308 -133.9107
1.240708 48.427 -134.3845
1.249699 48.547 -134.8580
1.258754 48.666 -135.3313
1.267876 48.786 -135.8044
1.277063 48.906 -136.2775
1.286318 49.027 -136.7505
1.295639 49.147 -137.2235
1.305027 49.268 -137.6967
1.314484 49.389 -138.1700
1.324009 49.510 -138.6437
1.333604 49.632 -139.1178
1.343268 49.754 -139.5923
1.353002 49.876 -140.0675
1.362806 49.998 -140.5434
1.372681 50.120 -141.0202
1.382628 50.243 -141.4979
1.392647 50.366 -141.9768
1.402739 50.489 -142.4568
1.412904 50.612 -142.9382
1.423142 50.736 -143.4209
1.433455 50.860 -143.9051
1.443843 50.983 -144.3906
1.454305 51.107 -144.8773
1.464844 51.231 -145.3649
1.475459 51.355 -145.8531
1.486150 51.480 -146.3413
1.496920 51.604 -146.8294
1.507767 51.728 -147.3170
1.518693 51.852 -147.8040
1.529698 51.977 -148.2905
1.540783 52.101 -148.7764
1.551948 52.225 -149.2617
1.563194 52.349 -149.7466
1.574521 52.473 -150.2312
1.585931 52.598 -150.7156
1.597423 52.722 -151.1999
1.608999 52.846 -151.6844
1.620658 52.970 -152.1691
1.632402 53.094 -152.6543
1.644232 53.218 -153.1400
1.656146 53.342 -153.6266
1.668147 53.467 -154.1143
1.680235 53.591 -154.6031
1.692411 53.715 -155.0934
1.704675 53.839 -155.5854
1.717028 53.963 -156.0793
1.729470 54.087 -156.5753
1.742003 54.212 -157.0737
1.754626 54.336 -157.5748
1.767341 54.460 -158.0787
1.780147 54.584 -158.5858
1.793047 54.709 -159.0962
1.806040 54.833 -159.6100
1.819128 54.957 -160.1274
1.832310 55.082 -160.6484
1.845587 55.206 -161.1728
1.858961 55.329 -161.7005
1.872432 55.453 -162.2310
1.886001 55.576 -162.7642
1.899667 55.700 -163.2996
1.913433 55.822 -163.8369
1.927299 55.945 -164.3759
1.941265 56.067 -164.9163
1.955332 56.189 -165.4577
1.969501 56.311 -166.0000
1.983773 56.433 -166.5430
1.998148 56.554 -167.0864
2.012627 56.675 -167.6301
2.027212 56.796 -168.1739
2.041902 56.916 -168.7177
2.056698 57.037 -169.2615
2.071602 57.157 -169.8051
2.086614 57.277 -170.3485
2.101734 57.397 -170.8917
2.116964 57.517 -171.4346
2.132304 57.636 -171.9775
2.147756 57.756 -172.5204
2.163320 57.875 -173.0635
2.178996 57.995 -173.6072
2.194786 58.114 -174.1517
2.210690 58.232 -174.6976
2.226710 58.351 -175.2450
2.242845 58.468 -175.7943
2.259098 58.586 -176.3453
2.275468 58.703 -176.8979
2.291957 58.819 -177.4520
2.308566 58.935 -178.0070
2.325295 59.051 -178.5628
2.342145 59.166 -179.1190
2.359117 59.281 -179.6752
2.376212 59.395 179.7689
2.393431 59.509 179.2136
2.410775 59.623 178.6592
2.428244 59.736 178.1059
2.445840 59.849 177.5540
2.463564 59.962 177.0037
2.481416 60.075 176.4550
2.499397 60.187 175.9081
2.517509 60.300 175.3629
2.535752 60.412 174.8192
2.554127 60.523 174.2766
2.572635 60.635 173.7346
2.591277 60.746 173.1927
2.610055 60.856 172.6505
2.628968 60.966 172.1078
2.648019 61.075 171.5647
2.667208 61.184 171.0212
2.686535 61.292 170.4777
2.706003 61.400 169.9345
2.725612 61.508 169.3918
2.745363 61.615 168.8502
2.765257 61.721 168.3099
2.785295 61.828 167.7713
2.805478 61.934 167.2347
2.825808 62.040 166.7006
2.846285 62.145 166.1690
2.866910 62.251 165.6402
2.887685 62.356 165.1141
2.908611 62.461 164.5908
2.929688 62.566 164.0697
2.950917 62.671 163.5507
2.972301 62.775 163.0331
2.993839 62.879 162.5167
3.015534 62.982 162.0013
3.037386 63.085 161.4871
3.059396 63.188 160.9740
3.081565 63.290 160.4622
3.103896 63.392 159.9521
3.126388 63.494 159.4437
3.149043 63.595 158.9375
3.171862 63.697 158.4337
3.194847 63.798 157.9325
3.217998 63.899 157.4341
3.241317 64.000 156.9387
3.264805 64.102 156.4465
3.288463 64.203 155.9572
3.312293 64.304 155.4709
3.336295 64.405 154.9872
3.360471 64.506 154.5061
3.384822 64.607 154.0271
3.409350 64.708 153.5502
3.434056 64.808 153.0753
3.458940 64.909 152.6021
3.484005 65.009 152.1307
3.509252 65.109 151.6609
3.534681 65.210 151.1928
3.560295 65.310 150.7263
3.586094 65.411 150.2613
3.612081 65.511 149.7979
3.638255 65.612 149.3361
3.664620 65.713 148.8760
3.691175 65.815 148.4176
3.717923 65.916 147.9609
3.744864 66.017 147.5058
3.772001 66.119 147.0521
3.799335 66.220 146.5996
3.826866 66.322 146.1480
3.854597 66.424 145.6971
3.882529 66.526 145.2466
3.910664 66.628 144.7961
3.939002 66.730 144.3456
3.967546 66.832 143.8948
3.996296 66.934 143.4436
4.025255 67.037 142.9920
4.054423 67.140 142.5402
4.083804 67.243 142.0881
4.113396 67.346 141.6357
4.143204 67.449 141.1832
4.173227 67.552 140.7302
4.203468 67.655 140.2765
4.233928 67.758 139.8219
4.264609 67.861 139.3661
4.295512 67.965 138.9089
4.326639 68.068 138.4500
4.357992 68.171 137.9890
4.389572 68.274 137.5260
4.421380 68.377 137.0609
4.453419 68.479 136.5937
4.485691 68.582 136.1245
4.518196 68.684 135.6534
4.550936 68.786 135.1807
4.583914 68.888 134.7062
4.617131 68.990 134.2301
4.650589 69.092 133.7524
4.684289 69.192 133.2729
4.718233 69.293 132.7917
4.752424 69.393 132.3084
4.786862 69.493 131.8231
4.821549 69.592 131.3355
4.856488 69.691 130.8459
4.891680 69.789 130.3543
4.927127 69.886 129.8613
4.962831 69.983 129.3672
4.998794 70.080 128.8723
5.035017 70.176 128.3770
5.071503 70.271 127.8814
5.108253 70.365 127.3855
5.145270 70.459 126.8892
5.182555 70.552 126.3924
5.220110 70.644 125.8950
5.257937 70.735 125.3972
5.296038 70.826 124.8995
5.334415 70.916 124.4024
5.373071 71.005 123.9063
5.412006 71.094 123.4118
5.451224 71.182 122.9192
5.490725 71.269 122.4285
5.530514 71.355 121.9397
5.570590 71.441 121.4526
5.610957 71.526 120.9672
5.651616 71.610 120.4837
5.692570 71.694 120.0025
5.733821 71.777 119.5238
5.775370 71.859 119.0480
5.817221 71.941 118.5755
5.859375 72.023 118.1064
5.901834 72.104 117.6405
5.944602 72.184 117.1778
5.987679 72.264 116.7181
6.031068 72.344 116.2614
6.074771 72.423 115.8076
6.118792 72.502 115.3566
6.163131 72.581 114.9086
6.207792 72.660 114.4634
6.252776 72.739 114.0211
6.298086 72.817 113.5816
6.343725 72.895 113.1445
6.389694 72.973 112.7097
6.435996 73.051 112.2766
6.482634 73.129 111.8451
6.529610 73.207 111.4148
6.576926 73.285 110.9854
6.624585 73.363 110.5568
6.672590 73.441 110.1289
6.720942 73.518 109.7013
6.769645 73.596 109.2739
6.818700 73.673 108.8461
6.868111 73.751 108.4178
6.917881 73.828 107.9885
6.968010 73.905 107.5579
7.018504 73.982 107.1260
7.069362 74.059 106.6927
7.120590 74.135 106.2579
7.172189 74.211 105.8215
7.224161 74.286 105.3836
7.276511 74.361 104.9440
7.329239 74.436 104.5027
7.382350 74.509 104.0595
7.435845 74.583 103.6147
7.489729 74.655 103.1685
7.544002 74.727 102.7211
7.598669 74.798 102.2728
7.653732 74.869 101.8241
7.709194 74.938 101.3749
7.765058 75.007 100.9256
7.821327 75.074 100.4763
7.878004 75.141 100.0274
7.935091 75.207 99.5794
7.992592 75.273 99.1328
8.050510 75.337 98.6879
8.108847 75.401 98.2450
8.167607 75.464 97.8043
8.226793 75.526 97.3658
8.286408 75.587 96.9300
8.346454 75.648 96.4970
8.406936 75.709 96.0671
8.467856 75.769 95.6403
8.529218 75.828 95.2167
8.591024 75.887 94.7962
8.653278 75.946 94.3785
8.715983 76.005 93.9635
8.779143 76.063 93.5510
8.842760 76.121 93.1408
8.906839 76.180 92.7327
8.971381 76.238 92.3261
9.036392 76.296 91.9207
9.101873 76.354 91.5158
9.167829 76.413 91.1112
9.234263 76.471 90.7063
9.301178 76.529 90.3009
9.368578 76.588 89.8945
9.436467 76.646 89.4866
9.504847 76.704 89.0770
9.573723 76.762 88.6652
9.643099 76.820 88.2512
9.712976 76.877 87.8348
9.783361 76.934 87.4160
9.854255 76.991 86.9949
9.925663 77.047 86.5715
9.997588 77.102 86.1459
10.070035 77.157 85.7185
10.143007 77.211 85.2897
10.216507 77.265 84.8598
10.290540 77.318 84.4293
10.365109 77.370 83.9985
10.440219 77.421 83.5680
10.515873 77.472 83.1382
10.592076 77.521 82.7095
10.668830 77.571 82.2825
10.746141 77.620 81.8574
10.824012 77.668 81.4343
10.902447 77.716 81.0135
10.981451 77.763 80.5952
11.061027 77.811 80.1791
11.141180 77.858 79.7654
11.221913 77.905 79.3535
11.303232 77.953 78.9432
11.385140 78.000 78.5341
11.467641 78.047 78.1257
11.550741 78.095 77.7174
11.634442 78.143 77.3086
11.718750 78.191 76.8987
11.803669 78.239 76.4871
11.889203 78.287 76.0733
11.975357 78.335 75.6568
12.062136 78.383 75.2373
12.149543 78.431 74.8144
12.237583 78.478 74.3880
12.326262 78.525 73.9581
12.415583 78.572 73.5248
12.505552 78.618 73.0884
12.596172 78.663 72.6493
12.687449 78.708 72.2078
12.779387 78.751 71.7648
12.871992 78.794 71.3208
12.965268 78.835 70.8765
13.059220 78.876 70.4328
13.153852 78.916 69.9903
13.249170 78.954 69.5499
13.345179 78.992 69.1122
13.441884 79.029 68.6778
13.539289 79.066 68.2473
13.637401 79.102 67.8210
13.736223 79.137 67.3994
13.835761 79.172 66.9825
13.936021 79.206 66.5706
14.037007 79.241 66.1635
14.138725 79.275 65.7609
14.241180 79.309 65.3627
14.344377 79.344 64.9684
14.448323 79.378 64.5775
14.553021 79.413 64.1893
14.658478 79.449 63.8033
14.764700 79.484 63.4185
14.871691 79.521 63.0341
14.979457 79.557 62.6493
15.088005 79.594 62.2632
15.197339 79.631 61.8748
15.307465 79.669 61.4832
15.418389 79.706 61.0877
15.530117 79.744 60.6876
15.642655 79.781 60.2823
15.756008 79.819 59.8716
15.870182 79.855 59.4551
15.985184 79.891 59.0332
16.101019 79.926 58.6064
16.217694 79.960 58.1753
16.335214 79.992 57.7410
16.453586 80.023 57.3048
16.572815 80.052 56.8683
16.692909 80.080 56.4330
16.813872 80.107 56.0005
16.935713 80.132 55.5724
17.058436 80.156 55.1500
17.182048 80.179 54.7341
17.306556 80.201 54.3254
17.431967 80.223 53.9237
17.558286 80.245 53.5285
17.685521 80.267 53.1387
17.813677 80.290 52.7526
17.942762 80.313 52.3684
18.072783 80.336 51.9841
18.203746 80.359 51.5975
18.335658 80.383 51.2071
18.468526 80.406 50.8117
18.602356 80.429 50.4110
18.737156 80.450 50.0055
18.872934 80.470 49.5966
19.009695 80.487 49.1870
19.147447 80.502 48.7798
19.286197 80.515 48.3790
19.425953 80.525 47.9887
19.566721 80.534 47.6133
19.708510 80.540 47.2561
19.851326 80.546 46.9202
19.995177 80.552 46.6071
20.140070 80.558 46.3168
20.286013 80.566 46.0479
20.433014 80.576 45.7971
20.581080 80.590 45.5600
20.730219 80.607 45.3310
20.880439 80.628 45.1039
21.031747 80.652 44.8727
21.184152 80.679 44.6317
21.337661 80.708 44.3765
21.492282 80.739 44.1039
21.648024 80.770 43.8126
21.804895 80.801 43.5026
21.962902 80.831 43.1754
22.122054 80.860 42.8339
22.282360 80.886 42.4814
22.443827 80.910 42.1216
22.606464 80.932 41.7583
22.770280 80.951 41.3946
22.935283 80.969 41.0328
23.101481 80.985 40.6746
23.268884 81.000 40.3206
23.437500 81.014 39.9706
23.607338 81.027 39.6239
23.778406 81.040 39.2793
23.950714 81.052 38.9357
24.124271 81.063 38.5919
24.299086 81.073 38.2472
24.475167 81.083 37.9013
24.652524 81.091 37.5546
24.831166 81.098 37.2080
25.011103 81.103 36.8630
25.192344 81.106 36.5216
25.374898 81.108 36.1859
25.558775 81.109 35.8583
25.743984 81.109 35.5406
25.930536 81.108 35.2342
26.118439 81.107 34.9396
26.307704 81.106 34.6562
26.498341 81.107 34.3824
26.690359 81.108 34.1156
26.883768 81.112 33.8527
27.078579 81.117 33.5898
27.274801 81.123 33.3240
27.472446 81.131 33.0524
27.671522 81.140 32.7737
27.872042 81.148 32.4876
28.074014 81.156 32.1952
28.277450 81.164 31.8984
28.482360 81.171 31.5993
28.688755 81.178 31.3002
28.896645 81.184 31.0024
29.106042 81.190 30.7068
29.316957 81.195 30.4133
29.529400 81.201 30.1212
29.743382 81.206 29.8299
29.958915 81.211 29.5394
30.176009 81.215 29.2501
30.394677 81.219 28.9636
30.614929 81.221 28.6820
30.836778 81.223 28.4074
31.060234 81.224 28.1415
31.285309 81.225 27.8848
31.512015 81.226 27.6365
31.740364 81.228 27.3943
31.970368 81.231 27.1555
32.202039 81.234 26.9171
32.435388 81.237 26.6766
32.670428 81.239 26.4334
32.907171 81.241 26.1881
33.145630 81.241 25.9429
33.385817 81.240 25.7004
33.627745 81.237 25.4637
33.871425 81.234 25.2347
34.116871 81.230 25.0144
34.364096 81.226 24.8023
34.613113 81.223 24.5968
34.863934 81.220 24.3958
35.116572 81.218 24.1969
35.371041 81.216 23.9984
35.627354 81.215 23.7988
35.885525 81.214 23.5972
36.145566 81.214 23.3928
36.407492 81.214 23.1848
36.671316 81.214 22.9729
36.937051 81.213 22.7570
37.204712 81.213 22.5377
37.474313 81.212 22.3167
37.745867 81.209 22.0968
38.019389 81.206 21.8817
38.294893 81.202 21.6747
38.572394 81.198 21.4783
38.851905 81.195 21.2928
39.133442 81.193 21.1163
39.417019 81.192 20.9443
39.702651 81.194 20.7713
39.990353 81.196 20.5920
40.280140 81.199 20.4036
40.572026 81.201 20.2059
40.866028 81.201 20.0027
41.162160 81.199 19.7998
41.460438 81.194 19.6044
41.760877 81.187 19.4220
42.063494 81.180 19.2556
42.368303 81.172 19.1046
42.675322 81.166 18.9655
42.984565 81.160 18.8336
43.296048 81.155 18.7043
43.609789 81.152 18.5748
43.925804 81.148 18.4437
44.244108 81.145 18.3104
44.564719 81.143 18.1740
44.887654 81.141 18.0320
45.212928 81.140 17.8811
45.540560 81.138 17.7185
45.870565 81.136 17.5437
46.202962 81.132 17.3601
46.537768 81.127 17.1740
46.875000 81.119 16.9929
47.214676 81.111 16.8223
47.556813 81.103 16.6628
47.901429 81.096 16.5106
48.248542 81.092 16.3592
48.598171 81.088 16.2028
48.950334 81.085 16.0396
49.305048 81.082 15.8724
49.662333 81.077 15.7068
50.022206 81.072 15.5486
50.384688 81.067 15.4009
50.749796 81.063 15.2634
51.117550 81.060 15.1331
51.487969 81.058 15.0059
51.861072 81.057 14.8792
52.236879 81.056 14.7518
52.615409 81.056 14.6241
52.996681 81.055 14.4969
53.380717 81.053 14.3713
53.767536 81.051 14.2474
54.157158 81.049 14.1250
54.549603 81.045 14.0033
54.944892 81.041 13.8815
55.343045 81.037 13.7598
55.744084 81.030 13.6394
56.148028 81.023 13.5227
56.554900 81.015 13.4124
56.964720 81.006 13.3093
57.377510 80.998 13.2120
57.793291 80.992 13.1168
58.212085 80.986 13.0194
58.633914 80.981 12.9172
59.058799 80.976 12.8105
59.486764 80.972 12.7019
59.917829 80.968 12.5936
60.352019 80.965 12.4867
60.789354 80.964 12.3796
61.229859 80.963 12.2708
61.673556 80.963 12.1597
62.120468 80.963 12.0486
62.570618 80.962 11.9417
63.024031 80.960 11.8433
63.480729 80.958 11.7561
63.940736 80.956 11.6809
64.404077 80.954 11.6165
64.870776 80.951 11.5620
65.340856 80.949 11.5172
65.814343 80.946 11.4810
66.291261 80.945 11.4475
66.771635 80.945 11.4052
67.255489 80.946 11.3397
67.742850 80.946 11.2427
68.233743 80.943 11.1169
68.728193 80.934 10.9752
69.226226 80.923 10.8315
69.727867 80.908 10.6934
70.233144 80.893 10.5613
70.742083 80.879 10.4343
71.254709 80.864 10.3146
71.771050 80.852 10.2064
72.291132 80.842 10.1102
72.814984 80.835 10.0211
73.342631 80.831 9.9318
73.874102 80.830 9.8387
74.409424 80.830 9.7434
74.948626 80.829 9.6499
75.491734 80.829 9.5618
76.038779 80.827 9.4805
76.589787 80.825 9.4061
77.144788 80.822 9.3369
77.703811 80.819 9.2698
78.266885 80.815 9.2003
78.834039 80.810 9.1255
79.405303 80.804 9.0447
79.980706 80.797 8.9591
80.560280 80.789 8.8703
81.144053 80.782 8.7792
81.732056 80.774 8.6868
82.324320 80.767 8.5953
82.920876 80.761 8.5082
83.521755 80.755 8.4287
84.126988 80.751 8.3582
84.736607 80.749 8.2958
85.350643 80.748 8.2394
85.969129 80.747 8.1866
86.592097 80.747 8.1365
87.219579 80.745 8.0882
87.851608 80.743 8.0411
88.488217 80.740 7.9935
89.129439 80.735 7.9423
89.775308 80.728 7.8849
90.425856 80.720 7.8196
91.081119 80.710 7.7460
91.741131 80.699 7.6647
92.405925 80.687 7.5754
93.075536 80.675 7.4779
93.750000 80.664 7.3721
94.429351 80.653 7.2600
95.113625 80.643 7.1448
95.802858 80.634 7.0305
96.497085 80.626 6.9217
97.196342 80.618 6.8226
97.900667 80.611 6.7362
98.610096 80.605 6.6632
99.324665 80.599 6.6018
100.044413 80.593 6.5472
100.769376 80.586 6.4934
101.499592 80.578 6.4346
102.235100 80.567 6.3682
102.975938 80.553 6.2947
103.722144 80.536 6.2170
104.473757 80.517 6.1381
105.230817 80.496 6.0602
105.993363 80.474 5.9858
106.761435 80.451 5.9182
107.535072 80.427 5.8616
108.314315 80.402 5.8213
109.099206 80.377 5.8010
109.889783 80.351 5.8011
110.686090 80.325 5.8199
111.488167 80.297 5.8568
112.296056 80.268 5.9152
113.109800 80.238 6.0029
113.929440 80.211 6.1268
114.755020 80.187 6.2878
115.586582 80.171 6.4788
116.424170 80.164 6.6864
117.267827 80.164 6.8952
118.117598 80.172 7.0922
118.973527 80.184 7.2703
119.835658 80.198 7.4269
120.704037 80.213 7.5596
121.578708 80.229 7.6638
122.459718 80.245 7.7366
123.347111 80.260 7.7806
124.240935 80.274 7.8032
125.141236 80.288 7.8134
126.048061 80.302 7.8170
126.961458 80.314 7.8149
127.881473 80.325 7.8033
128.808154 80.333 7.7745
129.741551 80.335 7.7198
130.681712 80.331 7.6327
131.628686 80.321 7.5125
132.582521 80.305 7.3688
133.543269 80.286 7.2263
134.510979 80.267 7.1226
135.485701 80.256 7.0863
136.467486 80.259 7.1080
137.456386 80.276 7.1466
138.452451 80.301 7.1721
139.455735 80.327 7.1815
140.466288 80.349 7.1826
141.484165 80.365 7.1799
142.509418 80.374 7.1720
143.542100 80.378 7.1562
144.582265 80.379 7.1320
145.629968 80.378 7.1017
146.685262 80.376 7.0695
147.748204 80.375 7.0400
148.818849 80.372 7.0167
149.897251 80.370 6.9997
150.983469 80.366 6.9853
152.077557 80.361 6.9679
153.179574 80.356 6.9425
154.289576 80.352 6.9070
155.407622 80.348 6.8632
156.533770 80.344 6.8174
157.668078 80.341 6.7786
158.810606 80.338 6.7518
159.961413 80.334 6.7361
161.120559 80.331 6.7260
162.288105 80.328 6.7157
163.464112 80.326 6.7019
164.648640 80.324 6.6836
165.841752 80.323 6.6620
167.043510 80.322 6.6400
168.253976 80.321 6.6201
169.473213 80.318 6.6030
170.701286 80.314 6.5878
171.938258 80.307 6.5734
173.184194 80.300 6.5568
174.439158 80.292 6.5339
175.703216 80.285 6.5033
176.976434 80.277 6.4664
178.258878 80.271 6.4264
179.550615 80.263 6.3855
180.851713 80.255 6.3464
182.162239 80.246 6.3135
183.482262 80.236 6.2902
184.811850 80.226 6.2755
186.151073 80.216 6.2653
187.500000 80.207 6.2572
188.858702 80.198 6.2513
190.227250 80.190 6.2479
191.605715 80.181 6.2461
192.994169 80.172 6.2437
194.392685 80.162 6.2380
195.801334 80.152 6.2279
197.220191 80.142 6.2139
198.649330 80.131 6.1993
200.088825 80.119 6.1879
201.538751 80.106 6.1816
202.999184 80.093 6.1801
204.470200 80.080 6.1833
205.951875 80.066 6.1912
207.444287 80.052 6.2020
208.947514 80.040 6.2122
210.461634 80.029 6.2188
211.986726 80.019 6.2208
213.522869 80.010 6.2192
215.070144 80.002 6.2170
216.628631 79.994 6.2183
218.198411 79.985 6.2279
219.779567 79.975 6.2499
221.372180 79.963 6.2852
222.976334 79.949 6.3306
224.592112 79.934 6.3799
226.219600 79.918 6.4280
227.858880 79.903 6.4730
229.510039 79.888 6.5173
231.173164 79.875 6.5649
232.848340 79.862 6.6183
234.535655 79.851 6.6774
236.235197 79.839 6.7397
237.947054 79.827 6.8019
239.671317 79.813 6.8612
241.408074 79.799 6.9177
243.157416 79.783 6.9725
244.919435 79.766 7.0267
246.694223 79.749 7.0815
248.481871 79.732 7.1393
250.282473 79.716 7.2029
252.096123 79.703 7.2743
253.922915 79.691 7.3542
255.762945 79.681 7.4422
257.616309 79.671 7.5359
259.483103 79.661 7.6332
261.363424 79.649 7.7336
263.257372 79.636 7.8392
265.165043 79.622 7.9528
267.086538 79.607 8.0754
269.021957 79.591 8.2059
270.971401 79.576 8.3396
272.934972 79.562 8.4709
274.912771 79.549 8.5977
276.904902 79.537 8.7217
278.911469 79.526 8.8458
280.932577 79.515 8.9723
282.968330 79.504 9.1022
285.018835 79.493 9.2365
287.084199 79.483 9.3749
289.164530 79.472 9.5157
291.259935 79.461 9.6576
293.370525 79.451 9.8004
295.496408 79.441 9.9455
297.637697 79.432 10.0938
299.794503 79.425 10.2443
301.966937 79.418 10.3951
304.155114 79.413 10.5459
306.359147 79.409 10.6971
308.579152 79.406 10.8500
310.815244 79.403 11.0039
313.067539 79.401 11.1568
315.336156 79.398 11.3073
317.621211 79.395 11.4564
319.922826 79.390 11.6071
322.241118 79.384 11.7631
324.576210 79.376 11.9269
326.928223 79.369 12.0964
329.297280 79.362 12.2667
331.683504 79.357 12.4340
334.087019 79.354 12.5986
336.507952 79.354 12.7638
338.946427 79.356 12.9308
341.402572 79.359 13.0979
343.876516 79.363 13.2638
346.368387 79.366 13.4283
348.878315 79.369 13.5919
351.406431 79.371 13.7554
353.952867 79.372 13.9198
356.517756 79.373 14.0854
359.101230 79.374 14.2494
361.703426 79.376 14.4062
364.324478 79.379 14.5522
366.964523 79.382 14.6880
369.623699 79.385 14.8181
372.302145 79.388 14.9479
375.000000 79.392 15.0808
377.717405 79.399 15.2183
380.454501 79.407 15.3615
383.211431 79.415 15.5131
385.988339 79.424 15.6750
388.785369 79.432 15.8466
391.602668 79.438 16.0253
394.440383 79.442 16.2077
397.298660 79.442 16.3887
400.177650 79.439 16.5630
403.077502 79.433 16.7292
405.998368 79.426 16.8893
408.940400 79.418 17.0483
411.903750 79.412 17.2129
414.888575 79.409 17.3906
417.895028 79.412 17.5864
420.923268 79.420 17.7974
423.973452 79.433 18.0144
427.045738 79.451 18.2269
430.140287 79.471 18.4265
433.257261 79.491 18.6085
436.396822 79.510 18.7716
439.559133 79.527 18.9183
442.744360 79.543 19.0544
445.952668 79.557 19.1865
449.184225 79.571 19.3188
452.439199 79.584 19.4529
455.717760 79.597 19.5873
459.020079 79.608 19.7197
462.346327 79.620 19.8486
465.696680 79.631 19.9750
469.071310 79.643 20.1019
472.470394 79.656 20.2332
475.894109 79.669 20.3713
479.342634 79.683 20.5154
482.816148 79.695 20.6620
486.314833 79.707 20.8060
489.838871 79.718 20.9439
493.388445 79.729 21.0754
496.963741 79.740 21.2029
500.564945 79.751 21.3291
504.192245 79.761 21.4554
507.845830 79.770 21.5815
511.525890 79.780 21.7062
515.232618 79.790 21.8276
518.966206 79.801 21.9429
522.726849 79.813 22.0516
526.514743 79.825 22.1572
530.330086 79.837 22.2646
534.173076 79.847 22.3746
538.043915 79.856 22.4823
541.942803 79.863 22.5804
545.869944 79.868 22.6649
549.825542 79.874 22.7378
553.809805 79.880 22.8068
557.822939 79.887 22.8807
561.865154 79.895 22.9648
565.936660 79.904 23.0594
570.037671 79.914 23.1624
574.168399 79.925 23.2726
578.329060 79.936 23.3904
582.519870 79.949 23.5152
586.741049 79.963 23.6450
590.992817 79.977 23.7766
595.275394 79.992 23.9071
599.589005 80.005 24.0347
603.933874 80.018 24.1593
608.310228 80.028 24.2826
612.718295 80.036 24.4079
617.158304 80.043 24.5386
621.630488 80.051 24.6761
626.135079 80.060 24.8182
630.672311 80.070 24.9606
635.242423 80.082 25.0990
639.845651 80.093 25.2322
644.482237 80.103 25.3621
649.152421 80.110 25.4927
653.856447 80.115 25.6279
658.594560 80.118 25.7689
663.367008 80.120 25.9128
668.174039 80.122 26.0562
673.015903 80.125 26.1990
677.892854 80.128 26.3442
682.805145 80.134 26.4927
687.753032 80.141 26.6426
692.736774 80.149 26.7947
697.756631 80.158 26.9501
702.812863 80.167 27.1076
707.905735 80.174 27.2640
713.035511 80.181 27.4183
718.202461 80.186 27.5726
723.406852 80.190 27.7294
728.648956 80.195 27.8909
733.929047 80.202 28.0595
739.247399 80.212 28.2380
744.604290 80.226 28.4283
750.000000 80.241 28.6292
755.434809 80.257 28.8358
760.909001 80.272 29.0420
766.422861 80.286 29.2419
771.976677 80.298 29.4333
777.570739 80.309 29.6183
783.205337 80.319 29.8005
788.880766 80.328 29.9809
794.597321 80.337 30.1576
800.355301 80.346 30.3292
806.155005 80.356 30.4960
811.996736 80.365 30.6592
817.880799 80.376 30.8219
823.807501 80.389 30.9894
829.777150 80.403 31.1689
835.790057 80.418 31.3668
841.846536 80.435 31.5857
847.946903 80.455 31.8247
854.091476 80.476 32.0788
860.280575 80.499 32.3401
866.514523 80.523 32.5996
872.793644 80.548 32.8504
879.118267 80.572 33.0876
885.488720 80.595 33.3104
891.905336 80.618 33.5232
898.368450 80.640 33.7334
904.878398 80.662 33.9470
911.435520 80.686 34.1645
918.040157 80.710 34.3833
924.692655 80.737 34.6011
931.393359 80.764 34.8179
938.142619 80.794 35.0351
944.940787 80.824 35.2523
951.788218 80.855 35.4650
958.685268 80.887 35.6662
965.632296 80.920 35.8502
972.629666 80.954 36.0150
979.677741 80.990 36.1617
986.776890 81.027 36.2925
993.927482 81.064 36.4098
1001.129891 81.102 36.5169
1008.384491 81.140 36.6179
1015.691660 81.177 36.7156
1023.051781 81.214 36.8115
1030.465236 81.251 36.9083
1037.932411 81.289 37.0117
1045.453698 81.329 37.1280
1053.029486 81.371 37.2590
1060.660172 81.413 37.3995
1068.346153 81.455 37.5389
1076.087829 81.497 37.6654
1083.885605 81.538 37.7700
1091.739887 81.578 37.8502
1099.651084 81.617 37.9091
1107.619609 81.655 37.9536
1115.645878 81.693 37.9917
1123.730308 81.732 38.0308
1131.873321 81.772 38.0760
1140.075341 81.814 38.1287
1148.336797 81.857 38.1867
1156.658119 81.902 38.2445
1165.039741 81.946 38.2952
1173.482099 81.988 38.3309
1181.985634 82.027 38.3441
1190.550789 82.064 38.3287
1199.178011 82.097 38.2829
1207.867749 82.126 38.2102
1216.620457 82.154 38.1188
1225.436590 82.181 38.0196
1234.316609 82.208 37.9240
1243.260976 82.235 37.8407
1252.270157 82.261 37.7724
1261.344623 82.286 37.7151
1270.484846 82.310 37.6605
1279.691303 82.332 37.5992
1288.964474 82.350 37.5235
1298.304842 82.365 37.4300
1307.712894 82.376 37.3200
1317.189120 82.383 37.1987
1326.734016 82.389 37.0734
1336.348077 82.391 36.9532
1346.031806 82.393 36.8478
1355.785708 82.392 36.7636
1365.610290 82.391 36.7010
1375.506065 82.387 36.6548
1385.473549 82.381 36.6176
1395.513261 82.371 36.5827
1405.625726 82.357 36.5453
1415.811469 82.340 36.5012
1426.071023 82.319 36.4490
1436.404921 82.296 36.3910
1446.813703 82.271 36.3337
1457.297912 82.244 36.2857
1467.858093 82.217 36.2543
1478.494798 82.188 36.2450
1489.208581 82.157 36.2629
1500.000000 82.124 36.3150
1510.869618 82.090 36.4089
1521.818002 82.054 36.5515
1532.845723 82.018 36.7473
1543.953355 81.983 36.9962
1555.141477 81.947 37.2944
1566.410674 81.912 37.6360
1577.761531 81.876 38.0134
1589.194642 81.838 38.4187
1600.710601 81.799 38.8482
1612.310010 81.759 39.3059
1623.993473 81.718 39.8024
1635.761599 81.679 40.3512
1647.615002 81.643 40.9677
1659.554299 81.613 41.6659
1671.580114 81.590 42.4559
1683.693072 81.577 43.3403
1695.893807 81.574 44.3131
1708.182952 81.585 45.3611
1720.561150 81.611 46.4650
1733.029045 81.655 47.6014
1745.587288 81.718 48.7436
1758.236533 81.801 49.8642
1770.977440 81.906 50.9373
1783.810673 82.032 51.9405
1796.736900 82.178 52.8557
1809.756796 82.341 53.6693
1822.871040 82.515 54.3703
1836.080315 82.697 54.9516
1849.385310 82.881 55.4119
1862.786718 83.062 55.7560
1876.285239 83.239 55.9924
1889.881575 83.409 56.1320
1903.576436 83.571 56.1866
1917.370535 83.729 56.1693
1931.264593 83.883 56.0926
1945.259332 84.036 55.9693
1959.355483 84.188 55.8101
1973.553781 84.341 55.6188
1987.854965 84.492 55.3913
2002.259781 84.642 55.1190
2016.768981 84.787 54.7927
2031.383320 84.926 54.4048
2046.103561 85.057 53.9510
2060.930471 85.179 53.4340
2075.864823 85.292 52.8647
2090.907395 85.395 52.2600
2106.058972 85.488 51.6397
2121.320344 85.573 51.0222
2136.692305 85.652 50.4225
2152.175658 85.724 49.8512
2167.771210 85.791 49.3113
2183.479774 85.854 48.7969
2199.302169 85.914 48.2946
2215.239219 85.969 47.7879
2231.291755 86.019 47.2633
2247.460615 86.064 46.7120
2263.746641 86.105 46.1298
2280.150683 86.140 45.5162
2296.673595 86.172 44.8741
2313.316238 86.199 44.2113
2330.079481 86.223 43.5388
2346.964198 86.242 42.8679
2363.971268 86.258 42.2083
2381.101578 86.270 41.5704
2398.356022 86.280 40.9656
2415.735498 86.288 40.4052
2433.240913 86.295 39.8984
2450.873180 86.302 39.4500
2468.633217 86.310 39.0584
2486.521951 86.320 38.7136
2504.540314 86.329 38.3965
2522.689246 86.339 38.0829
2540.969692 86.346 37.7509
2559.382606 86.351 37.3854
2577.928947 86.353 36.9820
2596.609683 86.352 36.5481
2615.425787 86.349 36.1026
2634.378241 86.345 35.6707
2653.468031 86.341 35.2753
2672.696154 86.337 34.9304
2692.063613 86.334 34.6385
2711.571415 86.331 34.3907
2731.220579 86.328 34.1662
2751.012130 86.323 33.9385
2770.947098 86.317 33.6832
2791.026522 86.310 33.3824
2811.251451 86.303 33.0269
2831.622938 86.297 32.6159
2852.142045 86.293 32.1564
2872.809842 86.289 31.6582
2893.627406 86.286 31.1303
2914.595823 86.281 30.5806
2935.716186 86.275 30.0186
2956.989596 86.267 29.4579
2978.417161 86.255 28.9164
3000.000000 86.242 28.4132
3021.739237 86.228 27.9637
3043.636005 86.212 27.5745
3065.691446 86.194 27.2410
3087.906710 86.172 26.9470
3110.282955 86.147 26.6678
3132.821347 86.117 26.3775
3155.523062 86.082 26.0576
3178.389283 86.043 25.7032
3201.421202 86.000 25.3229
3224.620020 85.954 24.9352
3247.986946 85.908 24.5654
3271.523198 85.861 24.2394
3295.230004 85.816 23.9762
3319.108599 85.774 23.7812
3343.160228 85.734 23.6456
3367.386145 85.696 23.5480
3391.787613 85.658 23.4595
3416.365904 85.621 23.3506
3441.122300 85.582 23.1987
3466.058091 85.541 22.9945
3491.174576 85.497 22.7440
3516.473066 85.452 22.4661
3541.954880 85.406 22.1884
3567.621345 85.360 21.9396
3593.473800 85.315 21.7404
3619.513592 85.270 21.5981
3645.742080 85.225 21.5047
3672.160630 85.180 21.4387
3698.770620 85.135 21.3707
3725.573436 85.087 21.2734
3752.570477 85.037 21.1304
3779.763150 84.982 20.9398
3807.152872 84.923 20.7148
3834.741071 84.861 20.4806
3862.529185 84.797 20.2677
3890.518664 84.732 20.1033
3918.710966 84.670 20.0035
3947.107561 84.608 19.9719
3975.709929 84.548 19.9988
4004.519563 84.488 20.0630
4033.537962 84.427 20.1361
4062.766641 84.364 20.1912
4092.207123 84.299 20.2103
4121.860942 84.231 20.1879
4151.729646 84.161 20.1345
4181.814790 84.090 20.0754
4212.117944 84.018 20.0446
4242.640687 83.947 20.0742
4273.384610 83.877 20.1858
4304.351317 83.809 20.3843
4335.542421 83.742 20.6559
4366.959549 83.676 20.9715
4398.604338 83.611 21.2944
4430.478438 83.546 21.5912
4462.583511 83.480 21.8397
4494.921231 83.415 22.0323
4527.493283 83.351 22.1747
4560.301365 83.288 22.2814
4593.347189 83.229 22.3710
4626.632476 83.173 22.4619
4660.158962 83.121 22.5711
4693.928395 83.074 22.7154
4727.942535 83.031 22.9119
4762.203156 82.995 23.1796
4796.712043 82.966 23.5378
4831.470996 82.944 24.0007
4866.481826 82.931 24.5693
4901.746360 82.929 25.2275
4937.266434 82.936 25.9426
4973.043902 82.952 26.6714
5009.080628 82.979 27.3656
5045.378492 83.016 27.9813
5081.939384 83.064 28.4866
5118.765212 83.123 28.8675
5155.857894 83.194 29.1246
5193.219366 83.277 29.2653
5230.851574 83.374 29.2967
5268.756481 83.482 29.2229
5306.936062 83.601 29.0465
5345.392309 83.728 28.7724
5384.127225 83.861 28.4106
5423.142830 83.997 27.9763
5462.441159 84.134 27.4856
5502.024259 84.270 26.9487
5541.894195 84.402 26.3645
5582.053045 84.525 25.7177
5622.502902 84.636 24.9801
5663.245876 84.732 24.1162
5704.284090 84.808 23.0939
5745.619684 84.862 21.8960
5787.254813 84.890 20.5294
5829.191647 84.892 19.0293
5871.432373 84.867 17.4545
5913.979192 84.815 15.8759
5956.834323 84.738 14.3626
6000.000000 84.636 12.9708
6043.478473 84.511 11.7339
6087.272010 84.363 10.6604
6131.382892 84.193 9.7371
6175.813420 84.003 8.9385
6220.565910 83.793 8.2397
6265.642695 83.566 7.6270
6311.046124 83.328 7.1042
6356.778566 83.085 6.6907
6402.842404 82.845 6.4065
6449.240040 82.614 6.2571
6495.973891 82.394 6.2316
6543.046396 82.180 6.3250
6590.460007 81.963 6.5583
6638.217197 81.737 6.9646
6686.320456 81.502 7.5610
6734.772290 81.261 8.3369
6783.575226 81.019 9.2621
6832.731809 80.781 10.3066
6882.244600 80.555 11.4576
6932.116181 80.345 12.7249
6982.349153 80.160 14.1315
7032.946133 80.008 15.6986
7083.909760 79.898 17.4285
7135.242690 79.838 19.2932
7186.947600 79.834 21.2383
7239.027185 79.885 23.2144
7291.484160 79.990 25.2112
7344.321260 80.148 27.2549
7397.541239 80.364 29.3647
7451.146872 80.642 31.5107
7505.140954 80.988 33.5987
7559.526299 81.400 35.4820
7614.305743 81.871 36.9868
7669.482141 82.391 37.9438
7725.058371 82.945 38.2166
7781.037328 83.515 37.7243
7837.421932 84.081 36.4498
7894.215122 84.620 34.4353
7951.419859 85.111 31.7715
8009.039125 85.534 28.5847
8067.075924 85.871 25.0216
8125.533282 86.108 21.2341
8184.414245 86.239 17.3645
8243.721885 86.260 13.5367
8303.459292 86.177 9.8523
8363.629581 86.000 6.3890
8424.235888 85.746 3.2031
8485.281374 85.432 0.3372
8546.769221 85.080 -2.1711
8608.702634 84.711 -4.2864
8671.084842 84.342 -5.9790
8733.919097 83.990 -7.2333
8797.208675 83.666 -8.0589
8860.956876 83.378 -8.5029
8925.167022 83.130 -8.6529
8989.842461 82.920 -8.6268
9054.986566 82.747 -8.5534
9120.602731 82.606 -8.5517
9186.694378 82.495 -8.7144
9253.264952 82.408 -9.0930
9320.317925 82.342 -9.6926
9387.856790 82.296 -10.4808
9455.885071 82.267 -11.4073
9524.406312 82.252 -12.4220
9593.424086 82.247 -13.4926
9662.941992 82.249 -14.6201
9732.963653 82.249 -15.8451
9803.492719 82.242 -17.2376
9874.532869 82.220 -18.8771
9946.087805 82.174 -20.8329
10018.161257 82.096 -23.1474
10090.756983 81.980 -25.8229
10163.878768 81.821 -28.8181
10237.530423 81.616 -32.0596
10311.715789 81.360 -35.4599
10386.438732 81.051 -38.9298
10461.703149 80.690 -42.3847
10537.512962 80.276 -45.7439
10613.872125 79.811 -48.9293
10690.784618 79.299 -51.8619
10768.254450 78.743 -54.4606
10846.285661 78.150 -56.6469
10924.882318 77.524 -58.3599
11004.048518 76.873 -59.5746
11083.788390 76.202 -60.3127
11164.106090 75.516 -60.6383
11245.005805 74.820 -60.6429
11326.491752 74.119 -60.4240
11408.568180 73.416 -60.0601
11491.239368 72.715 -59.5886
11574.509626 72.018 -58.9963
11658.383294 71.329 -58.2274
11742.864745 70.649 -57.2008
11827.958384 69.982 -55.8328
11913.668646 69.329 -54.0641
12000.000000 68.693 -51.8823
12086.956947 68.074 -49.3284
12174.544019 67.474 -46.4847
12262.765784 66.892 -43.4561
12351.626840 66.329 -40.3462
12441.131819 65.782 -37.2319
12531.285389 65.254 -34.1431
12622.092249 64.744 -31.0618
12713.557132 64.255 -27.9364
12805.684808 63.789 -24.6978
12898.480079 63.347 -21.2678
12991.947783 62.935 -17.5621
13086.092792 62.558 -13.4844
13180.920015 62.227 -8.9229
13276.434395 61.959 -3.7495
13372.640911 61.774 2.1681
13469.544580 61.701 8.9333
13567.150452 61.773 16.5546
13665.463617 62.022 24.8696
13764.489200 62.474 33.5051
13864.232362 63.139 41.9204
13964.698305 64.004 49.5349
14065.892266 65.038 55.8787
14167.819519 66.199 60.6830
14270.485380 67.438 63.8753
14373.895200 68.708 65.5162
14478.054370 69.965 65.7365
14582.968320 71.169 64.6947
14688.642520 72.288 62.5487
14795.082478 73.290 59.4424
14902.293745 74.151 55.5098
15010.281908 74.854 50.8937
15119.052599 75.392 45.7563
15228.611486 75.768 40.2748
15338.964283 76.000 34.6302
15450.116741 76.116 28.9983
15562.074656 76.150 23.5380
15674.843864 76.140 18.3740
15788.430244 76.122 13.5798
15902.839718 76.120 9.1652
16018.078250 76.152 5.0664
16134.151848 76.217 1.1395
16251.066563 76.303 -2.8235
16368.828491 76.389 -7.0504
16487.443769 76.443 -11.7379
16606.918584 76.435 -17.0139
16727.259161 76.333 -22.9075
16848.471777 76.108 -29.3256
16970.562748 75.744 -36.0524
17093.538442 75.232 -42.7863
17217.405268 74.575 -49.1948
17342.169684 73.788 -54.9674
17467.838194 72.892 -59.8584
17594.417350 71.911 -63.7255
17721.913751 70.875 -66.5486
17850.334044 69.809 -68.4219
17979.684923 68.738 -69.5284
18109.973131 67.685 -70.1072
18241.205462 66.668 -70.4095
18373.388756 65.698 -70.6475
18506.529905 64.785 -70.9656
18640.635849 63.930 -71.4448
18775.713581 63.133 -72.1246
18911.770141 62.385 -73.0221
19048.812624 61.678 -74.1418
19186.848172 60.999 -75.4745
19325.883983 60.340 -76.9889
19465.927305 59.700 -78.6177
19606.985439 59.090 -80.2462
19749.065738 58.545 -81.7124
19892.175609 58.121 -82.8311
20036.322514 57.886 -83.4379
