* Measurement data measured by REW V5.31.3
* Source: Headset (CX31993 HIFI AUDIO), MICROPHONE (Master Volume), R, volume: 0.250
* Format: 256k Log Swept Sine, 1 sweep at -12.0 dBFS with no timing reference
* Dated: 12 31, 24 1:00:21 PM
* REW Settings:
*  C-weighting compensation: Off
*  Target level: 75.0 dB
* Note: ; 
* Measurement: Sony LB 400 MAX L
* Smoothing: 1/12 octave
* Frequency Step: 96 ppo
* Start Frequency: 0.36621094 Hz
*
* Freq(Hz) SPL(dB) Phase(degrees)
0.366211 43.094 -62.6266
0.368865 43.103 -62.7143
0.371538 43.117 -62.8453
0.374230 43.134 -63.0089
0.376942 43.153 -63.1962
0.379673 43.174 -63.4004
0.382424 43.195 -63.6173
0.385196 43.217 -63.8440
0.387987 43.240 -64.0791
0.390798 43.263 -64.3217
0.393630 43.285 -64.5714
0.396483 43.309 -64.8279
0.399356 43.332 -65.0911
0.402250 43.355 -65.3610
0.405165 43.379 -65.6376
0.408101 43.403 -65.9209
0.411058 43.427 -66.2110
0.414037 43.451 -66.5077
0.417037 43.475 -66.8113
0.420059 43.500 -67.1215
0.423103 43.524 -67.4385
0.426169 43.549 -67.7623
0.429257 43.574 -68.0929
0.432368 43.600 -68.4302
0.435501 43.625 -68.7743
0.438656 43.651 -69.1251
0.441835 43.676 -69.4827
0.445037 43.702 -69.8469
0.448262 43.728 -70.2178
0.451510 43.755 -70.5954
0.454782 43.781 -70.9796
0.458077 43.808 -71.3703
0.461397 43.835 -71.7676
0.464740 43.862 -72.1713
0.468108 43.889 -72.5815
0.471500 43.917 -72.9980
0.474917 43.945 -73.4208
0.478358 43.973 -73.8499
0.481825 44.001 -74.2851
0.485316 44.029 -74.7263
0.488833 44.058 -75.1736
0.492375 44.086 -75.6267
0.495943 44.115 -76.0856
0.499537 44.144 -76.5502
0.503157 44.174 -77.0204
0.506803 44.203 -77.4961
0.510475 44.233 -77.9771
0.514175 44.263 -78.4634
0.517900 44.293 -78.9548
0.521653 44.324 -79.4512
0.525434 44.354 -79.9524
0.529241 44.385 -80.4584
0.533076 44.416 -80.9690
0.536939 44.448 -81.4840
0.540830 44.479 -82.0034
0.544749 44.511 -82.5269
0.548696 44.543 -83.0544
0.552673 44.575 -83.5857
0.556677 44.608 -84.1208
0.560711 44.641 -84.6595
0.564774 44.674 -85.2015
0.568867 44.707 -85.7468
0.572989 44.740 -86.2952
0.577141 44.774 -86.8465
0.581324 44.808 -87.4007
0.585536 44.842 -87.9574
0.589779 44.876 -88.5166
0.594053 44.911 -89.0782
0.598358 44.946 -89.6420
0.602694 44.981 -90.2077
0.607061 45.017 -90.7754
0.611460 45.052 -91.3449
0.615891 45.088 -91.9159
0.620354 45.124 -92.4885
0.624849 45.161 -93.0624
0.629377 45.198 -93.6375
0.633938 45.235 -94.2138
0.638532 45.272 -94.7911
0.643159 45.309 -95.3693
0.647819 45.347 -95.9483
0.652514 45.385 -96.5281
0.657242 45.424 -97.1085
0.662005 45.462 -97.6894
0.666802 45.501 -98.2708
0.671634 45.540 -98.8526
0.676501 45.580 -99.4348
0.681403 45.620 -100.0174
0.686341 45.660 -100.6002
0.691314 45.700 -101.1833
0.696324 45.741 -101.7667
0.701370 45.782 -102.3504
0.706452 45.823 -102.9345
0.711571 45.865 -103.5190
0.716728 45.908 -104.1043
0.721921 45.951 -104.6906
0.727153 45.996 -105.2783
0.732422 46.041 -105.8680
0.737729 46.088 -106.4602
0.743075 46.136 -107.0557
0.748460 46.186 -107.6546
0.753883 46.237 -108.2573
0.759346 46.288 -108.8637
0.764849 46.341 -109.4737
0.770391 46.394 -110.0872
0.775974 46.448 -110.7039
0.781597 46.503 -111.3236
0.787261 46.559 -111.9460
0.792966 46.615 -112.5708
0.798712 46.672 -113.1977
0.804500 46.730 -113.8265
0.810329 46.789 -114.4568
0.816201 46.848 -115.0884
0.822116 46.908 -115.7210
0.828073 46.969 -116.3544
0.834074 47.030 -116.9882
0.840118 47.093 -117.6222
0.846206 47.156 -118.2562
0.852338 47.219 -118.8899
0.858514 47.283 -119.5230
0.864735 47.348 -120.1553
0.871001 47.414 -120.7866
0.877313 47.480 -121.4166
0.883670 47.547 -122.0453
0.890074 47.615 -122.6722
0.896524 47.683 -123.2973
0.903020 47.751 -123.9204
0.909564 47.821 -124.5413
0.916155 47.891 -125.1598
0.922794 47.961 -125.7758
0.929481 48.032 -126.3892
0.936216 48.104 -126.9997
0.943000 48.176 -127.6074
0.949834 48.248 -128.2120
0.956717 48.321 -128.8135
0.963649 48.394 -129.4118
0.970632 48.468 -130.0068
0.977666 48.542 -130.5984
0.984750 48.617 -131.1867
0.991886 48.691 -131.7715
0.999074 48.767 -132.3529
1.006314 48.842 -132.9307
1.013606 48.918 -133.5050
1.020951 48.993 -134.0758
1.028349 49.069 -134.6432
1.035801 49.146 -135.2070
1.043307 49.222 -135.7675
1.050867 49.298 -136.3245
1.058482 49.375 -136.8784
1.066152 49.451 -137.4292
1.073878 49.528 -137.9771
1.081660 49.604 -138.5226
1.089498 49.681 -139.0659
1.097393 49.757 -139.6079
1.105345 49.834 -140.1490
1.113355 49.911 -140.6901
1.121423 49.988 -141.2316
1.129549 50.066 -141.7739
1.137734 50.143 -142.3172
1.145979 50.222 -142.8615
1.154283 50.300 -143.4068
1.162647 50.379 -143.9530
1.171072 50.458 -144.5001
1.179558 50.538 -145.0478
1.188106 50.617 -145.5960
1.196715 50.698 -146.1445
1.205387 50.778 -146.6932
1.214122 50.859 -147.2417
1.222920 50.940 -147.7900
1.231782 51.022 -148.3378
1.240708 51.104 -148.8849
1.249699 51.186 -149.4310
1.258754 51.268 -149.9759
1.267876 51.351 -150.5194
1.277063 51.434 -151.0611
1.286318 51.518 -151.6010
1.295639 51.602 -152.1385
1.305027 51.685 -152.6736
1.314484 51.770 -153.2059
1.324009 51.854 -153.7352
1.333604 51.939 -154.2610
1.343268 52.024 -154.7832
1.353002 52.109 -155.3015
1.362806 52.195 -155.8155
1.372681 52.281 -156.3249
1.382628 52.367 -156.8294
1.392647 52.453 -157.3288
1.402739 52.539 -157.8227
1.412904 52.626 -158.3109
1.423142 52.712 -158.7931
1.433455 52.799 -159.2692
1.443843 52.886 -159.7392
1.454305 52.973 -160.2032
1.464844 53.061 -160.6615
1.475459 53.148 -161.1144
1.486150 53.235 -161.5625
1.496920 53.323 -162.0063
1.507767 53.410 -162.4462
1.518693 53.498 -162.8823
1.529698 53.586 -163.3150
1.540783 53.673 -163.7445
1.551948 53.761 -164.1708
1.563194 53.849 -164.5941
1.574521 53.937 -165.0145
1.585931 54.025 -165.4320
1.597423 54.113 -165.8469
1.608999 54.202 -166.2591
1.620658 54.290 -166.6687
1.632402 54.379 -167.0758
1.644232 54.468 -167.4805
1.656146 54.557 -167.8828
1.668147 54.646 -168.2828
1.680235 54.736 -168.6805
1.692411 54.825 -169.0759
1.704675 54.915 -169.4692
1.717028 55.006 -169.8604
1.729470 55.097 -170.2494
1.742003 55.188 -170.6363
1.754626 55.279 -171.0212
1.767341 55.371 -171.4039
1.780147 55.463 -171.7846
1.793047 55.555 -172.1632
1.806040 55.648 -172.5396
1.819128 55.742 -172.9137
1.832310 55.835 -173.2854
1.845587 55.929 -173.6547
1.858961 56.023 -174.0214
1.872432 56.118 -174.3855
1.886001 56.212 -174.7470
1.899667 56.307 -175.1060
1.913433 56.402 -175.4626
1.927299 56.497 -175.8168
1.941265 56.592 -176.1689
1.955332 56.688 -176.5188
1.969501 56.784 -176.8668
1.983773 56.880 -177.2129
1.998148 56.976 -177.5573
2.012627 57.073 -177.9000
2.027212 57.170 -178.2413
2.041902 57.267 -178.5811
2.056698 57.365 -178.9196
2.071602 57.463 -179.2568
2.086614 57.561 -179.5929
2.101734 57.660 -179.9279
2.116964 57.760 179.7381
2.132304 57.859 179.4052
2.147756 57.960 179.0733
2.163320 58.061 178.7427
2.178996 58.162 178.4134
2.194786 58.264 178.0858
2.210690 58.366 177.7601
2.226710 58.469 177.4368
2.242845 58.573 177.1159
2.259098 58.676 176.7975
2.275468 58.781 176.4816
2.291957 58.885 176.1677
2.308566 58.990 175.8557
2.325295 59.096 175.5452
2.342145 59.201 175.2359
2.359117 59.308 174.9274
2.376212 59.414 174.6194
2.393431 59.521 174.3115
2.410775 59.629 174.0032
2.428244 59.736 173.6943
2.445840 59.844 173.3845
2.463564 59.953 173.0733
2.481416 60.062 172.7606
2.499397 60.171 172.4460
2.517509 60.281 172.1297
2.535752 60.391 171.8116
2.554127 60.501 171.4919
2.572635 60.612 171.1711
2.591277 60.723 170.8496
2.610055 60.834 170.5278
2.628968 60.946 170.2060
2.648019 61.059 169.8841
2.667208 61.171 169.5621
2.686535 61.285 169.2398
2.706003 61.398 168.9168
2.725612 61.512 168.5928
2.745363 61.625 168.2675
2.765257 61.740 167.9405
2.785295 61.854 167.6114
2.805478 61.968 167.2798
2.825808 62.083 166.9453
2.846285 62.198 166.6077
2.866910 62.312 166.2666
2.887685 62.427 165.9219
2.908611 62.542 165.5735
2.929688 62.657 165.2214
2.950917 62.772 164.8660
2.972301 62.887 164.5075
2.993839 63.002 164.1462
3.015534 63.117 163.7823
3.037386 63.232 163.4160
3.059396 63.347 163.0475
3.081565 63.462 162.6769
3.103896 63.577 162.3041
3.126388 63.692 161.9292
3.149043 63.807 161.5522
3.171862 63.921 161.1731
3.194847 64.036 160.7917
3.217998 64.150 160.4081
3.241317 64.264 160.0222
3.264805 64.378 159.6337
3.288463 64.491 159.2427
3.312293 64.604 158.8490
3.336295 64.717 158.4526
3.360471 64.830 158.0536
3.384822 64.942 157.6521
3.409350 65.053 157.2483
3.434056 65.165 156.8424
3.458940 65.276 156.4348
3.484005 65.386 156.0255
3.509252 65.497 155.6150
3.534681 65.607 155.2034
3.560295 65.716 154.7907
3.586094 65.825 154.3773
3.612081 65.934 153.9629
3.638255 66.043 153.5476
3.664620 66.151 153.1312
3.691175 66.258 152.7134
3.717923 66.365 152.2941
3.744864 66.471 151.8734
3.772001 66.577 151.4512
3.799335 66.683 151.0279
3.826866 66.788 150.6038
3.854597 66.892 150.1792
3.882529 66.996 149.7546
3.910664 67.100 149.3302
3.939002 67.203 148.9064
3.967546 67.307 148.4833
3.996296 67.409 148.0612
4.025255 67.512 147.6399
4.054423 67.614 147.2193
4.083804 67.716 146.7993
4.113396 67.817 146.3797
4.143204 67.918 145.9603
4.173227 68.019 145.5412
4.203468 68.119 145.1224
4.233928 68.219 144.7039
4.264609 68.319 144.2858
4.295512 68.418 143.8682
4.326639 68.518 143.4512
4.357992 68.617 143.0349
4.389572 68.716 142.6193
4.421380 68.816 142.2043
4.453419 68.915 141.7900
4.485691 69.013 141.3761
4.518196 69.112 140.9625
4.550936 69.211 140.5490
4.583914 69.309 140.1352
4.617131 69.408 139.7209
4.650589 69.506 139.3060
4.684289 69.605 138.8902
4.718233 69.703 138.4734
4.752424 69.801 138.0556
4.786862 69.900 137.6367
4.821549 69.998 137.2169
4.856488 70.097 136.7960
4.891680 70.195 136.3737
4.927127 70.294 135.9500
4.962831 70.392 135.5243
4.998794 70.490 135.0964
5.035017 70.588 134.6659
5.071503 70.686 134.2325
5.108253 70.783 133.7959
5.145270 70.881 133.3560
5.182555 70.978 132.9130
5.220110 71.075 132.4667
5.257937 71.172 132.0172
5.296038 71.268 131.5646
5.334415 71.365 131.1088
5.373071 71.460 130.6498
5.412006 71.555 130.1874
5.451224 71.650 129.7214
5.490725 71.743 129.2517
5.530514 71.837 128.7781
5.570590 71.929 128.3006
5.610957 72.021 127.8195
5.651616 72.112 127.3353
5.692570 72.202 126.8483
5.733821 72.291 126.3590
5.775370 72.379 125.8679
5.817221 72.466 125.3750
5.859375 72.553 124.8804
5.901834 72.638 124.3841
5.944602 72.721 123.8861
5.987679 72.804 123.3867
6.031068 72.886 122.8867
6.074771 72.966 122.3868
6.118792 73.045 121.8879
6.163131 73.123 121.3907
6.207792 73.200 120.8957
6.252776 73.275 120.4029
6.298086 73.349 119.9124
6.343725 73.422 119.4244
6.389694 73.494 118.9395
6.435996 73.565 118.4583
6.482634 73.634 117.9819
6.529610 73.703 117.5109
6.576926 73.771 117.0459
6.624585 73.837 116.5871
6.672590 73.903 116.1346
6.720942 73.969 115.6885
6.769645 74.033 115.2490
6.818700 74.097 114.8162
6.868111 74.160 114.3906
6.917881 74.224 113.9725
6.968010 74.287 113.5621
7.018504 74.349 113.1594
7.069362 74.412 112.7643
7.120590 74.475 112.3762
7.172189 74.538 111.9948
7.224161 74.601 111.6198
7.276511 74.664 111.2507
7.329239 74.728 110.8873
7.382350 74.793 110.5294
7.435845 74.858 110.1763
7.489729 74.924 109.8274
7.544002 74.990 109.4819
7.598669 75.058 109.1387
7.653732 75.126 108.7971
7.709194 75.194 108.4565
7.765058 75.264 108.1162
7.821327 75.334 107.7758
7.878004 75.405 107.4344
7.935091 75.477 107.0914
7.992592 75.549 106.7458
8.050510 75.621 106.3970
8.108847 75.694 106.0444
8.167607 75.768 105.6878
8.226793 75.841 105.3269
8.286408 75.915 104.9615
8.346454 75.989 104.5914
8.406936 76.062 104.2161
8.467856 76.136 103.8357
8.529218 76.209 103.4501
8.591024 76.282 103.0597
8.653278 76.354 102.6648
8.715983 76.426 102.2656
8.779143 76.497 101.8625
8.842760 76.567 101.4558
8.906839 76.637 101.0459
8.971381 76.705 100.6332
9.036392 76.773 100.2184
9.101873 76.840 99.8021
9.167829 76.906 99.3847
9.234263 76.971 98.9668
9.301178 77.036 98.5487
9.368578 77.099 98.1308
9.436467 77.162 97.7137
9.504847 77.224 97.2978
9.573723 77.285 96.8833
9.643099 77.346 96.4704
9.712976 77.405 96.0594
9.783361 77.465 95.6502
9.854255 77.524 95.2431
9.925663 77.582 94.8380
9.997588 77.640 94.4348
10.070035 77.698 94.0336
10.143007 77.755 93.6340
10.216507 77.812 93.2360
10.290540 77.869 92.8394
10.365109 77.925 92.4440
10.440219 77.981 92.0496
10.515873 78.037 91.6562
10.592076 78.093 91.2634
10.668830 78.148 90.8712
10.746141 78.203 90.4796
10.824012 78.258 90.0884
10.902447 78.312 89.6978
10.981451 78.366 89.3078
11.061027 78.420 88.9185
11.141180 78.473 88.5298
11.221913 78.526 88.1422
11.303232 78.579 87.7556
11.385140 78.631 87.3702
11.467641 78.682 86.9863
11.550741 78.734 86.6039
11.634442 78.785 86.2231
11.718750 78.836 85.8439
11.803669 78.887 85.4666
11.889203 78.937 85.0908
11.975357 78.988 84.7165
12.062136 79.038 84.3435
12.149543 79.089 83.9716
12.237583 79.139 83.6006
12.326262 79.189 83.2300
12.415583 79.240 82.8594
12.505552 79.290 82.4886
12.596172 79.341 82.1172
12.687449 79.391 81.7448
12.779387 79.441 81.3713
12.871992 79.491 80.9963
12.965268 79.541 80.6198
13.059220 79.590 80.2418
13.153852 79.640 79.8625
13.249170 79.688 79.4820
13.345179 79.736 79.1009
13.441884 79.784 78.7195
13.539289 79.830 78.3384
13.637401 79.877 77.9584
13.736223 79.922 77.5800
13.835761 79.967 77.2040
13.936021 80.011 76.8311
14.037007 80.055 76.4618
14.138725 80.099 76.0965
14.241180 80.142 75.7355
14.344377 80.186 75.3789
14.448323 80.229 75.0267
14.553021 80.273 74.6783
14.658478 80.317 74.3332
14.764700 80.361 73.9906
14.871691 80.407 73.6495
14.979457 80.452 73.3087
15.088005 80.499 72.9669
15.197339 80.546 72.6230
15.307465 80.593 72.2758
15.418389 80.641 71.9242
15.530117 80.689 71.5675
15.642655 80.736 71.2051
15.756008 80.784 70.8370
15.870182 80.830 70.4633
15.985184 80.876 70.0846
16.101019 80.921 69.7020
16.217694 80.965 69.3166
16.335214 81.007 68.9300
16.453586 81.048 68.5437
16.572815 81.088 68.1595
16.692909 81.126 67.7789
16.813872 81.164 67.4031
16.935713 81.200 67.0332
17.058436 81.236 66.6696
17.182048 81.272 66.3123
17.306556 81.308 65.9607
17.431967 81.343 65.6139
17.558286 81.380 65.2704
17.685521 81.416 64.9285
17.813677 81.454 64.5862
17.942762 81.491 64.2416
18.072783 81.529 63.8933
18.203746 81.566 63.5401
18.335658 81.603 63.1813
18.468526 81.639 62.8171
18.602356 81.673 62.4483
18.737156 81.706 62.0764
18.872934 81.737 61.7036
19.009695 81.766 61.3323
19.147447 81.794 60.9653
19.286197 81.819 60.6054
19.425953 81.842 60.2549
19.566721 81.865 59.9159
19.708510 81.886 59.5895
19.851326 81.907 59.2762
19.995177 81.928 58.9758
20.140070 81.950 58.6872
20.286013 81.972 58.4090
20.433014 81.995 58.1391
20.581080 82.019 57.8759
20.730219 82.045 57.6176
20.880439 82.071 57.3629
21.031747 82.098 57.1111
21.184152 82.125 56.8619
21.337661 82.153 56.6155
21.492282 82.183 56.3720
21.648024 82.213 56.1315
21.804895 82.244 55.8936
21.962902 82.277 55.6571
22.122054 82.311 55.4199
22.282360 82.348 55.1793
22.443827 82.386 54.9316
22.606464 82.426 54.6732
22.770280 82.468 54.4004
22.935283 82.510 54.1105
23.101481 82.553 53.8020
23.268884 82.594 53.4751
23.437500 82.634 53.1320
23.607338 82.672 52.7762
23.778406 82.706 52.4130
23.950714 82.738 52.0483
24.124271 82.767 51.6879
24.299086 82.794 51.3369
24.475167 82.819 50.9988
24.652524 82.843 50.6749
24.831166 82.869 50.3642
25.011103 82.895 50.0635
25.192344 82.923 49.7680
25.374898 82.953 49.4718
25.558775 82.984 49.1692
25.743984 83.017 48.8557
25.930536 83.049 48.5286
26.118439 83.080 48.1877
26.307704 83.110 47.8353
26.498341 83.137 47.4755
26.690359 83.160 47.1141
26.883768 83.181 46.7574
27.078579 83.200 46.4109
27.274801 83.216 46.0788
27.472446 83.232 45.7633
27.671522 83.247 45.4643
27.872042 83.264 45.1793
28.074014 83.281 44.9042
28.277450 83.301 44.6337
28.482360 83.322 44.3629
28.688755 83.344 44.0871
28.896645 83.367 43.8035
29.106042 83.390 43.5108
29.316957 83.412 43.2095
29.529400 83.434 42.9017
29.743382 83.453 42.5903
29.958915 83.471 42.2786
30.176009 83.488 41.9695
30.394677 83.504 41.6649
30.614929 83.520 41.3660
30.836778 83.535 41.0725
31.060234 83.550 40.7835
31.285309 83.565 40.4975
31.512015 83.581 40.2131
31.740364 83.597 39.9292
31.970368 83.612 39.6453
32.202039 83.628 39.3615
32.435388 83.643 39.0787
32.670428 83.658 38.7974
32.907171 83.673 38.5185
33.145630 83.688 38.2420
33.385817 83.703 37.9679
33.627745 83.718 37.6957
33.871425 83.733 37.4248
34.116871 83.748 37.1552
34.364096 83.763 36.8869
34.613113 83.778 36.6204
34.863934 83.793 36.3563
35.116572 83.807 36.0946
35.371041 83.822 35.8351
35.627354 83.837 35.5765
35.885525 83.852 35.3173
36.145566 83.867 35.0557
36.407492 83.882 34.7906
36.671316 83.897 34.5215
36.937051 83.910 34.2496
37.204712 83.922 33.9769
37.474313 83.933 33.7061
37.745867 83.942 33.4399
38.019389 83.951 33.1801
38.294893 83.960 32.9275
38.572394 83.968 32.6809
38.851905 83.978 32.4382
39.133442 83.988 32.1960
39.417019 83.999 31.9512
39.702651 84.010 31.7013
39.990353 84.021 31.4453
40.280140 84.031 31.1839
40.572026 84.041 30.9199
40.866028 84.049 30.6566
41.162160 84.057 30.3974
41.460438 84.064 30.1444
41.760877 84.072 29.8979
42.063494 84.080 29.6562
42.368303 84.089 29.4167
42.675322 84.099 29.1762
42.984565 84.109 28.9328
43.296048 84.119 28.6857
43.609789 84.129 28.4358
43.925804 84.139 28.1846
44.244108 84.148 27.9337
44.564719 84.156 27.6841
44.887654 84.163 27.4360
45.212928 84.170 27.1898
45.540560 84.175 26.9457
45.870565 84.180 26.7047
46.202962 84.184 26.4685
46.537768 84.187 26.2388
46.875000 84.189 26.0166
47.214676 84.191 25.8020
47.556813 84.193 25.5934
47.901429 84.196 25.3880
48.248542 84.200 25.1822
48.598171 84.204 24.9728
48.950334 84.208 24.7579
49.305048 84.212 24.5371
49.662333 84.215 24.3119
50.022206 84.217 24.0846
50.384688 84.218 23.8578
50.749796 84.218 23.6333
51.117550 84.218 23.4119
51.487969 84.218 23.1938
51.861072 84.218 22.9788
52.236879 84.218 22.7666
52.615409 84.218 22.5572
52.996681 84.218 22.3497
53.380717 84.218 22.1427
53.767536 84.218 21.9346
54.157158 84.218 21.7243
54.549603 84.217 21.5129
54.944892 84.215 21.3027
55.343045 84.213 21.0964
55.744084 84.210 20.8953
56.148028 84.208 20.6984
56.554900 84.206 20.5024
56.964720 84.205 20.3046
57.377510 84.204 20.1034
57.793291 84.202 19.8992
58.212085 84.200 19.6936
58.633914 84.198 19.4882
59.058799 84.196 19.2838
59.486764 84.193 19.0815
59.917829 84.189 18.8835
60.352019 84.185 18.6918
60.789354 84.181 18.5078
61.229859 84.176 18.3317
61.673556 84.172 18.1620
62.120468 84.168 17.9970
62.570618 84.164 17.8346
63.024031 84.159 17.6733
63.480729 84.153 17.5126
63.940736 84.146 17.3530
64.404077 84.137 17.1956
64.870776 84.127 17.0407
65.340856 84.116 16.8878
65.814343 84.104 16.7376
66.291261 84.090 16.5936
66.771635 84.077 16.4608
67.255489 84.065 16.3396
67.742850 84.057 16.2205
68.233743 84.053 16.0861
68.728193 84.053 15.9210
69.226226 84.052 15.7224
69.727867 84.049 15.5014
70.233144 84.043 15.2764
70.742083 84.035 15.0626
71.254709 84.026 14.8669
71.771050 84.018 14.6879
72.291132 84.012 14.5201
72.814984 84.006 14.3591
73.342631 84.001 14.2029
73.874102 83.995 14.0518
74.409424 83.989 13.9064
74.948626 83.983 13.7656
75.491734 83.976 13.6262
76.038779 83.969 13.4839
76.589787 83.961 13.3362
77.144788 83.952 13.1831
77.703811 83.941 13.0266
78.266885 83.928 12.8705
78.834039 83.913 12.7185
79.405303 83.897 12.5739
79.980706 83.881 12.4388
80.560280 83.865 12.3149
81.144053 83.850 12.2030
81.732056 83.836 12.1028
82.324320 83.823 12.0126
82.920876 83.811 11.9291
83.521755 83.801 11.8491
84.126988 83.792 11.7689
84.736607 83.783 11.6851
85.350643 83.774 11.5948
85.969129 83.765 11.4973
86.592097 83.754 11.3935
87.219579 83.742 11.2859
87.851608 83.728 11.1763
88.488217 83.714 11.0654
89.129439 83.699 10.9525
89.775308 83.684 10.8368
90.425856 83.668 10.7173
91.081119 83.653 10.5934
91.741131 83.636 10.4650
92.405925 83.619 10.3323
93.075536 83.600 10.1962
93.750000 83.580 10.0583
94.429351 83.558 9.9207
95.113625 83.534 9.7853
95.802858 83.509 9.6526
96.497085 83.482 9.5222
97.196342 83.455 9.3921
97.900667 83.428 9.2602
98.610096 83.399 9.1248
99.324665 83.371 8.9851
100.044413 83.341 8.8403
100.769376 83.311 8.6897
101.499592 83.279 8.5328
102.235100 83.245 8.3713
102.975938 83.209 8.2079
103.722144 83.171 8.0444
104.473757 83.130 7.8813
105.230817 83.088 7.7184
105.993363 83.045 7.5559
106.761435 83.000 7.3949
107.535072 82.955 7.2365
108.314315 82.910 7.0814
109.099206 82.865 6.9315
109.889783 82.819 6.7906
110.686090 82.773 6.6663
111.488167 82.726 6.5681
112.296056 82.677 6.5065
113.109800 82.626 6.4901
113.929440 82.575 6.5244
114.755020 82.524 6.6113
115.586582 82.477 6.7473
116.424170 82.434 6.9229
117.267827 82.397 7.1217
118.117598 82.369 7.3231
118.973527 82.349 7.5060
119.835658 82.336 7.6542
120.704037 82.327 7.7604
121.578708 82.319 7.8285
122.459718 82.312 7.8688
123.347111 82.305 7.8899
124.240935 82.297 7.8954
125.141236 82.289 7.8876
126.048061 82.279 7.8705
126.961458 82.270 7.8495
127.881473 82.260 7.8286
128.808154 82.249 7.8089
129.741551 82.238 7.7905
130.681712 82.225 7.7748
131.628686 82.210 7.7649
132.582521 82.193 7.7625
133.543269 82.174 7.7623
134.510979 82.155 7.7537
135.485701 82.135 7.7252
136.467486 82.116 7.6671
137.456386 82.095 7.5775
138.452451 82.072 7.4677
139.455735 82.047 7.3553
140.466288 82.020 7.2556
141.484165 81.992 7.1758
142.509418 81.964 7.1163
143.542100 81.936 7.0720
144.582265 81.908 7.0367
145.629968 81.881 7.0052
146.685262 81.855 6.9742
147.748204 81.830 6.9415
148.818849 81.806 6.9071
149.897251 81.781 6.8737
150.983469 81.756 6.8452
152.077557 81.730 6.8250
153.179574 81.703 6.8143
154.289576 81.676 6.8130
155.407622 81.650 6.8197
156.533770 81.626 6.8329
157.668078 81.604 6.8510
158.810606 81.584 6.8723
159.961413 81.565 6.8960
161.120559 81.548 6.9213
162.288105 81.530 6.9479
163.464112 81.511 6.9762
164.648640 81.491 7.0076
165.841752 81.469 7.0438
167.043510 81.446 7.0873
168.253976 81.422 7.1422
169.473213 81.396 7.2125
170.701286 81.368 7.2995
171.938258 81.338 7.3990
173.184194 81.306 7.5024
174.439158 81.273 7.6002
175.703216 81.242 7.6866
176.976434 81.212 7.7604
178.258878 81.186 7.8247
179.550615 81.164 7.8855
180.851713 81.145 7.9495
182.162239 81.127 8.0215
183.482262 81.108 8.1041
184.811850 81.089 8.1954
186.151073 81.069 8.2902
187.500000 81.050 8.3840
188.858702 81.032 8.4761
190.227250 81.015 8.5701
191.605715 80.999 8.6714
192.994169 80.984 8.7829
194.392685 80.968 8.9037
195.801334 80.951 9.0300
197.220191 80.933 9.1584
198.649330 80.913 9.2870
200.088825 80.892 9.4154
201.538751 80.871 9.5444
202.999184 80.850 9.6729
204.470200 80.830 9.7980
205.951875 80.813 9.9182
207.444287 80.798 10.0358
208.947514 80.785 10.1560
210.461634 80.773 10.2847
211.986726 80.763 10.4238
213.522869 80.752 10.5698
215.070144 80.741 10.7159
216.628631 80.728 10.8572
218.198411 80.716 10.9934
219.779567 80.704 11.1287
221.372180 80.693 11.2680
222.976334 80.684 11.4143
224.592112 80.676 11.5671
226.219600 80.669 11.7238
227.858880 80.663 11.8809
229.510039 80.658 12.0356
231.173164 80.653 12.1866
232.848340 80.649 12.3340
234.535655 80.644 12.4784
236.235197 80.640 12.6213
237.947054 80.635 12.7634
239.671317 80.630 12.9030
241.408074 80.625 13.0377
243.157416 80.620 13.1674
244.919435 80.617 13.2943
246.694223 80.615 13.4223
248.481871 80.615 13.5535
250.282473 80.616 13.6876
252.096123 80.617 13.8224
253.922915 80.619 13.9553
255.762945 80.620 14.0854
257.616309 80.620 14.2135
259.483103 80.620 14.3392
261.363424 80.620 14.4611
263.257372 80.621 14.5775
265.165043 80.622 14.6892
267.086538 80.624 14.7992
269.021957 80.626 14.9115
270.971401 80.628 15.0294
272.934972 80.628 15.1547
274.912771 80.629 15.2859
276.904902 80.629 15.4178
278.911469 80.632 15.5446
280.932577 80.637 15.6632
282.968330 80.645 15.7740
285.018835 80.655 15.8774
287.084199 80.667 15.9742
289.164530 80.680 16.0653
291.259935 80.694 16.1529
293.370525 80.709 16.2396
295.496408 80.724 16.3278
297.637697 80.739 16.4185
299.794503 80.755 16.5109
301.966937 80.771 16.6019
304.155114 80.786 16.6879
306.359147 80.801 16.7650
308.579152 80.817 16.8307
310.815244 80.832 16.8849
313.067539 80.849 16.9298
315.336156 80.866 16.9686
317.621211 80.885 17.0027
319.922826 80.904 17.0316
322.241118 80.925 17.0536
324.576210 80.947 17.0672
326.928223 80.970 17.0719
329.297280 80.991 17.0665
331.683504 81.010 17.0482
334.087019 81.028 17.0153
336.507952 81.044 16.9708
338.946427 81.060 16.9210
341.402572 81.077 16.8685
343.876516 81.096 16.8116
346.368387 81.115 16.7478
348.878315 81.134 16.6766
351.406431 81.153 16.5992
353.952867 81.171 16.5151
356.517756 81.188 16.4220
359.101230 81.204 16.3177
361.703426 81.219 16.2018
364.324478 81.233 16.0762
366.964523 81.247 15.9458
369.623699 81.259 15.8157
372.302145 81.270 15.6880
375.000000 81.279 15.5596
377.717405 81.288 15.4243
380.454501 81.295 15.2771
383.211431 81.301 15.1166
385.988339 81.307 14.9447
388.785369 81.311 14.7650
391.602668 81.312 14.5809
394.440383 81.310 14.3965
397.298660 81.305 14.2157
400.177650 81.297 14.0438
403.077502 81.286 13.8872
405.998368 81.273 13.7538
408.940400 81.259 13.6500
411.903750 81.244 13.5776
414.888575 81.228 13.5326
417.895028 81.214 13.5061
420.923268 81.201 13.4866
423.973452 81.191 13.4630
427.045738 81.184 13.4280
430.140287 81.180 13.3796
433.257261 81.179 13.3206
436.396822 81.179 13.2563
439.559133 81.178 13.1919
442.744360 81.172 13.1304
445.952668 81.162 13.0730
449.184225 81.147 13.0217
452.439199 81.128 12.9808
455.717760 81.107 12.9548
459.020079 81.086 12.9452
462.346327 81.065 12.9492
465.696680 81.045 12.9619
469.071310 81.026 12.9794
472.470394 81.009 12.9998
475.894109 80.993 13.0219
479.342634 80.977 13.0449
482.816148 80.960 13.0688
486.314833 80.940 13.0955
489.838871 80.919 13.1266
493.388445 80.897 13.1641
496.963741 80.874 13.2080
500.564945 80.854 13.2563
504.192245 80.835 13.3077
507.845830 80.818 13.3628
511.525890 80.803 13.4242
515.232618 80.790 13.4963
518.966206 80.779 13.5832
522.726849 80.770 13.6862
526.514743 80.764 13.8032
530.330086 80.757 13.9308
534.173076 80.751 14.0652
538.043915 80.743 14.2046
541.942803 80.735 14.3484
545.869944 80.725 14.4962
549.825542 80.715 14.6488
553.809805 80.704 14.8075
557.822939 80.693 14.9708
561.865154 80.682 15.1341
565.936660 80.672 15.2928
570.037671 80.664 15.4460
574.168399 80.657 15.5978
578.329060 80.651 15.7540
582.519870 80.646 15.9173
586.741049 80.640 16.0868
590.992817 80.634 16.2609
595.275394 80.626 16.4388
599.589005 80.618 16.6198
603.933874 80.610 16.8011
608.310228 80.602 16.9786
612.718295 80.595 17.1480
617.158304 80.588 17.3074
621.630488 80.581 17.4581
626.135079 80.575 17.6045
630.672311 80.571 17.7522
635.242423 80.568 17.9048
639.845651 80.566 18.0619
644.482237 80.564 18.2224
649.152421 80.562 18.3876
653.856447 80.558 18.5615
658.594560 80.554 18.7495
663.367008 80.551 18.9540
668.174039 80.548 19.1709
673.015903 80.547 19.3909
677.892854 80.546 19.6042
682.805145 80.544 19.8062
687.753032 80.540 19.9987
692.736774 80.534 20.1873
697.756631 80.528 20.3785
702.812863 80.523 20.5767
707.905735 80.519 20.7856
713.035511 80.519 21.0077
718.202461 80.522 21.2408
723.406852 80.528 21.4771
728.648956 80.535 21.7082
733.929047 80.541 21.9303
739.247399 80.545 22.1435
744.604290 80.546 22.3503
750.000000 80.547 22.5557
755.434809 80.547 22.7654
760.909001 80.549 22.9843
766.422861 80.553 23.2155
771.976677 80.560 23.4604
777.570739 80.570 23.7184
783.205337 80.579 23.9866
788.880766 80.588 24.2601
794.597321 80.594 24.5339
800.355301 80.598 24.8035
806.155005 80.600 25.0651
811.996736 80.603 25.3175
817.880799 80.607 25.5641
823.807501 80.614 25.8114
829.777150 80.626 26.0674
835.790057 80.641 26.3373
841.846536 80.659 26.6212
847.946903 80.678 26.9155
854.091476 80.698 27.2144
860.280575 80.718 27.5110
866.514523 80.737 27.7985
872.793644 80.756 28.0735
879.118267 80.772 28.3372
885.488720 80.788 28.5949
891.905336 80.804 28.8516
898.368450 80.821 29.1101
904.878398 80.840 29.3727
911.435520 80.861 29.6415
918.040157 80.884 29.9162
924.692655 80.910 30.1938
931.393359 80.937 30.4689
938.142619 80.966 30.7364
944.940787 80.997 30.9924
951.788218 81.028 31.2339
958.685268 81.059 31.4586
965.632296 81.090 31.6663
972.629666 81.121 31.8574
979.677741 81.152 32.0314
986.776890 81.183 32.1880
993.927482 81.215 32.3298
1001.129891 81.248 32.4635
1008.384491 81.282 32.5974
1015.691660 81.316 32.7376
1023.051781 81.352 32.8871
1030.465236 81.389 33.0452
1037.932411 81.429 33.2092
1045.453698 81.469 33.3746
1053.029486 81.510 33.5367
1060.660172 81.550 33.6919
1068.346153 81.590 33.8379
1076.087829 81.628 33.9731
1083.885605 81.664 34.0960
1091.739887 81.698 34.2055
1099.651084 81.731 34.3024
1107.619609 81.764 34.3911
1115.645878 81.798 34.4782
1123.730308 81.834 34.5690
1131.873321 81.873 34.6657
1140.075341 81.915 34.7662
1148.336797 81.958 34.8647
1156.658119 82.002 34.9531
1165.039741 82.044 35.0224
1173.482099 82.084 35.0641
1181.985634 82.122 35.0731
1190.550789 82.158 35.0466
1199.178011 82.191 34.9848
1207.867749 82.222 34.8925
1216.620457 82.251 34.7786
1225.436590 82.278 34.6544
1234.316609 82.303 34.5276
1243.260976 82.326 34.4022
1252.270157 82.348 34.2807
1261.344623 82.368 34.1673
1270.484846 82.387 34.0665
1279.691303 82.406 33.9818
1288.964474 82.424 33.9143
1298.304842 82.441 33.8616
1307.712894 82.457 33.8177
1317.189120 82.471 33.7744
1326.734016 82.480 33.7236
1336.348077 82.485 33.6590
1346.031806 82.484 33.5786
1355.785708 82.478 33.4861
1365.610290 82.468 33.3898
1375.506065 82.455 33.3000
1385.473549 82.439 33.2281
1395.513261 82.423 33.1854
1405.625726 82.407 33.1789
1415.811469 82.391 33.2074
1426.071023 82.374 33.2640
1436.404921 82.356 33.3397
1446.813703 82.336 33.4252
1457.297912 82.312 33.5135
1467.858093 82.286 33.6013
1478.494798 82.256 33.6907
1489.208581 82.223 33.7882
1500.000000 82.189 33.9045
1510.869618 82.153 34.0533
1521.818002 82.117 34.2485
1532.845723 82.082 34.4978
1543.953355 82.047 34.7986
1555.141477 82.011 35.1401
1566.410674 81.974 35.5096
1577.761531 81.935 35.8995
1589.194642 81.895 36.3080
1600.710601 81.852 36.7376
1612.310010 81.809 37.1965
1623.993473 81.766 37.6990
1635.761599 81.724 38.2641
1647.615002 81.688 38.9108
1659.554299 81.657 39.6525
1671.580114 81.635 40.4918
1683.693072 81.622 41.4217
1695.893807 81.619 42.4279
1708.182952 81.628 43.4916
1720.561150 81.652 44.5916
1733.029045 81.692 45.7069
1745.587288 81.751 46.8173
1758.236533 81.832 47.9002
1770.977440 81.936 48.9302
1783.810673 82.062 49.8804
1796.736900 82.209 50.7263
1809.756796 82.371 51.4494
1822.871040 82.543 52.0417
1836.080315 82.721 52.5080
1849.385310 82.900 52.8638
1862.786718 83.077 53.1309
1876.285239 83.252 53.3315
1889.881575 83.424 53.4843
1903.576436 83.592 53.6007
1917.370535 83.757 53.6816
1931.264593 83.919 53.7188
1945.259332 84.078 53.6996
1959.355483 84.234 53.6112
1973.553781 84.388 53.4439
1987.854965 84.538 53.1940
2002.259781 84.684 52.8658
2016.768981 84.824 52.4729
2031.383320 84.959 52.0345
2046.103561 85.088 51.5697
2060.930471 85.210 51.0914
2075.864823 85.324 50.6049
2090.907395 85.431 50.1093
2106.058972 85.528 49.5988
2121.320344 85.616 49.0640
2136.692305 85.695 48.4964
2152.175658 85.766 47.8910
2167.771210 85.831 47.2480
2183.479774 85.890 46.5737
2199.302169 85.945 45.8783
2215.239219 85.996 45.1724
2231.291755 86.043 44.4649
2247.460615 86.087 43.7625
2263.746641 86.126 43.0728
2280.150683 86.161 42.4065
2296.673595 86.192 41.7770
2313.316238 86.219 41.1958
2330.079481 86.243 40.6675
2346.964198 86.264 40.1894
2363.971268 86.282 39.7521
2381.101578 86.299 39.3406
2398.356022 86.313 38.9372
2415.735498 86.324 38.5268
2433.240913 86.332 38.1007
2450.873180 86.337 37.6576
2468.633217 86.340 37.2036
2486.521951 86.342 36.7522
2504.540314 86.343 36.3202
2522.689246 86.344 35.9214
2540.969692 86.347 35.5620
2559.382606 86.352 35.2396
2577.928947 86.358 34.9440
2596.609683 86.363 34.6588
2615.425787 86.367 34.3655
2634.378241 86.368 34.0487
2653.468031 86.364 33.7007
2672.696154 86.355 33.3218
2692.063613 86.344 32.9218
2711.571415 86.331 32.5184
2731.220579 86.318 32.1343
2751.012130 86.306 31.7899
2770.947098 86.296 31.4979
2791.026522 86.290 31.2591
2811.251451 86.286 31.0599
2831.622938 86.285 30.8748
2852.142045 86.285 30.6727
2872.809842 86.284 30.4274
2893.627406 86.283 30.1232
2914.595823 86.280 29.7592
2935.716186 86.275 29.3489
2956.989596 86.267 28.9158
2978.417161 86.258 28.4856
3000.000000 86.248 28.0798
3021.739237 86.236 27.7104
3043.636005 86.222 27.3791
3065.691446 86.204 27.0773
3087.906710 86.182 26.7900
3110.282955 86.154 26.4994
3132.821347 86.121 26.1890
3155.523062 86.083 25.8497
3178.389283 86.042 25.4851
3201.421202 85.999 25.1121
3224.620020 85.955 24.7550
3247.986946 85.911 24.4390
3271.523198 85.868 24.1825
3295.230004 85.826 23.9918
3319.108599 85.786 23.8591
3343.160228 85.747 23.7632
3367.386145 85.710 23.6749
3391.787613 85.673 23.5633
3416.365904 85.634 23.4041
3441.122300 85.594 23.1837
3466.058091 85.552 22.9008
3491.174576 85.509 22.5636
3516.473066 85.466 22.1860
3541.954880 85.421 21.7828
3567.621345 85.375 21.3673
3593.473800 85.328 20.9518
3619.513592 85.279 20.5498
3645.742080 85.229 20.1765
3672.160630 85.178 19.8497
3698.770620 85.126 19.5872
3725.573436 85.074 19.4018
3752.570477 85.023 19.2946
3779.763150 84.973 19.2519
3807.152872 84.923 19.2476
3834.741071 84.871 19.2488
3862.529185 84.817 19.2253
3890.518664 84.758 19.1573
3918.710966 84.695 19.0411
3947.107561 84.628 18.8883
3975.709929 84.559 18.7242
4004.519563 84.490 18.5818
4033.537962 84.423 18.4919
4062.766641 84.357 18.4753
4092.207123 84.293 18.5369
4121.860942 84.230 18.6637
4151.729646 84.168 18.8281
4181.814790 84.105 18.9949
4212.117944 84.039 19.1310
4242.640687 83.970 19.2145
4273.384610 83.899 19.2375
4304.351317 83.826 19.2068
4335.542421 83.753 19.1390
4366.959549 83.682 19.0541
4398.604338 83.611 18.9702
4430.478438 83.542 18.9026
4462.583511 83.474 18.8665
4494.921231 83.408 18.8793
4527.493283 83.344 18.9618
4560.301365 83.283 19.1359
4593.347189 83.225 19.4196
4626.632476 83.173 19.8187
4660.158962 83.125 20.3235
4693.928395 83.083 20.9078
4727.942535 83.046 21.5330
4762.203156 83.014 22.1578
4796.712043 82.987 22.7484
4831.470996 82.965 23.2869
4866.481826 82.949 23.7747
4901.746360 82.941 24.2333
4937.266434 82.942 24.6968
4973.043902 82.953 25.2007
5009.080628 82.977 25.7686
5045.378492 83.013 26.4028
5081.939384 83.062 27.0830
5118.765212 83.124 27.7695
5155.857894 83.200 28.4103
5193.219366 83.287 28.9497
5230.851574 83.386 29.3397
5268.756481 83.494 29.5473
5306.936062 83.611 29.5587
5345.392309 83.736 29.3764
5384.127225 83.868 29.0119
5423.142830 84.003 28.4788
5462.441159 84.140 27.7892
5502.024259 84.273 26.9558
5541.894195 84.401 25.9952
5582.053045 84.519 24.9313
5622.502902 84.625 23.7952
5663.245876 84.716 22.6215
5704.284090 84.791 21.4387
5745.619684 84.846 20.2612
5787.254813 84.880 19.0863
5829.191647 84.890 17.8971
5871.432373 84.873 16.6700
5913.979192 84.829 15.3844
5956.834323 84.757 14.0322
6000.000000 84.656 12.6270
6043.478473 84.527 11.2067
6087.272010 84.373 9.8298
6131.382892 84.196 8.5653
6175.813420 83.999 7.4805
6220.565910 83.785 6.6299
6265.642695 83.558 6.0442
6311.046124 83.322 5.7242
6356.778566 83.085 5.6372
6402.842404 82.851 5.7172
6449.240040 82.627 5.8711
6495.973891 82.411 6.0037
6543.046396 82.196 6.0645
6590.460007 81.976 6.0824
6638.217197 81.744 6.1509
6686.320456 81.502 6.3831
6734.772290 81.254 6.8741
6783.575226 81.009 7.6830
6832.731809 80.772 8.8279
6882.244600 80.549 10.2905
6932.116181 80.345 12.0273
6982.349153 80.166 13.9823
7032.946133 80.018 16.0966
7083.909760 79.908 18.3123
7135.242690 79.847 20.5750
7186.947600 79.840 22.8375
7239.027185 79.888 25.0773
7291.484160 79.992 27.3132
7344.321260 80.149 29.5884
7397.541239 80.364 31.9179
7451.146872 80.643 34.2505
7505.140954 80.988 36.4658
7559.526299 81.400 38.3977
7614.305743 81.872 39.8681
7669.482141 82.392 40.7190
7725.058371 82.948 40.8384
7781.037328 83.519 40.1706
7837.421932 84.087 38.7099
7894.215122 84.629 36.4894
7951.419859 85.123 33.5736
8009.039125 85.548 30.0561
8067.075924 85.885 26.0598
8125.533282 86.121 21.7368
8184.414245 86.247 17.2654
8243.721885 86.263 12.8392
8303.459292 86.174 8.6498
8363.629581 85.993 4.8646
8424.235888 85.736 1.6025
8485.281374 85.424 -1.0824
8546.769221 85.078 -3.2025
8608.702634 84.716 -4.8252
8671.084842 84.356 -6.0549
8733.919097 84.011 -7.0084
8797.208675 83.692 -7.7863
8860.956876 83.404 -8.4528
8925.167022 83.151 -9.0315
8989.842461 82.935 -9.5150
9054.986566 82.755 -9.8833
9120.602731 82.609 -10.1251
9186.694378 82.496 -10.2591
9253.264952 82.411 -10.3428
9320.317925 82.352 -10.4656
9387.856790 82.313 -10.7323
9455.885071 82.289 -11.2461
9524.406312 82.276 -12.0898
9593.424086 82.270 -13.3092
9662.941992 82.266 -14.9097
9732.963653 82.259 -16.8682
9803.492719 82.244 -19.1497
9874.532869 82.215 -21.7167
9946.087805 82.164 -24.5292
10018.161257 82.084 -27.5409
10090.756983 81.968 -30.6954
10163.878768 81.811 -33.9228
10237.530423 81.606 -37.1390
10311.715789 81.352 -40.2532
10386.438732 81.046 -43.1829
10461.703149 80.688 -45.8744
10537.512962 80.279 -48.3121
10613.872125 79.821 -50.5147
10690.784618 79.315 -52.5222
10768.254450 78.764 -54.3805
10846.285661 78.174 -56.1232
10924.882318 77.549 -57.7527
11004.048518 76.894 -59.2310
11083.788390 76.217 -60.4869
11164.106090 75.525 -61.4318
11245.005805 74.823 -61.9795
11326.491752 74.116 -62.0697
11408.568180 73.411 -61.6880
11491.239368 72.710 -60.8717
11574.509626 72.017 -59.6983
11658.383294 71.333 -58.2670
11742.864745 70.658 -56.6799
11827.958384 69.994 -55.0162
11913.668646 69.341 -53.3057
12000.000000 68.702 -51.5209
12086.956947 68.078 -49.5906
12174.544019 67.472 -47.4214
12262.765784 66.885 -44.9209
12351.626840 66.317 -42.0254
12441.131819 65.771 -38.7227
12531.285389 65.245 -35.0551
12622.092249 64.740 -31.1033
12713.557132 64.256 -26.9621
12805.684808 63.793 -22.7103
12898.480079 63.354 -18.3785
12991.947783 62.942 -13.9282
13086.092792 62.566 -9.2524
13180.920015 62.235 -4.1923
13276.434395 61.967 1.4370
13372.640911 61.784 7.8033
13469.544580 61.714 14.9990
13567.150452 61.789 22.9794
13665.463617 62.041 31.5222
13764.489200 62.493 40.2207
13864.232362 63.157 48.5463
13964.698305 64.020 55.9845
14065.892266 65.051 62.1653
14167.819519 66.209 66.9059
14270.485380 67.446 70.1718
14373.895200 68.714 72.0144
14478.054370 69.970 72.5250
14582.968320 71.174 71.8033
14688.642520 72.292 69.9413
14795.082478 73.294 67.0285
14902.293745 74.155 63.1689
15010.281908 74.858 58.4969
15119.052599 75.395 53.1813
15228.611486 75.771 47.4233
15338.964283 76.002 41.4440
15450.116741 76.119 35.4556
15562.074656 76.155 29.6203
15674.843864 76.149 24.0219
15788.430244 76.133 18.6605
15902.839718 76.134 13.4697
16018.078250 76.164 8.3453
16134.151848 76.224 3.1776
16251.066563 76.304 -2.1211
16368.828491 76.382 -7.5946
16487.443769 76.431 -13.2382
16606.918584 76.419 -19.0121
16727.259161 76.316 -24.8616
16848.471777 76.096 -30.7245
16970.562748 75.738 -36.5253
17093.538442 75.234 -42.1771
17217.405268 74.586 -47.5946
17342.169684 73.806 -52.6996
17467.838194 72.914 -57.4087
17594.417350 71.935 -61.6211
17721.913751 70.896 -65.2201
17850.334044 69.826 -68.0885
17979.684923 68.749 -70.1323
18109.973131 67.690 -71.3140
18241.205462 66.668 -71.6847
18373.388756 65.697 -71.3951
18506.529905 64.785 -70.6759
18640.635849 63.933 -69.7978
18775.713581 63.137 -69.0242
18911.770141 62.390 -68.5634
19048.812624 61.683 -68.5294
19186.848172 61.004 -68.9292
19325.883983 60.346 -69.6813
19465.927305 59.709 -70.6460
19606.985439 59.105 -71.6567
19749.065738 58.569 -72.5526
19892.175609 58.155 -73.2091
20036.322514 57.927 -73.5523
