* Measurement data measured by REW V5.31.3
* Source: Headset (CX31993 HIFI AUDIO), MICROPHONE (Master Volume), R, volume: 0.250
* Format: 256k Log Swept Sine, 1 sweep at -12.0 dBFS with no timing reference
* Dated: 12 31, 24 1:05:40 PM
* REW Settings:
*  C-weighting compensation: Off
*  Target level: 75.0 dB
* Note: ; 
* Measurement: Sony LB 16K MIN L
* Smoothing: 1/12 octave
* Frequency Step: 96 ppo
* Start Frequency: 0.36621094 Hz
*
* Freq(Hz) SPL(dB) Phase(degrees)
0.366211 42.233 -74.5919
0.368865 42.246 -74.6790
0.371538 42.266 -74.8090
0.374230 42.291 -74.9711
0.376942 42.319 -75.1561
0.379673 42.349 -75.3575
0.382424 42.380 -75.5706
0.385196 42.413 -75.7928
0.387987 42.445 -76.0226
0.390798 42.478 -76.2590
0.393630 42.512 -76.5015
0.396483 42.545 -76.7499
0.399356 42.579 -77.0040
0.402250 42.613 -77.2638
0.405165 42.648 -77.5293
0.408101 42.683 -77.8003
0.411058 42.718 -78.0769
0.414037 42.753 -78.3590
0.417037 42.788 -78.6466
0.420059 42.824 -78.9397
0.423103 42.860 -79.2383
0.426169 42.896 -79.5422
0.429257 42.933 -79.8515
0.432368 42.969 -80.1661
0.435501 43.006 -80.4859
0.438656 43.044 -80.8110
0.441835 43.081 -81.1412
0.445037 43.119 -81.4765
0.448262 43.157 -81.8168
0.451510 43.195 -82.1621
0.454782 43.234 -82.5122
0.458077 43.273 -82.8672
0.461397 43.312 -83.2269
0.464740 43.352 -83.5912
0.468108 43.392 -83.9601
0.471500 43.432 -84.3334
0.474917 43.472 -84.7111
0.478358 43.513 -85.0931
0.481825 43.554 -85.4793
0.485316 43.595 -85.8695
0.488833 43.637 -86.2637
0.492375 43.678 -86.6618
0.495943 43.721 -87.0637
0.499537 43.763 -87.4691
0.503157 43.806 -87.8782
0.506803 43.849 -88.2906
0.510475 43.892 -88.7064
0.514175 43.936 -89.1253
0.517900 43.980 -89.5473
0.521653 44.024 -89.9723
0.525434 44.069 -90.4001
0.529241 44.114 -90.8306
0.533076 44.159 -91.2637
0.536939 44.205 -91.6993
0.540830 44.251 -92.1372
0.544749 44.297 -92.5774
0.548696 44.344 -93.0197
0.552673 44.391 -93.4641
0.556677 44.438 -93.9103
0.560711 44.486 -94.3582
0.564774 44.534 -94.8079
0.568867 44.582 -95.2591
0.572989 44.631 -95.7117
0.577141 44.680 -96.1657
0.581324 44.730 -96.6210
0.585536 44.779 -97.0774
0.589779 44.829 -97.5348
0.594053 44.880 -97.9932
0.598358 44.931 -98.4525
0.602694 44.982 -98.9126
0.607061 45.034 -99.3733
0.611460 45.086 -99.8347
0.615891 45.138 -100.2967
0.620354 45.191 -100.7592
0.624849 45.244 -101.2221
0.629377 45.297 -101.6853
0.633938 45.351 -102.1489
0.638532 45.406 -102.6128
0.643159 45.460 -103.0770
0.647819 45.515 -103.5413
0.652514 45.571 -104.0059
0.657242 45.627 -104.4706
0.662005 45.683 -104.9354
0.666802 45.740 -105.4004
0.671634 45.797 -105.8655
0.676501 45.854 -106.3308
0.681403 45.912 -106.7962
0.686341 45.971 -107.2618
0.691314 46.029 -107.7277
0.696324 46.089 -108.1938
0.701370 46.148 -108.6602
0.706452 46.208 -109.1270
0.711571 46.268 -109.5944
0.716728 46.329 -110.0625
0.721921 46.389 -110.5316
0.727153 46.449 -111.0020
0.732422 46.509 -111.4741
0.737729 46.568 -111.9484
0.743075 46.628 -112.4253
0.748460 46.687 -112.9050
0.753883 46.745 -113.3876
0.759346 46.804 -113.8731
0.764849 46.863 -114.3615
0.770391 46.923 -114.8527
0.775974 46.982 -115.3465
0.781597 47.042 -115.8426
0.787261 47.102 -116.3410
0.792966 47.162 -116.8413
0.798712 47.223 -117.3435
0.804500 47.284 -117.8473
0.810329 47.345 -118.3526
0.816201 47.406 -118.8591
0.822116 47.468 -119.3666
0.828073 47.530 -119.8750
0.834074 47.592 -120.3841
0.840118 47.654 -120.8937
0.846206 47.717 -121.4037
0.852338 47.780 -121.9138
0.858514 47.843 -122.4239
0.864735 47.907 -122.9339
0.871001 47.970 -123.4436
0.877313 48.034 -123.9528
0.883670 48.098 -124.4614
0.890074 48.163 -124.9693
0.896524 48.228 -125.4763
0.903020 48.293 -125.9823
0.909564 48.358 -126.4873
0.916155 48.423 -126.9910
0.922794 48.489 -127.4934
0.929481 48.555 -127.9944
0.936216 48.621 -128.4940
0.943000 48.688 -128.9919
0.949834 48.754 -129.4882
0.956717 48.821 -129.9827
0.963649 48.888 -130.4755
0.970632 48.956 -130.9665
0.977666 49.023 -131.4555
0.984750 49.091 -131.9427
0.991886 49.159 -132.4279
0.999074 49.227 -132.9111
1.006314 49.296 -133.3923
1.013606 49.364 -133.8716
1.020951 49.433 -134.3488
1.028349 49.502 -134.8241
1.035801 49.572 -135.2974
1.043307 49.641 -135.7688
1.050867 49.711 -136.2383
1.058482 49.781 -136.7061
1.066152 49.851 -137.1722
1.073878 49.921 -137.6369
1.081660 49.992 -138.1005
1.089498 50.062 -138.5633
1.097393 50.133 -139.0260
1.105345 50.204 -139.4891
1.113355 50.275 -139.9534
1.121423 50.346 -140.4192
1.129549 50.417 -140.8869
1.137734 50.488 -141.3566
1.145979 50.559 -141.8285
1.154283 50.630 -142.3026
1.162647 50.702 -142.7786
1.171072 50.773 -143.2566
1.179558 50.845 -143.7363
1.188106 50.916 -144.2176
1.196715 50.988 -144.7004
1.205387 51.060 -145.1844
1.214122 51.132 -145.6695
1.222920 51.204 -146.1555
1.231782 51.276 -146.6421
1.240708 51.348 -147.1291
1.249699 51.421 -147.6163
1.258754 51.493 -148.1035
1.267876 51.566 -148.5903
1.277063 51.639 -149.0767
1.286318 51.712 -149.5622
1.295639 51.785 -150.0466
1.305027 51.858 -150.5297
1.314484 51.932 -151.0111
1.324009 52.005 -151.4905
1.333604 52.079 -151.9677
1.343268 52.153 -152.4423
1.353002 52.228 -152.9140
1.362806 52.302 -153.3825
1.372681 52.377 -153.8475
1.382628 52.453 -154.3085
1.392647 52.528 -154.7654
1.402739 52.604 -155.2178
1.412904 52.680 -155.6653
1.423142 52.756 -156.1078
1.433455 52.833 -156.5451
1.443843 52.910 -156.9770
1.454305 52.987 -157.4038
1.464844 53.064 -157.8255
1.475459 53.142 -158.2428
1.486150 53.220 -158.6561
1.496920 53.297 -159.0658
1.507767 53.375 -159.4723
1.518693 53.453 -159.8759
1.529698 53.531 -160.2768
1.540783 53.609 -160.6752
1.551948 53.687 -161.0712
1.563194 53.766 -161.4649
1.574521 53.844 -161.8564
1.585931 53.922 -162.2457
1.597423 54.001 -162.6329
1.608999 54.080 -163.0181
1.620658 54.158 -163.4013
1.632402 54.238 -163.7826
1.644232 54.317 -164.1619
1.656146 54.397 -164.5393
1.668147 54.477 -164.9149
1.680235 54.557 -165.2886
1.692411 54.637 -165.6604
1.704675 54.718 -166.0304
1.717028 54.800 -166.3985
1.729470 54.882 -166.7647
1.742003 54.964 -167.1291
1.754626 55.047 -167.4915
1.767341 55.130 -167.8519
1.780147 55.215 -168.2103
1.793047 55.299 -168.5665
1.806040 55.384 -168.9203
1.819128 55.470 -169.2718
1.832310 55.556 -169.6205
1.845587 55.643 -169.9663
1.858961 55.730 -170.3091
1.872432 55.818 -170.6487
1.886001 55.906 -170.9854
1.899667 55.994 -171.3191
1.913433 56.083 -171.6500
1.927299 56.172 -171.9783
1.941265 56.262 -172.3042
1.955332 56.352 -172.6280
1.969501 56.442 -172.9498
1.983773 56.533 -173.2698
1.998148 56.624 -173.5882
2.012627 56.716 -173.9053
2.027212 56.809 -174.2212
2.041902 56.902 -174.5361
2.056698 56.996 -174.8502
2.071602 57.090 -175.1635
2.086614 57.185 -175.4764
2.101734 57.281 -175.7887
2.116964 57.378 -176.1007
2.132304 57.476 -176.4123
2.147756 57.574 -176.7235
2.163320 57.673 -177.0339
2.178996 57.774 -177.3432
2.194786 57.875 -177.6507
2.210690 57.977 -177.9560
2.226710 58.080 -178.2582
2.242845 58.184 -178.5572
2.259098 58.288 -178.8528
2.275468 58.394 -179.1453
2.291957 58.500 -179.4351
2.308566 58.607 -179.7226
2.325295 58.715 179.9913
2.342145 58.824 179.7062
2.359117 58.934 179.4213
2.376212 59.044 179.1359
2.393431 59.156 178.8493
2.410775 59.268 178.5609
2.428244 59.380 178.2700
2.445840 59.494 177.9760
2.463564 59.608 177.6784
2.481416 59.723 177.3767
2.499397 59.839 177.0706
2.517509 59.956 176.7600
2.535752 60.073 176.4453
2.554127 60.192 176.1269
2.572635 60.311 175.8058
2.591277 60.431 175.4830
2.610055 60.552 175.1594
2.628968 60.674 174.8353
2.648019 60.796 174.5107
2.667208 60.920 174.1854
2.686535 61.045 173.8588
2.706003 61.170 173.5302
2.725612 61.296 173.1988
2.745363 61.423 172.8639
2.765257 61.550 172.5245
2.785295 61.678 172.1799
2.805478 61.806 171.8292
2.825808 61.934 171.4717
2.846285 62.063 171.1068
2.866910 62.192 170.7339
2.887685 62.322 170.3528
2.908611 62.451 169.9637
2.929688 62.581 169.5669
2.950917 62.711 169.1631
2.972301 62.842 168.7534
2.993839 62.973 168.3381
3.015534 63.104 167.9180
3.037386 63.235 167.4933
3.059396 63.367 167.0638
3.081565 63.499 166.6296
3.103896 63.631 166.1904
3.126388 63.764 165.7460
3.149043 63.896 165.2959
3.171862 64.027 164.8398
3.194847 64.159 164.3773
3.217998 64.290 163.9080
3.241317 64.421 163.4315
3.264805 64.551 162.9475
3.288463 64.681 162.4560
3.312293 64.811 161.9568
3.336295 64.940 161.4503
3.360471 65.068 160.9367
3.384822 65.196 160.4168
3.409350 65.324 159.8910
3.434056 65.451 159.3597
3.458940 65.577 158.8237
3.484005 65.703 158.2833
3.509252 65.828 157.7388
3.534681 65.952 157.1905
3.560295 66.075 156.6384
3.586094 66.198 156.0826
3.612081 66.319 155.5228
3.638255 66.440 154.9585
3.664620 66.559 154.3891
3.691175 66.677 153.8141
3.717923 66.794 153.2332
3.744864 66.910 152.6467
3.772001 67.024 152.0550
3.799335 67.138 151.4592
3.826866 67.250 150.8604
3.854597 67.361 150.2596
3.882529 67.471 149.6581
3.910664 67.579 149.0569
3.939002 67.686 148.4565
3.967546 67.792 147.8576
3.996296 67.897 147.2598
4.025255 68.000 146.6628
4.054423 68.101 146.0656
4.083804 68.201 145.4676
4.113396 68.300 144.8683
4.143204 68.397 144.2682
4.173227 68.492 143.6681
4.203468 68.586 143.0690
4.233928 68.679 142.4722
4.264609 68.770 141.8788
4.295512 68.860 141.2896
4.326639 68.949 140.7052
4.357992 69.036 140.1254
4.389572 69.122 139.5500
4.421380 69.207 138.9791
4.453419 69.290 138.4137
4.485691 69.372 137.8554
4.518196 69.453 137.3058
4.550936 69.532 136.7659
4.583914 69.610 136.2361
4.617131 69.687 135.7167
4.650589 69.763 135.2075
4.684289 69.839 134.7082
4.718233 69.914 134.2183
4.752424 69.988 133.7377
4.786862 70.062 133.2660
4.821549 70.135 132.8033
4.856488 70.207 132.3494
4.891680 70.279 131.9042
4.927127 70.350 131.4680
4.962831 70.421 131.0408
4.998794 70.492 130.6229
5.035017 70.564 130.2145
5.071503 70.635 129.8162
5.108253 70.707 129.4280
5.145270 70.780 129.0503
5.182555 70.853 128.6830
5.220110 70.927 128.3257
5.257937 71.001 127.9775
5.296038 71.075 127.6374
5.334415 71.151 127.3042
5.373071 71.227 126.9769
5.412006 71.305 126.6545
5.451224 71.384 126.3364
5.490725 71.464 126.0224
5.530514 71.545 125.7123
5.570590 71.627 125.4060
5.610957 71.711 125.1028
5.651616 71.796 124.8016
5.692570 71.882 124.5010
5.733821 71.969 124.1993
5.775370 72.057 123.8951
5.817221 72.147 123.5872
5.859375 72.237 123.2749
5.901834 72.328 122.9579
5.944602 72.420 122.6363
5.987679 72.513 122.3098
6.031068 72.607 121.9777
6.074771 72.701 121.6393
6.118792 72.796 121.2938
6.163131 72.891 120.9402
6.207792 72.985 120.5780
6.252776 73.080 120.2068
6.298086 73.174 119.8267
6.343725 73.268 119.4381
6.389694 73.361 119.0414
6.435996 73.454 118.6370
6.482634 73.546 118.2256
6.529610 73.637 117.8072
6.576926 73.727 117.3820
6.624585 73.816 116.9501
6.672590 73.903 116.5119
6.720942 73.989 116.0680
6.769645 74.073 115.6194
6.818700 74.156 115.1676
6.868111 74.238 114.7137
6.917881 74.317 114.2587
6.968010 74.396 113.8033
7.018504 74.472 113.3477
7.069362 74.547 112.8927
7.120590 74.620 112.4388
7.172189 74.691 111.9873
7.224161 74.762 111.5394
7.276511 74.830 111.0961
7.329239 74.898 110.6582
7.382350 74.965 110.2262
7.435845 75.030 109.8001
7.489729 75.095 109.3800
7.544002 75.158 108.9662
7.598669 75.222 108.5588
7.653732 75.285 108.1582
7.709194 75.347 107.7644
7.765058 75.410 107.3772
7.821327 75.473 106.9961
7.878004 75.536 106.6202
7.935091 75.599 106.2487
7.992592 75.663 105.8804
8.050510 75.727 105.5147
8.108847 75.792 105.1509
8.167607 75.858 104.7880
8.226793 75.924 104.4250
8.286408 75.991 104.0604
8.346454 76.059 103.6930
8.406936 76.127 103.3213
8.467856 76.195 102.9446
8.529218 76.264 102.5621
8.591024 76.333 102.1733
8.653278 76.402 101.7774
8.715983 76.471 101.3738
8.779143 76.540 100.9621
8.842760 76.608 100.5418
8.906839 76.675 100.1133
8.971381 76.742 99.6769
9.036392 76.807 99.2334
9.101873 76.871 98.7834
9.167829 76.934 98.3278
9.234263 76.995 97.8673
9.301178 77.054 97.4030
9.368578 77.111 96.9365
9.436467 77.167 96.4695
9.504847 77.220 96.0036
9.573723 77.272 95.5402
9.643099 77.323 95.0805
9.712976 77.371 94.6260
9.783361 77.418 94.1783
9.854255 77.464 93.7388
9.925663 77.509 93.3087
9.997588 77.553 92.8886
10.070035 77.596 92.4792
10.143007 77.639 92.0806
10.216507 77.683 91.6930
10.290540 77.727 91.3162
10.365109 77.771 90.9498
10.440219 77.817 90.5925
10.515873 77.864 90.2430
10.592076 77.912 89.8997
10.668830 77.962 89.5609
10.746141 78.014 89.2249
10.824012 78.067 88.8895
10.902447 78.122 88.5524
10.981451 78.179 88.2114
11.061027 78.238 87.8647
11.141180 78.298 87.5105
11.221913 78.359 87.1475
11.303232 78.421 86.7743
11.385140 78.483 86.3900
11.467641 78.545 85.9944
11.550741 78.607 85.5877
11.634442 78.668 85.1705
11.718750 78.728 84.7438
11.803669 78.787 84.3091
11.889203 78.844 83.8681
11.975357 78.900 83.4233
12.062136 78.953 82.9773
12.149543 79.005 82.5327
12.237583 79.054 82.0919
12.326262 79.102 81.6578
12.415583 79.148 81.2330
12.505552 79.192 80.8197
12.596172 79.236 80.4198
12.687449 79.279 80.0345
12.779387 79.322 79.6644
12.871992 79.366 79.3098
12.965268 79.411 78.9700
13.059220 79.457 78.6433
13.153852 79.505 78.3276
13.249170 79.555 78.0200
13.345179 79.608 77.7175
13.441884 79.663 77.4161
13.539289 79.721 77.1119
13.637401 79.781 76.8012
13.736223 79.843 76.4807
13.835761 79.906 76.1472
13.936021 79.970 75.7984
14.037007 80.034 75.4330
14.138725 80.098 75.0509
14.241180 80.160 74.6528
14.344377 80.220 74.2407
14.448323 80.277 73.8174
14.553021 80.331 73.3870
14.658478 80.381 72.9542
14.764700 80.427 72.5241
14.871691 80.470 72.1021
14.979457 80.509 71.6936
15.088005 80.546 71.3035
15.197339 80.580 70.9357
15.307465 80.613 70.5930
15.418389 80.645 70.2768
15.530117 80.679 69.9870
15.642655 80.714 69.7213
15.756008 80.751 69.4759
15.870182 80.793 69.2456
15.985184 80.838 69.0237
16.101019 80.887 68.8030
16.217694 80.940 68.5761
16.335214 80.997 68.3364
16.453586 81.056 68.0782
16.572815 81.117 67.7974
16.692909 81.178 67.4922
16.813872 81.239 67.1631
16.935713 81.298 66.8123
17.058436 81.354 66.4442
17.182048 81.408 66.0645
17.306556 81.458 65.6796
17.431967 81.506 65.2957
17.558286 81.552 64.9182
17.685521 81.597 64.5505
17.813677 81.642 64.1935
17.942762 81.689 63.8451
18.072783 81.738 63.4999
18.203746 81.792 63.1494
18.335658 81.850 62.7828
18.468526 81.912 62.3879
18.602356 81.977 61.9527
18.737156 82.044 61.4667
18.872934 82.110 60.9227
19.009695 82.173 60.3177
19.147447 82.229 59.6542
19.286197 82.277 58.9401
19.425953 82.312 58.1894
19.566721 82.333 57.4205
19.708510 82.339 56.6565
19.851326 82.330 55.9228
19.995177 82.307 55.2452
20.140070 82.273 54.6485
20.286013 82.231 54.1531
20.433014 82.185 53.7727
20.581080 82.142 53.5120
20.730219 82.107 53.3645
20.880439 82.086 53.3118
21.031747 82.082 53.3254
21.184152 82.098 53.3687
21.337661 82.133 53.4016
21.492282 82.187 53.3868
21.648024 82.254 53.2935
21.804895 82.329 53.1017
21.962902 82.406 52.8046
22.122054 82.480 52.4075
22.282360 82.546 51.9271
22.443827 82.600 51.3881
22.606464 82.641 50.8198
22.770280 82.669 50.2527
22.935283 82.684 49.7144
23.101481 82.691 49.2267
23.268884 82.693 48.8032
23.437500 82.694 48.4476
23.607338 82.698 48.1537
23.778406 82.709 47.9067
23.950714 82.728 47.6862
24.124271 82.755 47.4703
24.299086 82.790 47.2386
24.475167 82.828 46.9770
24.652524 82.869 46.6781
24.831166 82.908 46.3428
25.011103 82.943 45.9789
25.192344 82.974 45.5982
25.374898 82.999 45.2148
25.558775 83.020 44.8413
25.743984 83.038 44.4865
25.930536 83.054 44.1541
26.118439 83.072 43.8423
26.307704 83.091 43.5443
26.498341 83.113 43.2504
26.690359 83.138 42.9504
26.883768 83.165 42.6357
27.078579 83.191 42.3018
27.274801 83.217 41.9483
27.472446 83.239 41.5796
27.671522 83.258 41.2031
27.872042 83.273 40.8278
28.074014 83.286 40.4621
28.277450 83.296 40.1123
28.482360 83.305 39.7813
28.688755 83.315 39.4680
28.896645 83.327 39.1685
29.106042 83.341 38.8763
29.316957 83.358 38.5848
29.529400 83.376 38.2878
29.743382 83.397 37.9816
29.958915 83.417 37.6644
30.176009 83.438 37.3370
30.394677 83.458 37.0016
30.614929 83.478 36.6611
30.836778 83.497 36.3181
31.060234 83.515 35.9741
31.285309 83.533 35.6295
31.512015 83.551 35.2837
31.740364 83.569 34.9357
31.970368 83.586 34.5849
32.202039 83.603 34.2315
32.435388 83.618 33.8770
32.670428 83.632 33.5243
32.907171 83.644 33.1771
33.145630 83.654 32.8392
33.385817 83.664 32.5137
33.627745 83.674 32.2020
33.871425 83.684 31.9037
34.116871 83.695 31.6160
34.364096 83.708 31.3345
34.613113 83.723 31.0537
34.863934 83.739 30.7681
35.116572 83.757 30.4734
35.371041 83.774 30.1671
35.627354 83.790 29.8492
35.885525 83.805 29.5224
36.145566 83.818 29.1915
36.407492 83.828 28.8623
36.671316 83.836 28.5406
36.937051 83.843 28.2308
37.204712 83.849 27.9349
37.474313 83.856 27.6520
37.745867 83.864 27.3782
38.019389 83.874 27.1079
38.294893 83.885 26.8351
38.572394 83.897 26.5550
38.851905 83.910 26.2650
39.133442 83.922 25.9651
39.417019 83.934 25.6578
39.702651 83.944 25.3468
39.990353 83.952 25.0354
40.280140 83.960 24.7263
40.572026 83.967 24.4204
40.866028 83.973 24.1176
41.162160 83.979 23.8165
41.460438 83.986 23.5162
41.760877 83.991 23.2156
42.063494 83.997 22.9144
42.368303 84.002 22.6125
42.675322 84.006 22.3110
42.984565 84.010 22.0114
43.296048 84.012 21.7159
43.609789 84.014 21.4271
43.925804 84.016 21.1475
44.244108 84.018 20.8779
44.564719 84.021 20.6170
44.887654 84.026 20.3608
45.212928 84.032 20.1038
45.540560 84.041 19.8397
45.870565 84.050 19.5638
46.202962 84.059 19.2749
46.537768 84.066 18.9751
46.875000 84.071 18.6699
47.214676 84.074 18.3669
47.556813 84.074 18.0735
47.901429 84.073 17.7943
48.248542 84.071 17.5306
48.598171 84.071 17.2793
48.950334 84.071 17.0350
49.305048 84.073 16.7913
49.662333 84.075 16.5428
50.022206 84.078 16.2872
50.384688 84.080 16.0243
50.749796 84.082 15.7551
51.117550 84.083 15.4813
51.487969 84.083 15.2032
51.861072 84.083 14.9205
52.236879 84.081 14.6330
52.615409 84.079 14.3416
52.996681 84.076 14.0488
53.380717 84.072 13.7581
53.767536 84.067 13.4726
54.157158 84.062 13.1932
54.549603 84.058 12.9185
54.944892 84.055 12.6449
55.343045 84.053 12.3693
55.744084 84.051 12.0901
56.148028 84.049 11.8089
56.554900 84.046 11.5287
56.964720 84.043 11.2529
57.377510 84.039 10.9833
57.793291 84.034 10.7203
58.212085 84.030 10.4630
58.633914 84.025 10.2102
59.058799 84.020 9.9605
59.486764 84.016 9.7120
59.917829 84.011 9.4625
60.352019 84.005 9.2101
60.789354 83.999 8.9543
61.229859 83.992 8.6963
61.673556 83.983 8.4379
62.120468 83.975 8.1798
62.570618 83.966 7.9207
63.024031 83.958 7.6576
63.480729 83.950 7.3883
63.940736 83.942 7.1130
64.404077 83.933 6.8336
64.870776 83.923 6.5526
65.340856 83.912 6.2711
65.814343 83.900 5.9905
66.291261 83.886 5.7150
66.771635 83.870 5.4529
67.255489 83.852 5.2135
67.742850 83.834 5.0022
68.233743 83.818 4.8159
68.728193 83.804 4.6447
69.226226 83.792 4.4774
69.727867 83.781 4.3065
70.233144 83.771 4.1294
70.742083 83.761 3.9459
71.254709 83.751 3.7552
71.771050 83.741 3.5553
72.291132 83.730 3.3448
72.814984 83.718 3.1243
73.342631 83.705 2.8956
73.874102 83.692 2.6604
74.409424 83.679 2.4186
74.948626 83.665 2.1698
75.491734 83.651 1.9149
76.038779 83.636 1.6565
76.589787 83.620 1.3979
77.144788 83.603 1.1418
77.703811 83.586 0.8903
78.266885 83.567 0.6448
78.834039 83.548 0.4070
79.405303 83.528 0.1786
79.980706 83.507 -0.0389
80.560280 83.486 -0.2443
81.144053 83.464 -0.4368
81.732056 83.442 -0.6176
82.324320 83.422 -0.7894
82.920876 83.402 -0.9572
83.521755 83.384 -1.1263
84.126988 83.367 -1.3024
84.736607 83.350 -1.4888
85.350643 83.333 -1.6869
85.969129 83.315 -1.8953
86.592097 83.295 -2.1103
87.219579 83.274 -2.3282
87.851608 83.251 -2.5459
88.488217 83.226 -2.7598
89.129439 83.199 -2.9664
89.775308 83.172 -3.1642
90.425856 83.144 -3.3544
91.081119 83.116 -3.5402
91.741131 83.087 -3.7236
92.405925 83.059 -3.9050
93.075536 83.030 -4.0837
93.750000 83.002 -4.2600
94.429351 82.975 -4.4358
95.113625 82.949 -4.6136
95.802858 82.923 -4.7958
96.497085 82.898 -4.9822
97.196342 82.872 -5.1699
97.900667 82.845 -5.3544
98.610096 82.818 -5.5328
99.324665 82.791 -5.7039
100.044413 82.763 -5.8683
100.769376 82.734 -6.0275
101.499592 82.705 -6.1837
102.235100 82.676 -6.3400
102.975938 82.645 -6.4988
103.722144 82.614 -6.6625
104.473757 82.581 -6.8340
105.230817 82.547 -7.0140
105.993363 82.510 -7.1996
106.761435 82.471 -7.3843
107.535072 82.431 -7.5616
108.314315 82.389 -7.7278
109.099206 82.346 -7.8815
109.889783 82.302 -8.0223
110.686090 82.257 -8.1476
111.488167 82.210 -8.2518
112.296056 82.162 -8.3303
113.109800 82.113 -8.3815
113.929440 82.062 -8.4047
114.755020 82.012 -8.3982
115.586582 81.961 -8.3601
116.424170 81.911 -8.2895
117.267827 81.864 -8.1876
118.117598 81.820 -8.0609
118.973527 81.780 -7.9209
119.835658 81.745 -7.7809
120.704037 81.714 -7.6503
121.578708 81.685 -7.5344
122.459718 81.660 -7.4365
123.347111 81.636 -7.3582
124.240935 81.615 -7.2979
125.141236 81.595 -7.2515
126.048061 81.577 -7.2137
126.961458 81.561 -7.1785
127.881473 81.547 -7.1415
128.808154 81.533 -7.1024
129.741551 81.520 -7.0627
130.681712 81.506 -7.0238
131.628686 81.492 -6.9872
132.582521 81.478 -6.9597
133.543269 81.465 -6.9562
134.510979 81.451 -6.9927
135.485701 81.435 -7.0685
136.467486 81.415 -7.1632
137.456386 81.392 -7.2550
138.452451 81.368 -7.3345
139.455735 81.344 -7.4019
140.466288 81.320 -7.4598
141.484165 81.294 -7.5100
142.509418 81.267 -7.5510
143.542100 81.238 -7.5802
144.582265 81.208 -7.5982
145.629968 81.178 -7.6084
146.685262 81.147 -7.6143
147.748204 81.117 -7.6171
148.818849 81.087 -7.6159
149.897251 81.057 -7.6099
150.983469 81.027 -7.5990
152.077557 80.996 -7.5844
153.179574 80.967 -7.5674
154.289576 80.937 -7.5492
155.407622 80.908 -7.5291
156.533770 80.880 -7.5050
157.668078 80.852 -7.4752
158.810606 80.824 -7.4384
159.961413 80.795 -7.3935
161.120559 80.765 -7.3402
162.288105 80.734 -7.2786
163.464112 80.701 -7.2097
164.648640 80.668 -7.1360
165.841752 80.635 -7.0605
167.043510 80.603 -6.9863
168.253976 80.572 -6.9167
169.473213 80.543 -6.8542
170.701286 80.516 -6.7979
171.938258 80.490 -6.7435
173.184194 80.464 -6.6859
174.439158 80.436 -6.6210
175.703216 80.407 -6.5475
176.976434 80.377 -6.4659
178.258878 80.345 -6.3767
179.550615 80.313 -6.2798
180.851713 80.281 -6.1748
182.162239 80.250 -6.0618
183.482262 80.221 -5.9431
184.811850 80.195 -5.8251
186.151073 80.170 -5.7126
187.500000 80.145 -5.6057
188.858702 80.119 -5.5002
190.227250 80.094 -5.3918
191.605715 80.068 -5.2793
192.994169 80.041 -5.1647
194.392685 80.014 -5.0515
195.801334 79.985 -4.9420
197.220191 79.955 -4.8352
198.649330 79.925 -4.7261
200.088825 79.896 -4.6075
201.538751 79.870 -4.4758
202.999184 79.849 -4.3337
204.470200 79.831 -4.1877
205.951875 79.815 -4.0403
207.444287 79.800 -3.8887
208.947514 79.783 -3.7291
210.461634 79.766 -3.5603
211.986726 79.747 -3.3846
213.522869 79.729 -3.2075
215.070144 79.710 -3.0341
216.628631 79.690 -2.8674
218.198411 79.672 -2.7075
219.779567 79.654 -2.5521
221.372180 79.638 -2.3978
222.976334 79.624 -2.2418
224.592112 79.611 -2.0829
226.219600 79.599 -1.9204
227.858880 79.586 -1.7542
229.510039 79.572 -1.5847
231.173164 79.557 -1.4131
232.848340 79.539 -1.2415
234.535655 79.520 -1.0714
236.235197 79.500 -0.9034
237.947054 79.480 -0.7366
239.671317 79.462 -0.5686
241.408074 79.445 -0.3976
243.157416 79.430 -0.2237
244.919435 79.415 -0.0483
246.694223 79.401 0.1268
248.481871 79.387 0.3005
250.282473 79.373 0.4741
252.096123 79.360 0.6498
253.922915 79.346 0.8300
255.762945 79.332 1.0140
257.616309 79.319 1.1992
259.483103 79.307 1.3822
261.363424 79.297 1.5623
263.257372 79.290 1.7432
265.165043 79.284 1.9317
267.086538 79.278 2.1343
269.021957 79.273 2.3527
270.971401 79.267 2.5815
272.934972 79.261 2.8123
274.912771 79.254 3.0385
276.904902 79.246 3.2589
278.911469 79.238 3.4753
280.932577 79.229 3.6887
282.968330 79.221 3.8976
285.018835 79.213 4.0995
287.084199 79.207 4.2935
289.164530 79.201 4.4799
291.259935 79.195 4.6615
293.370525 79.191 4.8421
295.496408 79.188 5.0252
297.637697 79.185 5.2120
299.794503 79.184 5.4025
301.966937 79.183 5.5968
304.155114 79.182 5.7960
306.359147 79.182 6.0004
308.579152 79.181 6.2095
310.815244 79.180 6.4216
313.067539 79.179 6.6344
315.336156 79.179 6.8450
317.621211 79.179 7.0511
319.922826 79.180 7.2523
322.241118 79.180 7.4485
324.576210 79.181 7.6404
326.928223 79.182 7.8295
329.297280 79.182 8.0188
331.683504 79.181 8.2118
334.087019 79.180 8.4109
336.507952 79.180 8.6154
338.946427 79.181 8.8208
341.402572 79.184 9.0222
343.876516 79.187 9.2169
346.368387 79.190 9.4053
348.878315 79.193 9.5908
351.406431 79.195 9.7766
353.952867 79.198 9.9636
356.517756 79.202 10.1504
359.101230 79.206 10.3350
361.703426 79.212 10.5189
364.324478 79.219 10.7063
366.964523 79.227 10.9005
369.623699 79.236 11.1015
372.302145 79.245 11.3069
375.000000 79.253 11.5131
377.717405 79.261 11.7162
380.454501 79.268 11.9125
383.211431 79.276 12.0994
385.988339 79.283 12.2756
388.785369 79.291 12.4414
391.602668 79.299 12.5971
394.440383 79.306 12.7440
397.298660 79.314 12.8854
400.177650 79.321 13.0270
403.077502 79.327 13.1747
405.998368 79.331 13.3326
408.940400 79.334 13.5027
411.903750 79.334 13.6864
414.888575 79.333 13.8863
417.895028 79.332 14.1038
420.923268 79.334 14.3358
423.973452 79.340 14.5741
427.045738 79.350 14.8076
430.140287 79.365 15.0259
433.257261 79.383 15.2217
436.396822 79.404 15.3925
439.559133 79.425 15.5409
442.744360 79.446 15.6731
445.952668 79.467 15.7967
449.184225 79.487 15.9174
452.439199 79.506 16.0387
455.717760 79.524 16.1626
459.020079 79.539 16.2892
462.346327 79.553 16.4175
465.696680 79.566 16.5469
469.071310 79.576 16.6779
472.470394 79.586 16.8099
475.894109 79.595 16.9409
479.342634 79.606 17.0691
482.816148 79.618 17.1965
486.314833 79.632 17.3267
489.838871 79.648 17.4619
493.388445 79.664 17.6020
496.963741 79.680 17.7452
500.564945 79.695 17.8901
504.192245 79.708 18.0342
507.845830 79.721 18.1747
511.525890 79.733 18.3099
515.232618 79.744 18.4407
518.966206 79.757 18.5680
522.726849 79.769 18.6918
526.514743 79.783 18.8124
530.330086 79.797 18.9322
534.173076 79.812 19.0547
538.043915 79.826 19.1823
541.942803 79.838 19.3136
545.869944 79.849 19.4449
549.825542 79.857 19.5725
553.809805 79.864 19.6945
557.822939 79.869 19.8121
561.865154 79.875 19.9291
565.936660 79.882 20.0499
570.037671 79.891 20.1772
574.168399 79.901 20.3101
578.329060 79.912 20.4439
582.519870 79.924 20.5736
586.741049 79.936 20.6986
590.992817 79.947 20.8231
595.275394 79.958 20.9529
599.589005 79.969 21.0919
603.933874 79.980 21.2408
608.310228 79.991 21.3965
612.718295 80.001 21.5528
617.158304 80.011 21.7036
621.630488 80.020 21.8446
626.135079 80.028 21.9739
630.672311 80.035 22.0928
635.242423 80.042 22.2055
639.845651 80.047 22.3172
644.482237 80.053 22.4323
649.152421 80.058 22.5536
653.856447 80.063 22.6815
658.594560 80.069 22.8121
663.367008 80.077 22.9382
668.174039 80.087 23.0516
673.015903 80.098 23.1481
677.892854 80.110 23.2317
682.805145 80.120 23.3135
687.753032 80.129 23.4044
692.736774 80.137 23.5121
697.756631 80.145 23.6400
702.812863 80.154 23.7877
707.905735 80.163 23.9505
713.035511 80.173 24.1210
718.202461 80.185 24.2921
723.406852 80.198 24.4589
728.648956 80.210 24.6197
733.929047 80.221 24.7750
739.247399 80.230 24.9257
744.604290 80.237 25.0737
750.000000 80.244 25.2236
755.434809 80.250 25.3835
760.909001 80.257 25.5611
766.422861 80.264 25.7576
771.976677 80.274 25.9670
777.570739 80.286 26.1813
783.205337 80.299 26.3958
788.880766 80.313 26.6085
794.597321 80.327 26.8175
800.355301 80.340 27.0197
806.155005 80.352 27.2113
811.996736 80.363 27.3896
817.880799 80.374 27.5542
823.807501 80.385 27.7068
829.777150 80.397 27.8505
835.790057 80.410 27.9897
841.846536 80.424 28.1297
847.946903 80.438 28.2759
854.091476 80.454 28.4338
860.280575 80.471 28.6074
866.514523 80.490 28.7987
872.793644 80.512 29.0076
879.118267 80.535 29.2310
885.488720 80.561 29.4631
891.905336 80.587 29.6969
898.368450 80.614 29.9261
904.878398 80.640 30.1467
911.435520 80.664 30.3587
918.040157 80.687 30.5654
924.692655 80.710 30.7707
931.393359 80.733 30.9777
938.142619 80.759 31.1881
944.940787 80.788 31.4018
951.788218 80.821 31.6163
958.685268 80.857 31.8282
965.632296 80.895 32.0344
972.629666 80.935 32.2311
979.677741 80.973 32.4136
986.776890 81.010 32.5785
993.927482 81.044 32.7250
1001.129891 81.076 32.8564
1008.384491 81.107 32.9792
1015.691660 81.139 33.1008
1023.051781 81.172 33.2262
1030.465236 81.208 33.3560
1037.932411 81.246 33.4878
1045.453698 81.287 33.6181
1053.029486 81.328 33.7419
1060.660172 81.370 33.8531
1068.346153 81.410 33.9463
1076.087829 81.450 34.0202
1083.885605 81.488 34.0768
1091.739887 81.525 34.1199
1099.651084 81.562 34.1555
1107.619609 81.600 34.1911
1115.645878 81.639 34.2331
1123.730308 81.679 34.2851
1131.873321 81.721 34.3471
1140.075341 81.766 34.4138
1148.336797 81.810 34.4756
1156.658119 81.854 34.5210
1165.039741 81.896 34.5403
1173.482099 81.936 34.5279
1181.985634 81.975 34.4832
1190.550789 82.011 34.4092
1199.178011 82.044 34.3089
1207.867749 82.075 34.1839
1216.620457 82.104 34.0368
1225.436590 82.130 33.8730
1234.316609 82.153 33.6998
1243.260976 82.175 33.5247
1252.270157 82.195 33.3549
1261.344623 82.214 33.1971
1270.484846 82.232 33.0564
1279.691303 82.250 32.9348
1288.964474 82.267 32.8303
1298.304842 82.283 32.7373
1307.712894 82.298 32.6480
1317.189120 82.309 32.5547
1326.734016 82.318 32.4503
1336.348077 82.323 32.3311
1346.031806 82.324 32.1987
1355.785708 82.321 32.0594
1365.610290 82.315 31.9219
1375.506065 82.307 31.7946
1385.473549 82.297 31.6857
1395.513261 82.285 31.6024
1405.625726 82.272 31.5483
1415.811469 82.257 31.5216
1426.071023 82.239 31.5164
1436.404921 82.218 31.5241
1446.813703 82.194 31.5362
1457.297912 82.168 31.5468
1467.858093 82.139 31.5534
1478.494798 82.109 31.5570
1489.208581 82.078 31.5613
1500.000000 82.046 31.5717
1510.869618 82.012 31.5954
1521.818002 81.977 31.6404
1532.845723 81.939 31.7168
1543.953355 81.900 31.8347
1555.141477 81.859 32.0037
1566.410674 81.818 32.2312
1577.761531 81.778 32.5222
1589.194642 81.738 32.8778
1600.710601 81.699 33.2952
1612.310010 81.661 33.7685
1623.993473 81.624 34.2915
1635.761599 81.588 34.8590
1647.615002 81.553 35.4688
1659.554299 81.521 36.1231
1671.580114 81.492 36.8300
1683.693072 81.470 37.6017
1695.893807 81.455 38.4502
1708.182952 81.454 39.3835
1720.561150 81.468 40.4026
1733.029045 81.502 41.4982
1745.587288 81.558 42.6472
1758.236533 81.636 43.8136
1770.977440 81.737 44.9512
1783.810673 81.859 46.0120
1796.736900 82.000 46.9553
1809.756796 82.156 47.7537
1822.871040 82.322 48.3968
1836.080315 82.495 48.8914
1849.385310 82.671 49.2592
1862.786718 82.846 49.5286
1876.285239 83.020 49.7263
1889.881575 83.190 49.8712
1903.576436 83.358 49.9718
1917.370535 83.523 50.0263
1931.264593 83.684 50.0247
1945.259332 83.842 49.9536
1959.355483 83.996 49.8008
1973.553781 84.147 49.5600
1987.854965 84.294 49.2349
2002.259781 84.437 48.8391
2016.768981 84.574 48.3916
2031.383320 84.705 47.9092
2046.103561 84.831 47.4019
2060.930471 84.951 46.8749
2075.864823 85.063 46.3319
2090.907395 85.168 45.7751
2106.058972 85.262 45.2020
2121.320344 85.346 44.6053
2136.692305 85.420 43.9778
2152.175658 85.485 43.3190
2167.771210 85.543 42.6383
2183.479774 85.597 41.9544
2199.302169 85.646 41.2895
2215.239219 85.693 40.6607
2231.291755 85.737 40.0753
2247.460615 85.779 39.5297
2263.746641 85.818 39.0105
2280.150683 85.854 38.4972
2296.673595 85.885 37.9681
2313.316238 85.910 37.4082
2330.079481 85.931 36.8124
2346.964198 85.947 36.1843
2363.971268 85.959 35.5325
2381.101578 85.968 34.8687
2398.356022 85.975 34.2033
2415.735498 85.980 33.5436
2433.240913 85.983 32.8947
2450.873180 85.984 32.2623
2468.633217 85.984 31.6558
2486.521951 85.983 31.0874
2504.540314 85.982 30.5687
2522.689246 85.981 30.1061
2540.969692 85.982 29.6974
2559.382606 85.982 29.3320
2577.928947 85.984 28.9929
2596.609683 85.983 28.6586
2615.425787 85.981 28.3081
2634.378241 85.974 27.9272
2653.468031 85.963 27.5115
2672.696154 85.949 27.0671
2692.063613 85.932 26.6096
2711.571415 85.914 26.1620
2731.220579 85.897 25.7479
2751.012130 85.881 25.3838
2770.947098 85.867 25.0724
2791.026522 85.856 24.8023
2811.251451 85.848 24.5508
2831.622938 85.842 24.2897
2852.142045 85.837 23.9927
2872.809842 85.834 23.6393
2893.627406 85.829 23.2191
2914.595823 85.823 22.7328
2935.716186 85.814 22.1904
2956.989596 85.802 21.6066
2978.417161 85.786 20.9951
3000.000000 85.766 20.3662
3021.739237 85.742 19.7285
3043.636005 85.714 19.0925
3065.691446 85.681 18.4752
3087.906710 85.645 17.8972
3110.282955 85.606 17.3767
3132.821347 85.566 16.9259
3155.523062 85.525 16.5476
3178.389283 85.484 16.2325
3201.421202 85.441 15.9596
3224.620020 85.397 15.7019
3247.986946 85.349 15.4357
3271.523198 85.299 15.1442
3295.230004 85.245 14.8213
3319.108599 85.190 14.4727
3343.160228 85.134 14.1164
3367.386145 85.078 13.7771
3391.787613 85.025 13.4773
3416.365904 84.974 13.2296
3441.122300 84.926 13.0336
3466.058091 84.880 12.8757
3491.174576 84.835 12.7321
3516.473066 84.789 12.5742
3541.954880 84.741 12.3762
3567.621345 84.690 12.1200
3593.473800 84.636 11.7979
3619.513592 84.579 11.4135
3645.742080 84.519 10.9799
3672.160630 84.458 10.5149
3698.770620 84.394 10.0357
3725.573436 84.329 9.5570
3752.570477 84.261 9.0911
3779.763150 84.193 8.6497
3807.152872 84.124 8.2487
3834.741071 84.054 7.9082
3862.529185 83.984 7.6470
3890.518664 83.915 7.4722
3918.710966 83.844 7.3753
3947.107561 83.773 7.3341
3975.709929 83.700 7.3186
4004.519563 83.625 7.2972
4033.537962 83.547 7.2422
4062.766641 83.467 7.1373
4092.207123 83.384 6.9849
4121.860942 83.301 6.8070
4151.729646 83.218 6.6405
4181.814790 83.136 6.5244
4212.117944 83.055 6.4879
4242.640687 82.975 6.5424
4273.384610 82.897 6.6791
4304.351317 82.818 6.8730
4335.542421 82.739 7.0906
4366.959549 82.659 7.2991
4398.604338 82.577 7.4753
4430.478438 82.493 7.6103
4462.583511 82.408 7.7123
4494.921231 82.323 7.8062
4527.493283 82.241 7.9269
4560.301365 82.161 8.1107
4593.347189 82.087 8.3846
4626.632476 82.018 8.7587
4660.158962 81.955 9.2236
4693.928395 81.896 9.7525
4727.942535 81.841 10.3080
4762.203156 81.791 10.8517
4796.712043 81.744 11.3542
4831.470996 81.701 11.8036
4866.481826 81.666 12.2075
4901.746360 81.638 12.5916
4937.266434 81.620 12.9911
4973.043902 81.613 13.4404
5009.080628 81.619 13.9595
5045.378492 81.637 14.5472
5081.939384 81.669 15.1797
5118.765212 81.713 15.8118
5155.857894 81.770 16.3864
5193.219366 81.838 16.8461
5230.851574 81.915 17.1464
5268.756481 82.003 17.2630
5306.936062 82.099 17.1897
5345.392309 82.204 16.9324
5384.127225 82.314 16.5015
5423.142830 82.429 15.9081
5462.441159 82.543 15.1642
5502.024259 82.656 14.2833
5541.894195 82.762 13.2826
5582.053045 82.858 12.1846
5622.502902 82.943 11.0186
5663.245876 83.012 9.8175
5704.284090 83.065 8.6073
5745.619684 83.099 7.3990
5787.254813 83.112 6.1855
5829.191647 83.100 4.9444
5871.432373 83.060 3.6484
5913.979192 82.992 2.2781
5956.834323 82.894 0.8327
6000.000000 82.768 -0.6648
6043.478473 82.614 -2.1671
6087.272010 82.435 -3.6096
6131.382892 82.234 -4.9211
6175.813420 82.012 -6.0374
6220.565910 81.773 -6.9123
6265.642695 81.520 -7.5258
6311.046124 81.259 -7.8876
6356.778566 80.994 -8.0370
6402.842404 80.732 -8.0416
6449.240040 80.477 -7.9930
6495.973891 80.230 -7.9847
6543.046396 79.985 -8.0696
6590.460007 79.735 -8.2287
6638.217197 79.475 -8.3882
6686.320456 79.203 -8.4623
6734.772290 78.925 -8.3812
6783.575226 78.646 -8.0958
6832.731809 78.371 -7.5719
6882.244600 78.106 -6.7786
6932.116181 77.858 -5.6809
6982.349153 77.633 -4.2408
7032.946133 77.442 -2.4325
7083.909760 77.293 -0.2696
7135.242690 77.195 2.1741
7186.947600 77.154 4.7697
7239.027185 77.169 7.3716
7291.484160 77.237 9.8689
7344.321260 77.354 12.2050
7397.541239 77.523 14.3582
7451.146872 77.751 16.3162
7505.140954 78.044 18.0619
7559.526299 78.403 19.5667
7614.305743 78.826 20.7838
7669.482141 79.302 21.6437
7725.058371 79.818 22.0533
7781.037328 80.355 21.9080
7837.421932 80.891 21.1107
7894.215122 81.403 19.5931
7951.419859 81.867 17.3315
8009.039125 82.261 14.3605
8067.075924 82.567 10.7798
8125.533282 82.771 6.7505
8184.414245 82.866 2.4772
8243.721885 82.850 -1.8167
8303.459292 82.727 -5.9160
8363.629581 82.511 -9.6410
8424.235888 82.217 -12.8689
8485.281374 81.864 -15.5458
8546.769221 81.474 -17.6837
8608.702634 81.064 -19.3477
8671.084842 80.653 -20.6346
8733.919097 80.254 -21.6477
8797.208675 79.878 -22.4715
8860.956876 79.533 -23.1568
8925.167022 79.223 -23.7197
8989.842461 78.949 -24.1528
9054.986566 78.711 -24.4434
9120.602731 78.508 -24.5945
9186.694378 78.335 -24.6404
9253.264952 78.190 -24.6479
9320.317925 78.067 -24.7065
9387.856790 77.962 -24.9151
9455.885071 77.871 -25.3648
9524.406312 77.790 -26.1202
9593.424086 77.717 -27.2028
9662.941992 77.647 -28.5889
9732.963653 77.576 -30.2218
9803.492719 77.499 -32.0295
9874.532869 77.409 -33.9443
9946.087805 77.299 -35.9211
10018.161257 77.163 -37.9479
10090.756983 76.991 -40.0443
10163.878768 76.779 -42.2475
10237.530423 76.519 -44.5959
10311.715789 76.207 -47.1151
10386.438732 75.841 -49.8038
10461.703149 75.418 -52.6257
10537.512962 74.941 -55.5135
10613.872125 74.412 -58.3853
10690.784618 73.835 -61.1600
10768.254450 73.213 -63.7664
10846.285661 72.552 -66.1439
10924.882318 71.856 -68.2402
11004.048518 71.133 -70.0037
11083.788390 70.387 -71.3776
11164.106090 69.624 -72.3012
11245.005805 68.850 -72.7210
11326.491752 68.070 -72.6088
11408.568180 67.290 -71.9804
11491.239368 66.511 -70.8986
11574.509626 65.737 -69.4611
11658.383294 64.969 -67.7802
11742.864745 64.208 -65.9572
11827.958384 63.457 -64.0551
11913.668646 62.717 -62.0830
12000.000000 61.990 -59.9988
12086.956947 61.277 -57.7251
12174.544019 60.579 -55.1689
12262.765784 59.897 -52.2468
12351.626840 59.233 -48.9103
12441.131819 58.587 -45.1625
12531.285389 57.960 -41.0538
12622.092249 57.352 -36.6674
12713.557132 56.764 -32.0967
12805.684808 56.197 -27.4149
12898.480079 55.652 -22.6407
12991.947783 55.133 -17.7195
13086.092792 54.648 -12.5260
13180.920015 54.205 -6.8828
13276.434395 53.820 -0.5906
13372.640911 53.514 6.5288
13469.544580 53.314 14.5707
13567.150452 53.253 23.4836
13665.463617 53.363 33.0274
13764.489200 53.672 42.7820
13864.232362 54.192 52.2207
13964.698305 54.920 60.8363
14065.892266 55.831 68.2560
14167.819519 56.883 74.2792
14270.485380 58.031 78.8461
14373.895200 59.224 81.9845
14478.054370 60.417 83.7651
14582.968320 61.568 84.2703
14688.642520 62.640 83.5806
14795.082478 63.601 81.7831
14902.293745 64.426 78.9889
15010.281908 65.096 75.3468
15119.052599 65.601 71.0482
15228.611486 65.947 66.3225
15338.964283 66.151 61.4192
15450.116741 66.241 56.5715
15562.074656 66.254 51.9541
15674.843864 66.228 47.6547
15788.430244 66.197 43.6702
15902.839718 66.187 39.9257
16018.078250 66.214 36.3037
16134.151848 66.280 32.6793
16251.066563 66.375 28.9533
16368.828491 66.478 25.0726
16487.443769 66.561 21.0254
16606.918584 66.591 16.8221
16727.259161 66.538 12.4847
16848.471777 66.372 8.0543
16970.562748 66.074 3.6033
17093.538442 65.635 -0.7697
17217.405268 65.058 -4.9555
17342.169684 64.356 -8.8413
17467.838194 63.552 -12.3010
17594.417350 62.672 -15.1948
17721.913751 61.745 -17.3839
17850.334044 60.801 -18.7498
17979.684923 59.868 -19.2180
18109.973131 58.970 -18.7920
18241.205462 58.126 -17.5834
18373.388756 57.348 -15.8105
18506.529905 56.642 -13.7621
18640.635849 56.008 -11.7444
18775.713581 55.441 -10.0273
18911.770141 54.929 -8.7997
19048.812624 54.460 -8.1506
19186.848172 54.020 -8.0830
19325.883983 53.597 -8.5393
19465.927305 53.187 -9.4186
19606.985439 52.796 -10.5790
19749.065738 52.444 -11.8265
19892.175609 52.170 -12.9078
20036.322514 52.017 -13.5466
