* Measurement data measured by REW V5.31.3
* Source: Headset (CX31993 HIFI AUDIO), MICROPHONE (Master Volume), R, volume: 0.250
* Format: 256k Log Swept Sine, 1 sweep at -12.0 dBFS with no timing reference
* Dated: 12 31, 24 12:54:32 PM
* REW Settings:
*  C-weighting compensation: Off
*  Target level: 75.0 dB
* Note: ; 
* Measurement: Sony LB Fit Bright L
* Smoothing: 1/12 octave
* Frequency Step: 96 ppo
* Start Frequency: 0.36621094 Hz
*
* Freq(Hz) SPL(dB) Phase(degrees)
0.366211 39.433 -114.1411
0.368865 39.453 -114.1832
0.371538 39.482 -114.2457
0.374230 39.517 -114.3231
0.376942 39.558 -114.4108
0.379673 39.601 -114.5051
0.382424 39.646 -114.6040
0.385196 39.693 -114.7060
0.387987 39.740 -114.8103
0.390798 39.787 -114.9165
0.393630 39.835 -115.0243
0.396483 39.884 -115.1335
0.399356 39.933 -115.2441
0.402250 39.982 -115.3561
0.405165 40.031 -115.4693
0.408101 40.081 -115.5839
0.411058 40.132 -115.6998
0.414037 40.182 -115.8169
0.417037 40.233 -115.9353
0.420059 40.285 -116.0549
0.423103 40.337 -116.1758
0.426169 40.389 -116.2979
0.429257 40.441 -116.4212
0.432368 40.494 -116.5456
0.435501 40.548 -116.6713
0.438656 40.601 -116.7981
0.441835 40.655 -116.9261
0.445037 40.710 -117.0553
0.448262 40.765 -117.1855
0.451510 40.820 -117.3169
0.454782 40.876 -117.4494
0.458077 40.932 -117.5829
0.461397 40.988 -117.7176
0.464740 41.045 -117.8533
0.468108 41.102 -117.9901
0.471500 41.160 -118.1279
0.474917 41.218 -118.2667
0.478358 41.277 -118.4066
0.481825 41.336 -118.5475
0.485316 41.395 -118.6894
0.488833 41.455 -118.8323
0.492375 41.515 -118.9762
0.495943 41.576 -119.1210
0.499537 41.637 -119.2669
0.503157 41.699 -119.4137
0.506803 41.761 -119.5614
0.510475 41.823 -119.7102
0.514175 41.886 -119.8598
0.517900 41.950 -120.0105
0.521653 42.014 -120.1621
0.525434 42.078 -120.3146
0.529241 42.143 -120.4681
0.533076 42.208 -120.6226
0.536939 42.274 -120.7780
0.540830 42.340 -120.9343
0.544749 42.407 -121.0917
0.548696 42.474 -121.2500
0.552673 42.541 -121.4093
0.556677 42.610 -121.5695
0.560711 42.678 -121.7308
0.564774 42.747 -121.8931
0.568867 42.817 -122.0564
0.572989 42.887 -122.2207
0.577141 42.958 -122.3861
0.581324 43.029 -122.5525
0.585536 43.101 -122.7200
0.589779 43.173 -122.8887
0.594053 43.246 -123.0585
0.598358 43.319 -123.2294
0.602694 43.393 -123.4015
0.607061 43.467 -123.5748
0.611460 43.542 -123.7494
0.615891 43.617 -123.9252
0.620354 43.693 -124.1023
0.624849 43.770 -124.2807
0.629377 43.847 -124.4606
0.633938 43.925 -124.6418
0.638532 44.003 -124.8245
0.643159 44.082 -125.0087
0.647819 44.161 -125.1944
0.652514 44.241 -125.3817
0.657242 44.321 -125.5706
0.662005 44.402 -125.7613
0.666802 44.484 -125.9537
0.671634 44.566 -126.1479
0.676501 44.649 -126.3440
0.681403 44.733 -126.5420
0.686341 44.817 -126.7420
0.691314 44.901 -126.9441
0.696324 44.986 -127.1484
0.701370 45.072 -127.3548
0.706452 45.157 -127.5635
0.711571 45.243 -127.7745
0.716728 45.329 -127.9880
0.721921 45.413 -128.2038
0.727153 45.497 -128.4220
0.732422 45.578 -128.6425
0.737729 45.656 -128.8652
0.743075 45.733 -129.0900
0.748460 45.808 -129.3167
0.753883 45.881 -129.5452
0.759346 45.953 -129.7754
0.764849 46.025 -130.0073
0.770391 46.096 -130.2408
0.775974 46.167 -130.4757
0.781597 46.237 -130.7121
0.787261 46.308 -130.9499
0.792966 46.377 -131.1891
0.798712 46.447 -131.4295
0.804500 46.516 -131.6711
0.810329 46.586 -131.9140
0.816201 46.654 -132.1580
0.822116 46.723 -132.4032
0.828073 46.791 -132.6494
0.834074 46.860 -132.8966
0.840118 46.928 -133.1449
0.846206 46.995 -133.3941
0.852338 47.063 -133.6442
0.858514 47.130 -133.8952
0.864735 47.198 -134.1472
0.871001 47.265 -134.3999
0.877313 47.332 -134.6535
0.883670 47.398 -134.9079
0.890074 47.465 -135.1631
0.896524 47.532 -135.4191
0.903020 47.598 -135.6758
0.909564 47.664 -135.9332
0.916155 47.731 -136.1914
0.922794 47.797 -136.4503
0.929481 47.863 -136.7100
0.936216 47.929 -136.9704
0.943000 47.996 -137.2314
0.949834 48.062 -137.4933
0.956717 48.128 -137.7558
0.963649 48.195 -138.0191
0.970632 48.261 -138.2832
0.977666 48.328 -138.5480
0.984750 48.395 -138.8136
0.991886 48.462 -139.0801
0.999074 48.529 -139.3474
1.006314 48.596 -139.6155
1.013606 48.664 -139.8846
1.020951 48.732 -140.1546
1.028349 48.801 -140.4256
1.035801 48.870 -140.6976
1.043307 48.939 -140.9706
1.050867 49.009 -141.2449
1.058482 49.079 -141.5202
1.066152 49.150 -141.7969
1.073878 49.221 -142.0750
1.081660 49.293 -142.3546
1.089498 49.365 -142.6358
1.097393 49.438 -142.9189
1.105345 49.511 -143.2040
1.113355 49.584 -143.4913
1.121423 49.657 -143.7810
1.129549 49.731 -144.0731
1.137734 49.804 -144.3677
1.145979 49.877 -144.6646
1.154283 49.950 -144.9639
1.162647 50.024 -145.2656
1.171072 50.097 -145.5694
1.179558 50.170 -145.8754
1.188106 50.242 -146.1834
1.196715 50.315 -146.4933
1.205387 50.388 -146.8051
1.214122 50.461 -147.1186
1.222920 50.534 -147.4337
1.231782 50.607 -147.7502
1.240708 50.680 -148.0682
1.249699 50.753 -148.3874
1.258754 50.826 -148.7077
1.267876 50.899 -149.0290
1.277063 50.972 -149.3512
1.286318 51.046 -149.6741
1.295639 51.119 -149.9976
1.305027 51.193 -150.3215
1.314484 51.267 -150.6457
1.324009 51.341 -150.9700
1.333604 51.415 -151.2943
1.343268 51.490 -151.6184
1.353002 51.565 -151.9421
1.362806 51.640 -152.2653
1.372681 51.715 -152.5879
1.382628 51.791 -152.9096
1.392647 51.868 -153.2302
1.402739 51.944 -153.5497
1.412904 52.021 -153.8677
1.423142 52.099 -154.1843
1.433455 52.177 -154.4991
1.443843 52.256 -154.8122
1.454305 52.335 -155.1235
1.464844 52.414 -155.4328
1.475459 52.494 -155.7404
1.486150 52.574 -156.0463
1.496920 52.654 -156.3507
1.507767 52.734 -156.6536
1.518693 52.815 -156.9553
1.529698 52.896 -157.2558
1.540783 52.976 -157.5555
1.551948 53.057 -157.8543
1.563194 53.139 -158.1525
1.574521 53.220 -158.4501
1.585931 53.302 -158.7474
1.597423 53.383 -159.0444
1.608999 53.465 -159.3414
1.620658 53.548 -159.6384
1.632402 53.630 -159.9356
1.644232 53.713 -160.2330
1.656146 53.797 -160.5309
1.668147 53.880 -160.8294
1.680235 53.964 -161.1285
1.692411 54.049 -161.4284
1.704675 54.133 -161.7292
1.717028 54.219 -162.0311
1.729470 54.304 -162.3340
1.742003 54.391 -162.6382
1.754626 54.478 -162.9437
1.767341 54.565 -163.2505
1.780147 54.653 -163.5587
1.793047 54.742 -163.8681
1.806040 54.831 -164.1788
1.819128 54.921 -164.4903
1.832310 55.011 -164.8025
1.845587 55.102 -165.1148
1.858961 55.194 -165.4270
1.872432 55.286 -165.7387
1.886001 55.378 -166.0499
1.899667 55.471 -166.3607
1.913433 55.564 -166.6710
1.927299 55.658 -166.9810
1.941265 55.752 -167.2909
1.955332 55.847 -167.6009
1.969501 55.942 -167.9113
1.983773 56.038 -168.2222
1.998148 56.134 -168.5338
2.012627 56.231 -168.8463
2.027212 56.329 -169.1600
2.041902 56.426 -169.4751
2.056698 56.525 -169.7917
2.071602 56.624 -170.1101
2.086614 56.724 -170.4304
2.101734 56.824 -170.7528
2.116964 56.925 -171.0773
2.132304 57.027 -171.4041
2.147756 57.129 -171.7332
2.163320 57.232 -172.0643
2.178996 57.336 -172.3971
2.194786 57.441 -172.7311
2.210690 57.546 -173.0659
2.226710 57.652 -173.4006
2.242845 57.759 -173.7350
2.259098 57.866 -174.0690
2.275468 57.974 -174.4024
2.291957 58.083 -174.7357
2.308566 58.192 -175.0691
2.325295 58.303 -175.4030
2.342145 58.413 -175.7379
2.359117 58.525 -176.0742
2.376212 58.637 -176.4125
2.393431 58.750 -176.7531
2.410775 58.863 -177.0966
2.428244 58.977 -177.4434
2.445840 59.091 -177.7939
2.463564 59.207 -178.1486
2.481416 59.322 -178.5077
2.499397 59.438 -178.8715
2.517509 59.555 -179.2400
2.535752 59.673 -179.6130
2.554127 59.791 -179.9902
2.572635 59.909 179.6293
2.591277 60.028 179.2461
2.610055 60.148 178.8609
2.628968 60.269 178.4741
2.648019 60.390 178.0857
2.667208 60.512 177.6957
2.686535 60.634 177.3037
2.706003 60.757 176.9094
2.725612 60.881 176.5121
2.745363 61.004 176.1115
2.765257 61.129 175.7069
2.785295 61.254 175.2979
2.805478 61.379 174.8839
2.825808 61.504 174.4644
2.846285 61.630 174.0389
2.866910 61.756 173.6072
2.887685 61.882 173.1691
2.908611 62.009 172.7246
2.929688 62.136 172.2741
2.950917 62.263 171.8182
2.972301 62.390 171.3574
2.993839 62.517 170.8923
3.015534 62.645 170.4232
3.037386 62.773 169.9503
3.059396 62.901 169.4737
3.081565 63.030 168.9932
3.103896 63.159 168.5087
3.126388 63.287 168.0201
3.149043 63.416 167.5270
3.171862 63.545 167.0292
3.194847 63.673 166.5265
3.217998 63.802 166.0185
3.241317 63.930 165.5049
3.264805 64.058 164.9857
3.288463 64.186 164.4607
3.312293 64.313 163.9301
3.336295 64.441 163.3940
3.360471 64.568 162.8527
3.384822 64.695 162.3067
3.409350 64.822 161.7562
3.434056 64.948 161.2017
3.458940 65.074 160.6433
3.484005 65.200 160.0813
3.509252 65.325 159.5159
3.534681 65.450 158.9471
3.560295 65.574 158.3750
3.586094 65.698 157.7994
3.612081 65.822 157.2201
3.638255 65.944 156.6369
3.664620 66.066 156.0493
3.691175 66.187 155.4572
3.717923 66.308 154.8603
3.744864 66.428 154.2589
3.772001 66.547 153.6534
3.799335 66.666 153.0444
3.826866 66.784 152.4326
3.854597 66.901 151.8187
3.882529 67.017 151.2033
3.910664 67.132 150.5870
3.939002 67.247 149.9701
3.967546 67.360 149.3528
3.996296 67.473 148.7350
4.025255 67.585 148.1162
4.054423 67.696 147.4960
4.083804 67.806 146.8738
4.113396 67.915 146.2496
4.143204 68.023 145.6236
4.173227 68.130 144.9965
4.203468 68.235 144.3691
4.233928 68.340 143.7422
4.264609 68.444 143.1167
4.295512 68.547 142.4933
4.326639 68.649 141.8726
4.357992 68.750 141.2546
4.389572 68.850 140.6391
4.421380 68.949 140.0256
4.453419 69.047 139.4136
4.485691 69.143 138.8029
4.518196 69.239 138.1937
4.550936 69.333 137.5864
4.583914 69.427 136.9818
4.617131 69.520 136.3807
4.650589 69.611 135.7841
4.684289 69.702 135.1926
4.718233 69.792 134.6065
4.752424 69.882 134.0261
4.786862 69.970 133.4508
4.821549 70.057 132.8805
4.856488 70.144 132.3147
4.891680 70.230 131.7535
4.927127 70.315 131.1971
4.962831 70.399 130.6458
4.998794 70.482 130.1002
5.035017 70.565 129.5608
5.071503 70.648 129.0280
5.108253 70.730 128.5021
5.145270 70.811 127.9829
5.182555 70.893 127.4704
5.220110 70.973 126.9641
5.257937 71.053 126.4639
5.296038 71.133 125.9696
5.334415 71.213 125.4811
5.373071 71.292 124.9984
5.412006 71.371 124.5217
5.451224 71.450 124.0508
5.490725 71.529 123.5859
5.530514 71.608 123.1268
5.570590 71.687 122.6734
5.610957 71.766 122.2255
5.651616 71.844 121.7826
5.692570 71.923 121.3443
5.733821 72.002 120.9103
5.775370 72.081 120.4802
5.817221 72.160 120.0537
5.859375 72.239 119.6307
5.901834 72.318 119.2110
5.944602 72.397 118.7945
5.987679 72.476 118.3810
6.031068 72.556 117.9702
6.074771 72.635 117.5616
6.118792 72.715 117.1548
6.163131 72.794 116.7496
6.207792 72.873 116.3455
6.252776 72.952 115.9423
6.298086 73.031 115.5401
6.343725 73.110 115.1387
6.389694 73.189 114.7382
6.435996 73.268 114.3383
6.482634 73.346 113.9391
6.529610 73.424 113.5403
6.576926 73.502 113.1420
6.624585 73.579 112.7440
6.672590 73.656 112.3462
6.720942 73.732 111.9489
6.769645 73.808 111.5521
6.818700 73.884 111.1561
6.868111 73.958 110.7612
6.917881 74.033 110.3675
6.968010 74.106 109.9750
7.018504 74.179 109.5839
7.069362 74.251 109.1941
7.120590 74.323 108.8060
7.172189 74.394 108.4196
7.224161 74.465 108.0355
7.276511 74.535 107.6537
7.329239 74.604 107.2746
7.382350 74.673 106.8980
7.435845 74.741 106.5241
7.489729 74.809 106.1528
7.544002 74.877 105.7841
7.598669 74.944 105.4180
7.653732 75.010 105.0547
7.709194 75.077 104.6940
7.765058 75.143 104.3358
7.821327 75.209 103.9800
7.878004 75.275 103.6263
7.935091 75.340 103.2743
7.992592 75.406 102.9238
8.050510 75.471 102.5744
8.108847 75.536 102.2260
8.167607 75.601 101.8781
8.226793 75.666 101.5306
8.286408 75.731 101.1829
8.346454 75.796 100.8347
8.406936 75.861 100.4854
8.467856 75.925 100.1350
8.529218 75.990 99.7831
8.591024 76.054 99.4295
8.653278 76.118 99.0741
8.715983 76.181 98.7166
8.779143 76.244 98.3570
8.842760 76.307 97.9951
8.906839 76.370 97.6309
8.971381 76.432 97.2646
9.036392 76.493 96.8963
9.101873 76.554 96.5262
9.167829 76.614 96.1544
9.234263 76.674 95.7813
9.301178 76.733 95.4069
9.368578 76.791 95.0316
9.436467 76.849 94.6556
9.504847 76.906 94.2793
9.573723 76.963 93.9030
9.643099 77.020 93.5267
9.712976 77.076 93.1505
9.783361 77.132 92.7746
9.854255 77.188 92.3990
9.925663 77.243 92.0236
9.997588 77.298 91.6485
10.070035 77.354 91.2732
10.143007 77.409 90.8976
10.216507 77.465 90.5211
10.290540 77.521 90.1435
10.365109 77.577 89.7643
10.440219 77.634 89.3830
10.515873 77.691 88.9991
10.592076 77.748 88.6118
10.668830 77.805 88.2207
10.746141 77.863 87.8254
10.824012 77.921 87.4253
10.902447 77.979 87.0200
10.981451 78.038 86.6091
11.061027 78.096 86.1923
11.141180 78.155 85.7693
11.221913 78.214 85.3400
11.303232 78.272 84.9043
11.385140 78.331 84.4622
11.467641 78.389 84.0135
11.550741 78.447 83.5586
11.634442 78.504 83.0974
11.718750 78.562 82.6299
11.803669 78.618 82.1566
11.889203 78.674 81.6773
11.975357 78.730 81.1925
12.062136 78.785 80.7023
12.149543 78.838 80.2070
12.237583 78.891 79.7072
12.326262 78.943 79.2032
12.415583 78.994 78.6959
12.505552 79.043 78.1860
12.596172 79.091 77.6747
12.687449 79.137 77.1634
12.779387 79.181 76.6540
12.871992 79.224 76.1483
12.965268 79.264 75.6487
13.059220 79.302 75.1580
13.153852 79.338 74.6790
13.249170 79.373 74.2150
13.345179 79.405 73.7689
13.441884 79.436 73.3439
13.539289 79.467 72.9430
13.637401 79.497 72.5685
13.736223 79.527 72.2220
13.835761 79.559 71.9043
13.936021 79.593 71.6150
14.037007 79.630 71.3526
14.138725 79.672 71.1136
14.241180 79.718 70.8931
14.344377 79.769 70.6850
14.448323 79.827 70.4819
14.553021 79.891 70.2751
14.658478 79.961 70.0552
14.764700 80.037 69.8133
14.871691 80.117 69.5409
14.979457 80.200 69.2304
15.088005 80.285 68.8762
15.197339 80.370 68.4749
15.307465 80.453 68.0258
15.418389 80.532 67.5310
15.530117 80.605 66.9955
15.642655 80.670 66.4273
15.756008 80.726 65.8373
15.870182 80.771 65.2383
15.985184 80.805 64.6452
16.101019 80.828 64.0746
16.217694 80.840 63.5431
16.335214 80.843 63.0667
16.453586 80.838 62.6605
16.572815 80.828 62.3366
16.692909 80.817 62.1026
16.813872 80.809 61.9611
16.935713 80.806 61.9084
17.058436 80.813 61.9333
17.182048 80.833 62.0175
17.306556 80.869 62.1368
17.431967 80.922 62.2625
17.558286 80.991 62.3632
17.685521 81.076 62.4088
17.813677 81.173 62.3729
17.942762 81.278 62.2351
18.072783 81.387 61.9826
18.203746 81.495 61.6114
18.335658 81.596 61.1256
18.468526 81.687 60.5372
18.602356 81.764 59.8647
18.737156 81.824 59.1315
18.872934 81.865 58.3642
19.009695 81.888 57.5912
19.147447 81.893 56.8408
19.286197 81.881 56.1390
19.425953 81.856 55.5080
19.566721 81.822 54.9647
19.708510 81.783 54.5182
19.851326 81.745 54.1698
19.995177 81.710 53.9117
20.140070 81.685 53.7277
20.286013 81.670 53.5949
20.433014 81.669 53.4866
20.581080 81.680 53.3748
20.730219 81.703 53.2345
20.880439 81.734 53.0461
21.031747 81.770 52.7977
21.184152 81.807 52.4858
21.337661 81.842 52.1147
21.492282 81.873 51.6955
21.648024 81.896 51.2441
21.804895 81.913 50.7783
21.962902 81.922 50.3162
22.122054 81.926 49.8730
22.282360 81.926 49.4601
22.443827 81.926 49.0830
22.606464 81.926 48.7415
22.770280 81.931 48.4303
22.935283 81.940 48.1396
23.101481 81.954 47.8577
23.268884 81.974 47.5729
23.437500 81.998 47.2754
23.607338 82.025 46.9590
23.778406 82.053 46.6218
23.950714 82.080 46.2663
24.124271 82.106 45.8982
24.299086 82.129 45.5252
24.475167 82.150 45.1554
24.652524 82.169 44.7957
24.831166 82.187 44.4508
25.011103 82.204 44.1222
25.192344 82.222 43.8087
25.374898 82.242 43.5068
25.558775 82.262 43.2119
25.743984 82.284 42.9198
25.930536 82.306 42.6274
26.118439 82.328 42.3340
26.307704 82.348 42.0411
26.498341 82.367 41.7520
26.690359 82.385 41.4709
26.883768 82.401 41.2015
27.078579 82.417 40.9460
27.274801 82.433 40.7037
27.472446 82.451 40.4713
27.671522 82.471 40.2428
27.872042 82.493 40.0107
28.074014 82.517 39.7674
28.277450 82.542 39.5065
28.482360 82.567 39.2246
28.688755 82.591 38.9212
28.896645 82.612 38.5992
29.106042 82.630 38.2639
29.316957 82.644 37.9219
29.529400 82.656 37.5796
29.743382 82.665 37.2419
29.958915 82.672 36.9117
30.176009 82.679 36.5889
30.394677 82.686 36.2719
30.614929 82.694 35.9573
30.836778 82.702 35.6424
31.060234 82.710 35.3251
31.285309 82.718 35.0051
31.512015 82.725 34.6840
31.740364 82.732 34.3644
31.970368 82.738 34.0498
32.202039 82.744 33.7428
32.435388 82.750 33.4450
32.670428 82.758 33.1563
32.907171 82.766 32.8753
33.145630 82.776 32.5996
33.385817 82.787 32.3266
33.627745 82.799 32.0543
33.871425 82.811 31.7817
34.116871 82.824 31.5088
34.364096 82.836 31.2361
34.613113 82.848 30.9647
34.863934 82.859 30.6955
35.116572 82.870 30.4293
35.371041 82.880 30.1664
35.627354 82.889 29.9071
35.885525 82.898 29.6520
36.145566 82.905 29.4014
36.407492 82.911 29.1555
36.671316 82.917 28.9143
36.937051 82.923 28.6773
37.204712 82.928 28.4431
37.474313 82.933 28.2103
37.745867 82.937 27.9774
38.019389 82.942 27.7433
38.294893 82.946 27.5075
38.572394 82.950 27.2698
38.851905 82.954 27.0304
39.133442 82.958 26.7891
39.417019 82.963 26.5455
39.702651 82.967 26.2991
39.990353 82.972 26.0493
40.280140 82.976 25.7964
40.572026 82.981 25.5414
40.866028 82.986 25.2859
41.162160 82.990 25.0312
41.460438 82.995 24.7786
41.760877 82.999 24.5282
42.063494 83.004 24.2800
42.368303 83.009 24.0347
42.675322 83.013 23.7936
42.984565 83.016 23.5594
43.296048 83.019 23.3353
43.609789 83.022 23.1229
43.925804 83.026 22.9218
44.244108 83.030 22.7288
44.564719 83.036 22.5385
44.887654 83.043 22.3452
45.212928 83.050 22.1452
45.540560 83.056 21.9372
45.870565 83.062 21.7222
46.202962 83.066 21.5021
46.537768 83.069 21.2781
46.875000 83.071 21.0497
47.214676 83.072 20.8161
47.556813 83.072 20.5773
47.901429 83.069 20.3353
48.248542 83.065 20.0946
48.598171 83.060 19.8599
48.950334 83.054 19.6344
49.305048 83.048 19.4183
49.662333 83.043 19.2087
50.022206 83.040 19.0013
50.384688 83.038 18.7930
50.749796 83.036 18.5822
51.117550 83.035 18.3696
51.487969 83.033 18.1572
51.861072 83.032 17.9467
52.236879 83.031 17.7390
52.615409 83.029 17.5346
52.996681 83.027 17.3335
53.380717 83.026 17.1355
53.767536 83.024 16.9397
54.157158 83.022 16.7449
54.549603 83.020 16.5497
54.944892 83.017 16.3533
55.343045 83.013 16.1564
55.744084 83.008 15.9609
56.148028 83.002 15.7691
56.554900 82.996 15.5819
56.964720 82.990 15.3986
57.377510 82.983 15.2169
57.793291 82.978 15.0345
58.212085 82.972 14.8506
58.633914 82.966 14.6656
59.058799 82.960 14.4814
59.486764 82.955 14.2993
59.917829 82.950 14.1195
60.352019 82.946 13.9413
60.789354 82.943 13.7634
61.229859 82.940 13.5844
61.673556 82.938 13.4036
62.120468 82.937 13.2208
62.570618 82.936 13.0374
63.024031 82.935 12.8557
63.480729 82.934 12.6788
63.940736 82.933 12.5075
64.404077 82.933 12.3402
64.870776 82.935 12.1741
65.340856 82.937 12.0070
65.814343 82.939 11.8370
66.291261 82.942 11.6595
66.771635 82.945 11.4667
67.255489 82.947 11.2521
67.742850 82.944 11.0187
68.233743 82.934 10.7821
68.728193 82.919 10.5636
69.226226 82.900 10.3774
69.727867 82.881 10.2214
70.233144 82.863 10.0803
70.742083 82.847 9.9370
71.254709 82.831 9.7845
71.771050 82.814 9.6277
72.291132 82.796 9.4763
72.814984 82.777 9.3364
73.342631 82.761 9.2065
73.874102 82.746 9.0798
74.409424 82.734 8.9491
74.948626 82.723 8.8108
75.491734 82.713 8.6659
76.038779 82.702 8.5181
76.589787 82.691 8.3711
77.144788 82.680 8.2268
77.703811 82.668 8.0848
78.266885 82.656 7.9437
78.834039 82.643 7.8018
79.405303 82.628 7.6591
79.980706 82.613 7.5155
80.560280 82.596 7.3705
81.144053 82.579 7.2227
81.732056 82.560 7.0713
82.324320 82.540 6.9175
82.920876 82.520 6.7640
83.521755 82.498 6.6134
84.126988 82.478 6.4662
84.736607 82.457 6.3212
85.350643 82.438 6.1760
85.969129 82.419 6.0289
86.592097 82.400 5.8793
87.219579 82.381 5.7274
87.851608 82.361 5.5745
88.488217 82.340 5.4216
89.129439 82.316 5.2701
89.775308 82.290 5.1218
90.425856 82.262 4.9789
91.081119 82.231 4.8430
91.741131 82.198 4.7144
92.405925 82.162 4.5924
93.075536 82.123 4.4788
93.750000 82.080 4.3780
94.429351 82.034 4.2992
95.113625 81.983 4.2551
95.802858 81.930 4.2614
96.497085 81.876 4.3315
97.196342 81.825 4.4720
97.900667 81.780 4.6760
98.610096 81.744 4.9253
99.324665 81.719 5.1982
100.044413 81.703 5.4734
100.769376 81.697 5.7307
101.499592 81.698 5.9520
102.235100 81.705 6.1261
102.975938 81.714 6.2505
103.722144 81.724 6.3289
104.473757 81.735 6.3669
105.230817 81.744 6.3698
105.993363 81.753 6.3428
106.761435 81.761 6.2911
107.535072 81.767 6.2198
108.314315 81.771 6.1329
109.099206 81.773 6.0359
109.889783 81.772 5.9357
110.686090 81.768 5.8394
111.488167 81.763 5.7516
112.296056 81.755 5.6749
113.109800 81.747 5.6100
113.929440 81.738 5.5531
114.755020 81.730 5.4960
115.586582 81.721 5.4288
116.424170 81.712 5.3444
117.267827 81.700 5.2426
118.117598 81.683 5.1345
118.973527 81.661 5.0417
119.835658 81.634 4.9888
120.704037 81.608 4.9902
121.578708 81.583 5.0422
122.459718 81.564 5.1271
123.347111 81.550 5.2220
124.240935 81.541 5.3015
125.141236 81.533 5.3425
126.048061 81.525 5.3317
126.961458 81.512 5.2723
127.881473 81.494 5.1809
128.808154 81.471 5.0774
129.741551 81.447 4.9794
130.681712 81.425 4.9003
131.628686 81.408 4.8477
132.582521 81.397 4.8192
133.543269 81.393 4.8010
134.510979 81.392 4.7770
135.485701 81.388 4.7427
136.467486 81.375 4.7163
137.456386 81.351 4.7315
138.452451 81.320 4.8080
139.455735 81.286 4.9339
140.466288 81.253 5.0760
141.484165 81.222 5.2026
142.509418 81.193 5.3013
143.542100 81.165 5.3795
144.582265 81.138 5.4502
145.629968 81.113 5.5203
146.685262 81.091 5.5911
147.748204 81.070 5.6631
148.818849 81.052 5.7363
149.897251 81.034 5.8098
150.983469 81.018 5.8824
152.077557 81.002 5.9532
153.179574 80.986 6.0206
154.289576 80.970 6.0836
155.407622 80.953 6.1428
156.533770 80.935 6.2009
157.668078 80.916 6.2635
158.810606 80.896 6.3354
159.961413 80.877 6.4182
161.120559 80.858 6.5106
162.288105 80.839 6.6108
163.464112 80.821 6.7169
164.648640 80.803 6.8271
165.841752 80.785 6.9398
167.043510 80.767 7.0519
168.253976 80.750 7.1591
169.473213 80.732 7.2578
170.701286 80.715 7.3491
171.938258 80.698 7.4380
173.184194 80.680 7.5306
174.439158 80.663 7.6293
175.703216 80.646 7.7331
176.976434 80.630 7.8395
178.258878 80.614 7.9474
179.550615 80.599 8.0571
180.851713 80.582 8.1707
182.162239 80.565 8.2894
183.482262 80.548 8.4143
184.811850 80.531 8.5441
186.151073 80.513 8.6774
187.500000 80.496 8.8132
188.858702 80.479 8.9508
190.227250 80.463 9.0895
191.605715 80.448 9.2292
192.994169 80.432 9.3716
194.392685 80.417 9.5198
195.801334 80.400 9.6776
197.220191 80.382 9.8469
198.649330 80.361 10.0269
200.088825 80.339 10.2136
201.538751 80.317 10.4014
202.999184 80.295 10.5833
204.470200 80.276 10.7552
205.951875 80.260 10.9197
207.444287 80.247 11.0825
208.947514 80.236 11.2488
210.461634 80.227 11.4204
211.986726 80.218 11.5963
213.522869 80.209 11.7749
215.070144 80.199 11.9560
216.628631 80.188 12.1412
218.198411 80.177 12.3328
219.779567 80.165 12.5323
221.372180 80.153 12.7393
222.976334 80.140 12.9511
224.592112 80.128 13.1636
226.219600 80.116 13.3734
227.858880 80.105 13.5805
229.510039 80.094 13.7885
231.173164 80.083 14.0028
232.848340 80.073 14.2281
234.535655 80.063 14.4658
236.235197 80.053 14.7139
237.947054 80.044 14.9679
239.671317 80.035 15.2233
241.408074 80.026 15.4772
243.157416 80.016 15.7280
244.919435 80.006 15.9752
246.694223 79.996 16.2191
248.481871 79.986 16.4606
250.282473 79.977 16.7008
252.096123 79.969 16.9420
253.922915 79.961 17.1874
255.762945 79.955 17.4403
257.616309 79.950 17.7025
259.483103 79.945 17.9751
261.363424 79.942 18.2584
263.257372 79.940 18.5501
265.165043 79.940 18.8447
267.086538 79.942 19.1355
269.021957 79.945 19.4169
270.971401 79.948 19.6853
272.934972 79.951 19.9420
274.912771 79.953 20.1932
276.904902 79.953 20.4468
278.911469 79.953 20.7087
280.932577 79.952 20.9822
282.968330 79.952 21.2676
285.018835 79.952 21.5638
287.084199 79.954 21.8691
289.164530 79.956 22.1801
291.259935 79.958 22.4918
293.370525 79.961 22.8005
295.496408 79.963 23.1042
297.637697 79.967 23.4032
299.794503 79.972 23.6984
301.966937 79.978 23.9908
304.155114 79.985 24.2820
306.359147 79.994 24.5735
308.579152 80.004 24.8658
310.815244 80.014 25.1588
313.067539 80.024 25.4528
315.336156 80.033 25.7487
317.621211 80.041 26.0477
319.922826 80.048 26.3499
322.241118 80.055 26.6526
324.576210 80.063 26.9514
326.928223 80.073 27.2441
329.297280 80.083 27.5334
331.683504 80.095 27.8248
334.087019 80.108 28.1228
336.507952 80.122 28.4284
338.946427 80.136 28.7387
341.402572 80.152 29.0471
343.876516 80.169 29.3480
346.368387 80.188 29.6402
348.878315 80.209 29.9257
351.406431 80.231 30.2092
353.952867 80.255 30.4955
356.517756 80.277 30.7869
359.101230 80.298 31.0854
361.703426 80.317 31.3934
364.324478 80.334 31.7123
366.964523 80.350 32.0393
369.623699 80.367 32.3686
372.302145 80.385 32.6942
375.000000 80.405 33.0129
377.717405 80.427 33.3239
380.454501 80.452 33.6267
383.211431 80.478 33.9198
385.988339 80.505 34.2011
388.785369 80.531 34.4701
391.602668 80.556 34.7279
394.440383 80.580 34.9785
397.298660 80.601 35.2274
400.177650 80.622 35.4802
403.077502 80.641 35.7410
405.998368 80.661 36.0129
408.940400 80.682 36.3006
411.903750 80.705 36.6093
414.888575 80.731 36.9415
417.895028 80.760 37.2931
420.923268 80.793 37.6530
423.973452 80.829 38.0067
427.045738 80.868 38.3426
430.140287 80.908 38.6548
433.257261 80.947 38.9427
436.396822 80.983 39.2080
439.559133 81.016 39.4509
442.744360 81.045 39.6725
445.952668 81.072 39.8752
449.184225 81.096 40.0625
452.439199 81.119 40.2365
455.717760 81.141 40.3990
459.020079 81.161 40.5541
462.346327 81.182 40.7072
465.696680 81.204 40.8613
469.071310 81.227 41.0148
472.470394 81.249 41.1652
475.894109 81.271 41.3154
479.342634 81.293 41.4733
482.816148 81.315 41.6449
486.314833 81.338 41.8307
489.838871 81.363 42.0249
493.388445 81.391 42.2192
496.963741 81.422 42.4069
500.564945 81.455 42.5856
504.192245 81.488 42.7570
507.845830 81.521 42.9239
511.525890 81.551 43.0890
515.232618 81.577 43.2541
518.966206 81.600 43.4200
522.726849 81.621 43.5849
526.514743 81.640 43.7460
530.330086 81.658 43.9026
534.173076 81.677 44.0567
538.043915 81.699 44.2116
541.942803 81.723 44.3687
545.869944 81.750 44.5267
549.825542 81.778 44.6832
553.809805 81.808 44.8368
557.822939 81.837 44.9870
561.865154 81.866 45.1330
565.936660 81.895 45.2735
570.037671 81.922 45.4063
574.168399 81.949 45.5291
578.329060 81.974 45.6424
582.519870 81.999 45.7508
586.741049 82.022 45.8607
590.992817 82.045 45.9773
595.275394 82.068 46.1033
599.589005 82.091 46.2404
603.933874 82.114 46.3894
608.310228 82.139 46.5481
612.718295 82.165 46.7098
617.158304 82.192 46.8658
621.630488 82.220 47.0103
626.135079 82.247 47.1443
630.672311 82.274 47.2731
635.242423 82.300 47.4028
639.845651 82.325 47.5374
644.482237 82.350 47.6757
649.152421 82.375 47.8136
653.856447 82.400 47.9480
658.594560 82.424 48.0785
663.367008 82.449 48.2055
668.174039 82.475 48.3298
673.015903 82.502 48.4518
677.892854 82.529 48.5733
682.805145 82.557 48.6968
687.753032 82.585 48.8246
692.736774 82.610 48.9566
697.756631 82.634 49.0894
702.812863 82.656 49.2175
707.905735 82.676 49.3356
713.035511 82.697 49.4427
718.202461 82.718 49.5431
723.406852 82.741 49.6440
728.648956 82.764 49.7520
733.929047 82.788 49.8697
739.247399 82.810 49.9959
744.604290 82.833 50.1260
750.000000 82.857 50.2559
755.434809 82.883 50.3847
760.909001 82.913 50.5155
766.422861 82.947 50.6519
771.976677 82.981 50.7940
777.570739 83.015 50.9390
783.205337 83.047 51.0830
788.880766 83.075 51.2241
794.597321 83.102 51.3626
800.355301 83.127 51.4990
806.155005 83.153 51.6320
811.996736 83.180 51.7591
817.880799 83.207 51.8779
823.807501 83.236 51.9880
829.777150 83.265 52.0907
835.790057 83.294 52.1884
841.846536 83.322 52.2815
847.946903 83.348 52.3678
854.091476 83.372 52.4445
860.280575 83.394 52.5099
866.514523 83.415 52.5641
872.793644 83.435 52.6089
879.118267 83.456 52.6489
885.488720 83.479 52.6900
891.905336 83.504 52.7382
898.368450 83.532 52.7975
904.878398 83.563 52.8677
911.435520 83.594 52.9444
918.040157 83.624 53.0208
924.692655 83.654 53.0904
931.393359 83.682 53.1502
938.142619 83.710 53.2010
944.940787 83.737 53.2458
951.788218 83.764 53.2862
958.685268 83.791 53.3234
965.632296 83.820 53.3585
972.629666 83.850 53.3933
979.677741 83.881 53.4293
986.776890 83.914 53.4671
993.927482 83.948 53.5061
1001.129891 83.981 53.5444
1008.384491 84.014 53.5776
1015.691660 84.044 53.5996
1023.051781 84.072 53.6056
1030.465236 84.097 53.5948
1037.932411 84.120 53.5698
1045.453698 84.143 53.5356
1053.029486 84.167 53.4994
1060.660172 84.194 53.4685
1068.346153 84.222 53.4485
1076.087829 84.252 53.4413
1083.885605 84.282 53.4443
1091.739887 84.311 53.4513
1099.651084 84.338 53.4550
1107.619609 84.365 53.4496
1115.645878 84.391 53.4313
1123.730308 84.417 53.3975
1131.873321 84.444 53.3457
1140.075341 84.472 53.2746
1148.336797 84.501 53.1854
1156.658119 84.529 53.0814
1165.039741 84.556 52.9676
1173.482099 84.582 52.8507
1181.985634 84.605 52.7368
1190.550789 84.627 52.6309
1199.178011 84.648 52.5372
1207.867749 84.668 52.4591
1216.620457 84.687 52.3965
1225.436590 84.705 52.3451
1234.316609 84.722 52.2982
1243.260976 84.737 52.2489
1252.270157 84.750 52.1906
1261.344623 84.760 52.1175
1270.484846 84.767 52.0272
1279.691303 84.771 51.9231
1288.964474 84.773 51.8142
1298.304842 84.774 51.7122
1307.712894 84.774 51.6267
1317.189120 84.773 51.5636
1326.734016 84.772 51.5236
1336.348077 84.770 51.5033
1346.031806 84.766 51.4959
1355.785708 84.759 51.4932
1365.610290 84.748 51.4869
1375.506065 84.733 51.4703
1385.473549 84.714 51.4417
1395.513261 84.691 51.4068
1405.625726 84.664 51.3778
1415.811469 84.635 51.3691
1426.071023 84.605 51.3927
1436.404921 84.576 51.4543
1446.813703 84.549 51.5531
1457.297912 84.522 51.6860
1467.858093 84.495 51.8503
1478.494798 84.468 52.0430
1489.208581 84.438 52.2581
1500.000000 84.406 52.4868
1510.869618 84.371 52.7217
1521.818002 84.334 52.9641
1532.845723 84.296 53.2261
1543.953355 84.256 53.5265
1555.141477 84.217 53.8825
1566.410674 84.178 54.3035
1577.761531 84.142 54.7907
1589.194642 84.109 55.3399
1600.710601 84.078 55.9439
1612.310010 84.050 56.5939
1623.993473 84.023 57.2813
1635.761599 83.999 57.9999
1647.615002 83.979 58.7491
1659.554299 83.965 59.5341
1671.580114 83.959 60.3643
1683.693072 83.963 61.2480
1695.893807 83.981 62.1880
1708.182952 84.014 63.1802
1720.561150 84.067 64.2141
1733.029045 84.141 65.2744
1745.587288 84.237 66.3424
1758.236533 84.356 67.3964
1770.977440 84.497 68.4111
1783.810673 84.657 69.3582
1796.736900 84.831 70.2083
1809.756796 85.013 70.9378
1822.871040 85.197 71.5345
1836.080315 85.380 71.9991
1849.385310 85.559 72.3426
1862.786718 85.732 72.5830
1876.285239 85.902 72.7426
1889.881575 86.070 72.8447
1903.576436 86.238 72.9089
1917.370535 86.409 72.9462
1931.264593 86.583 72.9573
1945.259332 86.761 72.9340
1959.355483 86.941 72.8601
1973.553781 87.121 72.7159
1987.854965 87.298 72.4836
2002.259781 87.467 72.1519
2016.768981 87.627 71.7181
2031.383320 87.777 71.1874
2046.103561 87.915 70.5715
2060.930471 88.042 69.8865
2075.864823 88.156 69.1502
2090.907395 88.259 68.3794
2106.058972 88.351 67.5877
2121.320344 88.433 66.7834
2136.692305 88.509 65.9720
2152.175658 88.579 65.1604
2167.771210 88.645 64.3585
2183.479774 88.708 63.5777
2199.302169 88.768 62.8286
2215.239219 88.825 62.1161
2231.291755 88.879 61.4336
2247.460615 88.929 60.7639
2263.746641 88.974 60.0864
2280.150683 89.012 59.3858
2296.673595 89.044 58.6570
2313.316238 89.071 57.9047
2330.079481 89.093 57.1422
2346.964198 89.111 56.3904
2363.971268 89.126 55.6701
2381.101578 89.140 54.9962
2398.356022 89.153 54.3742
2415.735498 89.166 53.8018
2433.240913 89.178 53.2686
2450.873180 89.189 52.7556
2468.633217 89.198 52.2414
2486.521951 89.204 51.7080
2504.540314 89.206 51.1444
2522.689246 89.205 50.5486
2540.969692 89.201 49.9297
2559.382606 89.194 49.3065
2577.928947 89.186 48.7006
2596.609683 89.177 48.1307
2615.425787 89.167 47.6082
2634.378241 89.155 47.1340
2653.468031 89.142 46.6976
2672.696154 89.126 46.2796
2692.063613 89.107 45.8591
2711.571415 89.085 45.4200
2731.220579 89.060 44.9558
2751.012130 89.032 44.4706
2770.947098 89.003 43.9789
2791.026522 88.974 43.5028
2811.251451 88.947 43.0642
2831.622938 88.922 42.6754
2852.142045 88.899 42.3365
2872.809842 88.878 42.0364
2893.627406 88.858 41.7549
2914.595823 88.836 41.4666
2935.716186 88.812 41.1486
2956.989596 88.784 40.7863
2978.417161 88.751 40.3745
3000.000000 88.715 39.9149
3021.739237 88.675 39.4156
3043.636005 88.633 38.8876
3065.691446 88.589 38.3430
3087.906710 88.542 37.7940
3110.282955 88.493 37.2534
3132.821347 88.442 36.7358
3155.523062 88.389 36.2605
3178.389283 88.334 35.8490
3201.421202 88.279 35.5185
3224.620020 88.225 35.2751
3247.986946 88.171 35.1120
3271.523198 88.119 35.0105
3295.230004 88.069 34.9431
3319.108599 88.019 34.8784
3343.160228 87.970 34.7886
3367.386145 87.920 34.6557
3391.787613 87.869 34.4741
3416.365904 87.816 34.2513
3441.122300 87.762 34.0070
3466.058091 87.708 33.7667
3491.174576 87.654 33.5529
3516.473066 87.600 33.3782
3541.954880 87.548 33.2437
3567.621345 87.496 33.1384
3593.473800 87.443 33.0413
3619.513592 87.390 32.9290
3645.742080 87.335 32.7834
3672.160630 87.279 32.5953
3698.770620 87.221 32.3671
3725.573436 87.162 32.1140
3752.570477 87.102 31.8635
3779.763150 87.043 31.6472
3807.152872 86.985 31.4904
3834.741071 86.929 31.4041
3862.529185 86.875 31.3830
3890.518664 86.821 31.4073
3918.710966 86.767 31.4474
3947.107561 86.710 31.4718
3975.709929 86.651 31.4538
4004.519563 86.589 31.3762
4033.537962 86.525 31.2336
4062.766641 86.459 31.0331
4092.207123 86.393 30.7904
4121.860942 86.327 30.5246
4151.729646 86.261 30.2547
4181.814790 86.196 29.9987
4212.117944 86.130 29.7723
4242.640687 86.065 29.5915
4273.384610 85.999 29.4745
4304.351317 85.935 29.4409
4335.542421 85.873 29.5054
4366.959549 85.813 29.6704
4398.604338 85.756 29.9220
4430.478438 85.701 30.2323
4462.583511 85.648 30.5653
4494.921231 85.595 30.8864
4527.493283 85.543 31.1709
4560.301365 85.492 31.4099
4593.347189 85.442 31.6138
4626.632476 85.394 31.8103
4660.158962 85.351 32.0374
4693.928395 85.314 32.3319
4727.942535 85.283 32.7173
4762.203156 85.261 33.1979
4796.712043 85.245 33.7576
4831.470996 85.238 34.3634
4866.481826 85.238 34.9731
4901.746360 85.244 35.5464
4937.266434 85.259 36.0534
4973.043902 85.281 36.4818
5009.080628 85.314 36.8390
5045.378492 85.357 37.1494
5081.939384 85.413 37.4447
5118.765212 85.482 37.7522
5155.857894 85.565 38.0842
5193.219366 85.662 38.4311
5230.851574 85.772 38.7607
5268.756481 85.892 39.0231
5306.936062 86.021 39.1621
5345.392309 86.155 39.1285
5384.127225 86.293 38.8904
5423.142830 86.433 38.4382
5462.441159 86.573 37.7859
5502.024259 86.713 36.9677
5541.894195 86.850 36.0280
5582.053045 86.980 35.0084
5622.502902 87.100 33.9343
5663.245876 87.207 32.8107
5704.284090 87.297 31.6234
5745.619684 87.366 30.3468
5787.254813 87.410 28.9532
5829.191647 87.426 27.4234
5871.432373 87.414 25.7545
5913.979192 87.371 23.9639
5956.834323 87.300 22.0865
6000.000000 87.201 20.1672
6043.478473 87.075 18.2519
6087.272010 86.924 16.3839
6131.382892 86.748 14.6031
6175.813420 86.551 12.9498
6220.565910 86.333 11.4666
6265.642695 86.099 10.2003
6311.046124 85.855 9.1967
6356.778566 85.607 8.4858
6402.842404 85.365 8.0595
6449.240040 85.132 7.8588
6495.973891 84.908 7.7901
6543.046396 84.684 7.7714
6590.460007 84.452 7.7690
6638.217197 84.205 7.7943
6686.320456 83.943 7.8837
6734.772290 83.673 8.0873
6783.575226 83.400 8.4632
6832.731809 83.132 9.0731
6882.244600 82.878 9.9760
6932.116181 82.643 11.2191
6982.349153 82.435 12.8240
7032.946133 82.263 14.7719
7083.909760 82.133 16.9933
7135.242690 82.053 19.3704
7186.947600 82.025 21.7589
7239.027185 82.050 24.0356
7291.484160 82.123 26.1406
7344.321260 82.247 28.0706
7397.541239 82.427 29.8371
7451.146872 82.668 31.4313
7505.140954 82.976 32.8125
7559.526299 83.352 33.9146
7614.305743 83.790 34.6607
7669.482141 84.280 34.9779
7725.058371 84.809 34.8083
7781.037328 85.359 34.1154
7837.421932 85.909 32.8840
7894.215122 86.437 31.1143
7951.419859 86.921 28.8169
8009.039125 87.338 26.0146
8067.075924 87.670 22.7511
8125.533282 87.903 19.0972
8184.414245 88.025 15.1524
8243.721885 88.036 11.0442
8303.459292 87.939 6.9244
8363.629581 87.745 2.9594
8424.235888 87.472 -0.6868
8485.281374 87.138 -3.8723
8546.769221 86.765 -6.4945
8608.702634 86.375 -8.5060
8671.084842 85.985 -9.9252
8733.919097 85.612 -10.8330
8797.208675 85.266 -11.3556
8860.956876 84.954 -11.6398
8925.167022 84.679 -11.8273
8989.842461 84.440 -12.0302
9054.986566 84.237 -12.3127
9120.602731 84.069 -12.6902
9186.694378 83.934 -13.1399
9253.264952 83.829 -13.6187
9320.317925 83.751 -14.0841
9387.856790 83.698 -14.5198
9455.885071 83.665 -14.9529
9524.406312 83.647 -15.4546
9593.424086 83.639 -16.1213
9662.941992 83.634 -17.0514
9732.963653 83.627 -18.3245
9803.492719 83.612 -19.9838
9874.532869 83.581 -22.0228
9946.087805 83.528 -24.3868
10018.161257 83.448 -26.9868
10090.756983 83.335 -29.7169
10163.878768 83.182 -32.4753
10237.530423 82.984 -35.1833
10311.715789 82.739 -37.7996
10386.438732 82.443 -40.3195
10461.703149 82.095 -42.7628
10537.512962 81.694 -45.1595
10613.872125 81.242 -47.5367
10690.784618 80.740 -49.9034
10768.254450 80.194 -52.2401
10846.285661 79.608 -54.5032
10924.882318 78.989 -56.6383
11004.048518 78.341 -58.5922
11083.788390 77.672 -60.3176
11164.106090 76.986 -61.7738
11245.005805 76.290 -62.9235
11326.491752 75.589 -63.7277
11408.568180 74.888 -64.1409
11491.239368 74.191 -64.1135
11574.509626 73.502 -63.6054
11658.383294 72.824 -62.6061
11742.864745 72.159 -61.1484
11827.958384 71.508 -59.3071
11913.668646 70.872 -57.1849
12000.000000 70.250 -54.8945
12086.956947 69.644 -52.5327
12174.544019 69.053 -50.1536
12262.765784 68.479 -47.7533
12351.626840 67.922 -45.2741
12441.131819 67.383 -42.6218
12531.285389 66.864 -39.6881
12622.092249 66.366 -36.3776
12713.557132 65.891 -32.6344
12805.684808 65.440 -28.4564
12898.480079 65.015 -23.8871
12991.947783 64.620 -18.9936
13086.092792 64.259 -13.8400
13180.920015 63.944 -8.4576
13276.434395 63.690 -2.8210
13372.640911 63.518 3.1558
13469.544580 63.457 9.5936
13567.150452 63.540 16.6000
13665.463617 63.799 24.1956
13764.489200 64.261 32.2261
13864.232362 64.936 40.3112
13964.698305 65.813 47.9009
14065.892266 66.860 54.4274
14167.819519 68.033 59.4524
14270.485380 69.283 62.7320
14373.895200 70.563 64.2023
14478.054370 71.831 63.9305
14582.968320 73.047 62.0599
14688.642520 74.177 58.7712
14795.082478 75.193 54.2667
14902.293745 76.068 48.7713
15010.281908 76.786 42.5401
15119.052599 77.337 35.8604
15228.611486 77.725 29.0415
15338.964283 77.966 22.3865
15450.116741 78.088 16.1558
15562.074656 78.127 10.5272
15674.843864 78.119 5.5590
15788.430244 78.099 1.1699
15902.839718 78.092 -2.8449
16018.078250 78.111 -6.7654
16134.151848 78.159 -10.8901
16251.066563 78.225 -15.4778
16368.828491 78.289 -20.6948
16487.443769 78.324 -26.5825
16606.918584 78.300 -33.0586
16727.259161 78.183 -39.9434
16848.471777 77.947 -46.9875
16970.562748 77.571 -53.9048
17093.538442 77.048 -60.4203
17217.405268 76.380 -66.3226
17342.169684 75.579 -71.4918
17467.838194 74.666 -75.8971
17594.417350 73.664 -79.5820
17721.913751 72.598 -82.6371
17850.334044 71.495 -85.1633
17979.684923 70.378 -87.2355
18109.973131 69.272 -88.8851
18241.205462 68.197 -90.1061
18373.388756 67.167 -90.8711
18506.529905 66.195 -91.1606
18640.635849 65.285 -91.0027
18775.713581 64.433 -90.5005
18911.770141 63.634 -89.8243
19048.812624 62.876 -89.1810
19186.848172 62.149 -88.7758
19325.883983 61.444 -88.7705
19465.927305 60.759 -89.2369
19606.985439 60.109 -90.1223
19749.065738 59.530 -91.2405
19892.175609 59.081 -92.2935
20036.322514 58.833 -92.9412
