* Measurement data measured by REW V5.30.4
* Source: Headset (2- CX31993 HIFI AUDIO), MICROPHONE (Master Volume), L, volume: 0.500
* Format: 256k Log Swept Sine, 1 sweep at -12.0 dBFS with no timing reference
* Dated: 06 18, 24 6:27:24 AM
* REW Settings:
*  C-weighting compensation: Off
*  Target level: 75.0 dB
* Note: ; 
* Measurement: Sony IER-M7 R
* Smoothing: 1/12 octave
* Frequency Step: 96 ppo
* Start Frequency: 20.141602 Hz
*
* Freq(Hz) SPL(dB) Phase(degrees)
20.141602 93.712 -161.0277
20.287556 93.714 -161.1092
20.434568 93.717 -161.2245
20.582645 93.720 -161.3612
20.731796 93.722 -161.5088
20.882027 93.724 -161.6595
21.033346 93.726 -161.8084
21.185762 93.727 -161.9527
21.339283 93.729 -162.0913
21.493916 93.731 -162.2245
21.649670 93.734 -162.3532
21.806553 93.739 -162.4794
21.964573 93.745 -162.6055
22.123737 93.753 -162.7342
22.284056 93.762 -162.8684
22.445536 93.773 -163.0108
22.608185 93.784 -163.1639
22.772013 93.797 -163.3295
22.937029 93.809 -163.5085
23.103241 93.821 -163.7011
23.270657 93.832 -163.9061
23.439285 93.842 -164.1217
23.609137 93.850 -164.3449
23.780218 93.855 -164.5725
23.952539 93.859 -164.8007
24.126110 93.861 -165.0259
24.300938 93.861 -165.2451
24.477032 93.860 -165.4556
24.654402 93.859 -165.6562
24.833057 93.858 -165.8463
25.013008 93.857 -166.0267
25.194263 93.858 -166.1987
25.376831 93.860 -166.3644
25.560722 93.863 -166.5262
25.745945 93.867 -166.6864
25.932510 93.872 -166.8469
26.120428 93.878 -167.0092
26.309708 93.884 -167.1742
26.500359 93.890 -167.3420
26.692390 93.896 -167.5125
26.885815 93.902 -167.6851
27.080641 93.907 -167.8591
27.276878 93.912 -168.0340
27.474539 93.916 -168.2095
27.673630 93.920 -168.3853
27.874165 93.924 -168.5615
28.076153 93.929 -168.7382
28.279604 93.933 -168.9155
28.484529 93.937 -169.0935
28.690941 93.942 -169.2719
28.898848 93.947 -169.4504
29.108261 93.951 -169.6282
29.319191 93.956 -169.8046
29.531651 93.961 -169.9789
29.745649 93.965 -170.1504
29.961199 93.970 -170.3189
30.178310 93.974 -170.4846
30.396996 93.978 -170.6478
30.617264 93.982 -170.8094
30.839128 93.986 -170.9704
31.062601 93.989 -171.1318
31.287693 93.992 -171.2947
31.514416 93.995 -171.4598
31.742783 93.997 -171.6273
31.972803 93.999 -171.7976
32.204491 94.001 -171.9702
32.437859 94.003 -172.1449
32.672916 94.005 -172.3209
32.909679 94.007 -172.4977
33.148155 94.009 -172.6744
33.388359 94.011 -172.8504
33.630306 94.012 -173.0250
33.874004 94.014 -173.1976
34.119469 94.016 -173.3677
34.366711 94.017 -173.5350
34.615746 94.019 -173.6997
34.866585 94.019 -173.8618
35.119244 94.020 -174.0219
35.373734 94.021 -174.1806
35.630066 94.021 -174.3382
35.888256 94.022 -174.4953
36.148315 94.023 -174.6524
36.410259 94.024 -174.8097
36.674103 94.025 -174.9677
36.939857 94.027 -175.1270
37.207539 94.029 -175.2881
37.477161 94.031 -175.4516
37.748737 94.033 -175.6178
38.022282 94.035 -175.7866
38.297806 94.036 -175.9576
38.575329 94.036 -176.1295
38.854862 94.036 -176.3011
39.136421 94.035 -176.4712
39.420021 94.033 -176.6384
39.705673 94.031 -176.8024
39.993397 94.029 -176.9628
40.283207 94.028 -177.1202
40.575115 94.027 -177.2752
40.869141 94.027 -177.4289
41.165295 94.027 -177.5821
41.463596 94.027 -177.7359
41.764057 94.027 -177.8910
42.066696 94.028 -178.0480
42.371529 94.028 -178.2073
42.678570 94.028 -178.3690
42.987835 94.027 -178.5330
43.299343 94.027 -178.6987
43.613110 94.026 -178.8654
43.929150 94.025 -179.0321
44.247478 94.023 -179.1973
44.568115 94.021 -179.3597
44.891075 94.019 -179.5180
45.216373 94.016 -179.6717
45.544029 94.012 -179.8212
45.874062 94.009 -179.9681
46.206486 94.006 179.8849
46.541317 94.003 179.7356
46.878574 94.000 179.5817
47.218277 93.998 179.4224
47.560440 93.996 179.2583
47.905083 93.993 179.0908
48.252224 93.990 178.9217
48.601879 93.987 178.7528
48.954067 93.984 178.5852
49.308807 93.980 178.4190
49.666119 93.977 178.2534
50.026020 93.974 178.0869
50.388531 93.971 177.9178
50.753666 93.969 177.7457
51.121449 93.967 177.5714
51.491894 93.965 177.3977
51.865025 93.961 177.2283
52.240860 93.957 177.0666
52.619419 93.952 176.9140
53.000721 93.946 176.7691
53.384785 93.940 176.6283
53.771633 93.935 176.4871
54.161285 93.929 176.3419
54.553761 93.924 176.1912
54.949081 93.918 176.0353
55.347263 93.913 175.8763
55.748333 93.907 175.7164
56.152309 93.902 175.5574
56.559212 93.896 175.4001
56.969063 93.890 175.2444
57.381886 93.884 175.0898
57.797699 93.878 174.9351
58.216526 93.872 174.7793
58.638386 93.866 174.6220
59.063305 93.859 174.4637
59.491302 93.853 174.3058
59.922401 93.847 174.1504
60.356625 93.841 173.9994
60.793995 93.835 173.8535
61.234531 93.828 173.7115
61.678261 93.821 173.5707
62.125206 93.814 173.4281
62.575390 93.807 173.2812
63.028835 93.801 173.1297
63.485569 93.794 172.9744
63.945610 93.788 172.8174
64.408989 93.782 172.6608
64.875725 93.775 172.5060
65.345840 93.768 172.3533
65.819366 93.760 172.2012
66.296318 93.752 172.0477
66.776726 93.746 171.8931
67.260620 93.740 171.7418
67.748016 93.736 171.6002
68.238945 93.733 171.4708
68.733429 93.727 171.3471
69.231499 93.717 171.2156
69.733177 93.699 171.0659
70.238495 93.672 170.8995
70.747475 93.640 170.7282
71.260139 93.608 170.5644
71.776520 93.584 170.4106
72.296638 93.571 170.2608
72.820526 93.568 170.1093
73.348213 93.571 169.9572
73.879723 93.575 169.8102
74.415085 93.576 169.6707
74.954330 93.574 169.5342
75.497482 93.568 169.3930
76.044571 93.559 169.2411
76.595619 93.548 169.0780
77.150665 93.536 168.9077
77.709732 93.522 168.7359
78.272850 93.509 168.5679
78.840050 93.495 168.4070
79.411354 93.483 168.2536
79.986801 93.470 168.1061
80.566422 93.458 167.9623
81.150238 93.445 167.8206
81.738289 93.432 167.6803
82.330597 93.418 167.5406
82.927200 93.403 167.3996
83.528122 93.388 167.2546
84.133400 93.372 167.1045
84.743065 93.356 166.9503
85.357147 93.339 166.7952
85.975677 93.321 166.6442
86.598694 93.303 166.5023
87.226227 93.286 166.3732
87.858307 93.270 166.2570
88.494965 93.257 166.1482
89.136238 93.244 166.0377
89.782158 93.232 165.9168
90.432755 93.217 165.7820
91.088066 93.200 165.6360
91.748131 93.181 165.4868
92.412979 93.162 165.3450
93.082642 93.142 165.2195
93.757156 93.124 165.1118
94.436562 93.107 165.0158
95.120888 93.091 164.9225
95.810173 93.076 164.8252
96.504456 93.061 164.7202
97.203766 93.048 164.6084
97.908142 93.035 164.4944
98.617622 93.023 164.3836
99.332245 93.011 164.2781
100.052048 92.997 164.1768
100.777069 92.983 164.0786
101.507339 92.968 163.9852
102.242905 92.951 163.9014
102.983795 92.932 163.8335
103.730057 92.914 163.7841
104.481728 92.898 163.7507
105.238846 92.886 163.7267
106.001450 92.881 163.7000
106.769577 92.881 163.6495
107.543274 92.885 163.5523
108.322578 92.889 163.3969
109.107529 92.892 163.1898
109.898170 92.891 162.9481
110.694534 92.885 162.6876
111.496674 92.873 162.4194
112.304626 92.854 162.1538
113.118431 92.827 161.9020
113.938133 92.792 161.6718
114.763779 92.751 161.4593
115.595406 92.706 161.2483
116.433060 92.660 161.0232
117.276779 92.613 160.7860
118.126617 92.565 160.5607
118.982613 92.519 160.3835
119.844810 92.480 160.2851
120.713257 92.451 160.2698
121.587997 92.432 160.3064
122.469070 92.418 160.3430
123.356529 92.406 160.3344
124.250420 92.394 160.2623
125.150787 92.384 160.1369
126.057678 92.381 159.9771
126.971146 92.386 159.7959
127.891228 92.402 159.6055
128.817978 92.429 159.4236
129.751450 92.463 159.2746
130.691681 92.493 159.1949
131.638733 92.510 159.2231
132.592636 92.506 159.3575
133.553452 92.484 159.5327
134.521240 92.456 159.6687
135.496033 92.427 159.7352
136.477890 92.401 159.7466
137.466858 92.379 159.7112
138.462997 92.364 159.6158
139.466354 92.359 159.4683
140.476990 92.358 159.3235
141.494949 92.353 159.2261
142.520279 92.340 159.1648
143.553040 92.320 159.1041
144.593277 92.296 159.0165
145.641052 92.273 158.8882
146.696426 92.251 158.7227
147.759445 92.228 158.5337
148.830170 92.206 158.3401
149.908661 92.183 158.1563
150.994965 92.159 157.9857
152.089142 92.135 157.8267
153.191238 92.110 157.6763
154.301331 92.082 157.5320
155.419464 92.054 157.3958
156.545700 92.023 157.2715
157.680099 91.992 157.1611
158.822708 91.961 157.0636
159.973602 91.929 156.9768
161.132843 91.897 156.8993
162.300476 91.866 156.8317
163.476578 91.834 156.7761
164.661194 91.803 156.7344
165.854401 91.773 156.7068
167.056244 91.744 156.6917
168.266800 91.717 156.6875
169.486130 91.692 156.6956
170.714294 91.671 156.7179
171.951355 91.653 156.7548
173.197388 91.639 156.8052
174.452454 91.628 156.8665
175.716614 91.622 156.9348
176.989929 91.618 157.0033
178.272476 91.618 157.0620
179.564316 91.623 157.0978
180.865509 91.630 157.0982
182.176132 91.641 157.0522
183.496262 91.653 156.9531
184.825958 91.665 156.7981
186.165283 91.673 156.5898
187.514313 91.677 156.3377
188.873123 91.675 156.0576
190.241776 91.667 155.7671
191.620346 91.653 155.4802
193.008911 91.634 155.2072
194.407532 91.611 154.9540
195.816284 91.585 154.7218
197.235245 91.555 154.5083
198.664490 91.524 154.3110
200.104095 91.490 154.1292
201.554138 91.456 153.9640
203.014679 91.421 153.8170
204.485809 91.385 153.6893
205.967590 91.350 153.5829
207.460114 91.315 153.5012
208.963455 91.283 153.4472
210.477692 91.254 153.4214
212.002899 91.229 153.4175
213.539154 91.209 153.4249
215.086548 91.194 153.4312
216.645157 91.185 153.4233
218.215057 91.180 153.3918
219.796341 91.177 153.3329
221.389069 91.172 153.2449
222.993347 91.164 153.1278
224.609253 91.152 152.9850
226.236862 91.136 152.8223
227.876266 91.116 152.6458
229.527557 91.094 152.4620
231.190811 91.070 152.2799
232.866119 91.044 152.1093
234.553558 91.017 151.9573
236.253235 90.989 151.8242
237.965225 90.961 151.7058
239.689621 90.933 151.5977
241.426514 90.906 151.4976
243.175995 90.879 151.4047
244.938141 90.852 151.3177
246.713058 90.826 151.2355
248.500839 90.799 151.1571
250.301575 90.773 151.0825
252.115356 90.747 151.0111
253.942291 90.722 150.9410
255.782455 90.696 150.8705
257.635956 90.671 150.7997
259.502899 90.645 150.7296
261.383362 90.619 150.6604
263.277466 90.594 150.5918
265.185272 90.568 150.5237
267.106903 90.543 150.4569
269.042480 90.518 150.3918
270.992065 90.493 150.3283
272.955780 90.469 150.2659
274.933716 90.444 150.2042
276.925995 90.420 150.1428
278.932709 90.396 150.0823
280.953979 90.371 150.0241
282.989899 90.347 149.9690
285.040558 90.323 149.9160
287.106079 90.300 149.8638
289.186554 90.277 149.8112
291.282104 90.254 149.7581
293.392853 90.232 149.7043
295.518890 90.210 149.6496
297.660339 90.187 149.5941
299.817322 90.164 149.5382
301.989929 90.142 149.4823
304.178284 90.119 149.4269
306.382477 90.097 149.3725
308.602661 90.074 149.3195
310.838928 90.052 149.2679
313.091400 90.029 149.2172
315.360199 90.007 149.1670
317.645416 89.985 149.1169
319.947205 89.963 149.0670
322.265686 89.941 149.0173
324.600952 89.919 148.9678
326.953156 89.898 148.9184
329.322388 89.876 148.8690
331.708801 89.855 148.8194
334.112488 89.834 148.7694
336.533600 89.813 148.7192
338.972260 89.792 148.6693
341.428589 89.771 148.6200
343.902710 89.750 148.5713
346.394775 89.729 148.5230
348.904907 89.709 148.4750
351.433228 89.689 148.4274
353.979858 89.669 148.3801
356.544952 89.648 148.3330
359.128632 89.628 148.2863
361.731018 89.608 148.2399
364.352264 89.589 148.1940
366.992523 89.569 148.1483
369.651917 89.549 148.1024
372.330566 89.530 148.0561
375.028625 89.510 148.0096
377.746246 89.491 147.9629
380.483551 89.472 147.9162
383.240692 89.453 147.8696
386.017822 89.434 147.8234
388.815063 89.415 147.7774
391.632568 89.396 147.7318
394.470490 89.377 147.6866
397.328979 89.359 147.6417
400.208191 89.340 147.5971
403.108276 89.322 147.5527
406.029358 89.304 147.5080
408.971619 89.286 147.4629
411.935181 89.268 147.4172
414.920227 89.250 147.3712
417.926910 89.233 147.3246
420.955383 89.215 147.2776
424.005798 89.197 147.2302
427.078308 89.179 147.1830
430.173096 89.161 147.1366
433.290314 89.144 147.0912
436.430115 89.126 147.0469
439.592682 89.109 147.0034
442.778137 89.091 146.9598
445.986694 89.074 146.9156
449.218506 89.057 146.8706
452.473724 89.039 146.8248
455.752533 89.022 146.7785
459.055115 89.005 146.7321
462.381622 88.989 146.6858
465.732239 88.972 146.6400
469.107117 88.955 146.5946
472.506470 88.939 146.5498
475.930450 88.923 146.5054
479.379242 88.907 146.4612
482.853027 88.890 146.4171
486.351990 88.874 146.3732
489.876282 88.858 146.3291
493.426117 88.842 146.2850
497.001678 88.826 146.2410
500.603149 88.810 146.1971
504.230713 88.795 146.1534
507.884583 88.779 146.1097
511.564911 88.764 146.0659
515.271912 88.748 146.0219
519.005798 88.733 145.9781
522.766724 88.718 145.9347
526.554932 88.703 145.8919
530.370544 88.688 145.8499
534.213806 88.674 145.8084
538.084961 88.659 145.7672
541.984131 88.645 145.7263
545.911560 88.631 145.6860
549.867432 88.617 145.6458
553.851990 88.603 145.6049
557.865417 88.590 145.5632
561.907959 88.576 145.5214
565.979797 88.561 145.4807
570.081116 88.547 145.4421
574.212158 88.533 145.4059
578.373108 88.520 145.3718
582.564209 88.507 145.3386
586.785706 88.494 145.3051
591.037781 88.482 145.2702
595.320679 88.470 145.2335
599.634644 88.458 145.1950
603.979858 88.447 145.1553
608.356567 88.436 145.1157
612.764954 88.425 145.0771
617.205322 88.415 145.0411
621.677856 88.405 145.0084
626.182800 88.395 144.9792
630.720398 88.385 144.9520
635.290833 88.375 144.9251
639.894409 88.364 144.8976
644.531372 88.355 144.8696
649.201904 88.345 144.8417
653.906311 88.336 144.8143
658.644775 88.328 144.7870
663.417603 88.319 144.7599
668.224976 88.311 144.7333
673.067200 88.304 144.7077
677.944519 88.296 144.6832
682.857178 88.289 144.6601
687.805420 88.283 144.6383
692.789551 88.277 144.6172
697.809814 88.271 144.5957
702.866455 88.265 144.5731
707.959717 88.260 144.5499
713.089905 88.254 144.5277
718.257263 88.249 144.5082
723.462036 88.243 144.4926
728.704529 88.239 144.4803
733.985046 88.234 144.4706
739.303833 88.230 144.4618
744.661133 88.227 144.4526
750.057251 88.225 144.4423
755.492493 88.223 144.4311
760.967102 88.223 144.4198
766.481384 88.225 144.4092
772.035645 88.228 144.3997
777.630127 88.233 144.3904
783.265137 88.239 144.3800
788.940979 88.246 144.3674
794.657959 88.255 144.3522
800.416382 88.264 144.3342
806.216553 88.274 144.3141
812.058716 88.284 144.2933
817.943237 88.295 144.2744
823.870361 88.306 144.2602
829.840454 88.317 144.2517
835.853821 88.329 144.2471
841.910767 88.341 144.2424
848.011597 88.355 144.2338
854.156616 88.370 144.2185
860.346191 88.387 144.1954
866.580627 88.406 144.1647
872.860229 88.426 144.1276
879.185364 88.448 144.0865
885.556274 88.472 144.0439
891.973389 88.496 144.0010
898.437012 88.522 143.9571
904.947449 88.548 143.9101
911.505066 88.574 143.8580
918.110229 88.602 143.7994
924.763245 88.631 143.7342
931.464478 88.661 143.6624
938.214233 88.693 143.5842
945.012939 88.725 143.4991
951.860901 88.759 143.4069
958.758484 88.793 143.3072
965.706055 88.829 143.1994
972.703979 88.866 143.0831
979.752563 88.903 142.9577
986.852234 88.942 142.8224
994.003357 88.981 142.6768
1001.206299 89.021 142.5207
1008.461426 89.063 142.3537
1015.769165 89.105 142.1757
1023.129822 89.147 141.9866
1030.543823 89.190 141.7865
1038.011597 89.234 141.5755
1045.533447 89.279 141.3535
1053.109863 89.323 141.1199
1060.741089 89.369 140.8743
1068.427612 89.414 140.6163
1076.169922 89.459 140.3461
1083.968262 89.505 140.0640
1091.823120 89.550 139.7703
1099.734863 89.596 139.4648
1107.703979 89.641 139.1475
1115.730835 89.687 138.8183
1123.815918 89.732 138.4774
1131.959595 89.776 138.1252
1140.162231 89.821 137.7621
1148.424316 89.865 137.3885
1156.746216 89.909 137.0048
1165.128418 89.952 136.6116
1173.571411 89.995 136.2090
1182.075562 90.037 135.7972
1190.641357 90.079 135.3762
1199.269287 90.120 134.9461
1207.959717 90.160 134.5071
1216.713135 90.200 134.0600
1225.529907 90.238 133.6053
1234.410645 90.276 133.1433
1243.355713 90.314 132.6747
1252.365601 90.350 132.1998
1261.440796 90.386 131.7190
1270.581665 90.421 131.2324
1279.788818 90.455 130.7404
1289.062744 90.489 130.2430
1298.403809 90.522 129.7407
1307.812622 90.554 129.2336
1317.289551 90.586 128.7220
1326.835205 90.618 128.2062
1336.449951 90.648 127.6865
1346.134399 90.679 127.1631
1355.889038 90.709 126.6362
1365.714355 90.738 126.1058
1375.610840 90.767 125.5720
1385.579102 90.795 125.0349
1395.619629 90.823 124.4945
1405.732910 90.850 123.9510
1415.919434 90.878 123.4042
1426.179810 90.905 122.8542
1436.514526 90.932 122.3009
1446.924072 90.958 121.7445
1457.409058 90.985 121.1850
1467.970093 91.011 120.6224
1478.607666 91.037 120.0567
1489.322266 91.063 119.4879
1500.114502 91.089 118.9158
1510.984985 91.115 118.3403
1521.934204 91.141 117.7609
1532.962769 91.167 117.1774
1544.071289 91.193 116.5899
1555.260254 91.219 115.9982
1566.530273 91.245 115.4022
1577.881958 91.272 114.8017
1589.315918 91.298 114.1965
1600.832764 91.325 113.5865
1612.433105 91.352 112.9714
1624.117432 91.379 112.3510
1635.886475 91.406 111.7249
1647.740723 91.433 111.0930
1659.680908 91.461 110.4550
1671.707642 91.488 109.8108
1683.821533 91.516 109.1602
1696.023193 91.544 108.5029
1708.313232 91.572 107.8387
1720.692383 91.599 107.1675
1733.161255 91.627 106.4892
1745.720459 91.654 105.8036
1758.370728 91.682 105.1105
1771.112549 91.709 104.4103
1783.946777 91.735 103.7030
1796.874023 91.762 102.9890
1809.894897 91.788 102.2686
1823.010132 91.814 101.5423
1836.220459 91.839 100.8105
1849.526489 91.864 100.0736
1862.928955 91.889 99.3318
1876.428467 91.913 98.5854
1890.025879 91.937 97.8349
1903.721802 91.960 97.0811
1917.516968 91.983 96.3249
1931.412109 92.005 95.5680
1945.407959 92.027 94.8118
1959.505127 92.049 94.0585
1973.704468 92.070 93.3098
1988.006714 92.092 92.5677
2002.412598 92.114 91.8344
2016.922852 92.138 91.1113
2031.538330 92.164 90.3994
2046.259644 92.193 89.6986
2061.087646 92.227 89.0068
2076.023193 92.266 88.3187
2091.066895 92.312 87.6252
2106.219727 92.365 86.9138
2121.482178 92.426 86.1689
2136.855225 92.494 85.3740
2152.339844 92.566 84.5137
2167.936523 92.642 83.5774
2183.646240 92.716 82.5611
2199.469727 92.788 81.4679
2215.407959 92.854 80.3071
2231.461670 92.912 79.0917
2247.631836 92.963 77.8361
2263.919189 93.005 76.5538
2280.324463 93.039 75.2561
2296.848633 93.066 73.9517
2313.492432 93.087 72.6467
2330.256836 93.102 71.3450
2347.142822 93.112 70.0488
2364.151123 93.118 68.7593
2381.282715 93.120 67.4768
2398.538574 93.118 66.2014
2415.919434 93.114 64.9331
2433.426270 93.106 63.6717
2451.059814 93.096 62.4171
2468.821289 93.084 61.1696
2486.711426 93.068 59.9296
2504.731201 93.051 58.6978
2522.881592 93.031 57.4751
2541.163330 93.009 56.2626
2559.577637 92.984 55.0614
2578.125488 92.958 53.8727
2596.807617 92.931 52.6978
2615.625244 92.902 51.5375
2634.579102 92.871 50.3928
2653.670410 92.841 49.2643
2672.899902 92.809 48.1521
2692.268799 92.778 47.0560
2711.778076 92.748 45.9754
2731.428711 92.718 44.9096
2751.221680 92.689 43.8576
2771.158203 92.661 42.8189
2791.239258 92.635 41.7929
2811.465820 92.610 40.7796
2831.838867 92.588 39.7787
2852.359619 92.568 38.7901
2873.029053 92.551 37.8130
2893.848145 92.537 36.8460
2914.818115 92.527 35.8871
2935.940186 92.522 34.9332
2957.215332 92.522 33.9805
2978.644531 92.527 33.0246
3000.229004 92.539 32.0603
3021.969971 92.556 31.0816
3043.868408 92.580 30.0819
3065.925537 92.611 29.0540
3088.142578 92.647 27.9902
3110.520508 92.691 26.8826
3133.060547 92.739 25.7230
3155.763916 92.793 24.5035
3178.631836 92.850 23.2162
3201.665527 92.910 21.8544
3224.866211 92.970 20.4128
3248.234863 93.030 18.8888
3271.772949 93.087 17.2818
3295.481445 93.139 15.5937
3319.361816 93.185 13.8284
3343.415283 93.224 11.9912
3367.643066 93.253 10.0888
3392.046387 93.272 8.1281
3416.626465 93.280 6.1157
3441.384766 93.276 4.0582
3466.322510 93.260 1.9621
3491.440918 93.231 -0.1655
3516.741455 93.188 -2.3159
3542.225098 93.131 -4.4788
3567.893555 93.057 -6.6415
3593.748047 92.968 -8.7902
3619.789795 92.864 -10.9091
3646.020264 92.745 -12.9825
3672.440918 92.613 -14.9961
3699.052979 92.469 -16.9374
3725.857910 92.315 -18.7964
3752.856934 92.153 -20.5646
3780.051758 91.986 -22.2347
3807.443604 91.814 -23.8004
3835.033936 91.642 -25.2572
3862.824219 91.472 -26.6030
3890.815918 91.306 -27.8394
3919.010254 91.148 -28.9713
3947.408936 91.002 -30.0082
3976.013428 90.869 -30.9628
4004.825195 90.751 -31.8521
4033.845703 90.652 -32.6959
4063.076660 90.572 -33.5162
4092.519287 90.511 -34.3358
4122.175293 90.469 -35.1774
4152.046387 90.444 -36.0616
4182.133789 90.437 -37.0070
4212.439453 90.443 -38.0282
4242.964355 90.461 -39.1369
4273.710449 90.488 -40.3412
4304.679688 90.522 -41.6461
4335.873047 90.561 -43.0538
4367.292480 90.602 -44.5646
4398.939453 90.643 -46.1769
4430.815918 90.682 -47.8876
4462.923340 90.718 -49.6922
4495.263672 90.748 -51.5848
4527.838379 90.770 -53.5582
4560.648926 90.784 -55.6033
4593.697266 90.788 -57.7101
4626.984863 90.780 -59.8674
4660.513672 90.761 -62.0633
4694.285645 90.730 -64.2859
4728.302246 90.687 -66.5236
4762.565430 90.632 -68.7659
4797.077148 90.566 -71.0037
4831.838867 90.490 -73.2289
4866.852539 90.403 -75.4348
4902.119629 90.307 -77.6152
4937.642578 90.202 -79.7643
4973.422852 90.089 -81.8771
5009.462402 89.969 -83.9488
5045.763184 89.843 -85.9755
5082.326660 89.712 -87.9540
5119.155273 89.577 -89.8818
5156.250977 89.438 -91.7575
5193.615234 89.297 -93.5803
5231.250488 89.154 -95.3508
5269.158203 89.012 -97.0697
5307.340820 88.870 -98.7390
5345.799805 88.729 -100.3608
5384.537598 88.590 -101.9386
5423.556152 88.454 -103.4764
5462.857422 88.321 -104.9786
5502.443359 88.191 -106.4503
5542.316406 88.064 -107.8953
5582.478516 87.941 -109.3175
5622.931641 87.821 -110.7206
5663.677734 87.705 -112.1074
5704.719238 87.592 -113.4788
5746.058105 87.482 -114.8346
5787.696289 87.375 -116.1733
5829.636230 87.270 -117.4928
5871.880371 87.168 -118.7908
5914.430664 87.069 -120.0646
5957.289062 86.973 -121.3123
6000.458008 86.880 -122.5322
6043.939941 86.790 -123.7236
6087.736816 86.705 -124.8863
6131.851074 86.624 -126.0208
6176.285156 86.548 -127.1284
6221.041016 86.478 -128.2104
6266.121094 86.414 -129.2687
6311.527832 86.356 -130.3047
6357.263672 86.305 -131.3198
6403.331055 86.260 -132.3152
6449.732422 86.223 -133.2913
6496.469727 86.193 -134.2477
6543.545898 86.172 -135.1839
6590.962891 86.159 -136.0989
6638.723633 86.156 -136.9919
6686.830566 86.163 -137.8633
6735.286133 86.183 -138.7142
6784.092773 86.215 -139.5479
6833.252930 86.263 -140.3696
6882.769531 86.327 -141.1864
6932.645020 86.410 -142.0073
6982.881836 86.512 -142.8437
7033.482910 86.635 -143.7090
7084.450195 86.781 -144.6183
7135.787109 86.950 -145.5885
7187.496094 87.143 -146.6384
7239.579590 87.361 -147.7896
7292.040527 87.605 -149.0660
7344.881836 87.875 -150.4950
7398.105957 88.169 -152.1057
7451.715820 88.485 -153.9296
7505.713867 88.821 -156.0003
7560.103516 89.174 -158.3528
7614.887207 89.539 -161.0209
7670.067871 89.910 -164.0351
7725.648438 90.281 -167.4200
7781.631836 90.643 -171.1929
7838.020508 90.987 -175.3613
7894.817871 91.303 -179.9211
7952.026855 91.582 175.1446
8009.650391 91.815 169.8661
8067.691406 91.991 164.2869
8126.153320 92.104 158.4637
8185.038574 92.147 152.4644
8244.350586 92.116 146.3659
8304.092773 92.009 140.2507
8364.267578 91.827 134.2034
8424.878906 91.574 128.3053
8485.928711 91.254 122.6298
8547.420898 90.877 117.2393
8609.359375 90.451 112.1825
8671.746094 89.986 107.4944
8734.584961 89.492 103.1969
8797.878906 88.979 99.3019
8861.631836 88.456 95.8132
8925.846680 87.932 92.7281
8990.527344 87.416 90.0387
9055.676758 86.916 87.7296
9121.297852 86.441 85.7758
9187.394531 85.998 84.1412
9253.969727 85.595 82.7804
9321.027344 85.237 81.6428
9388.571289 84.926 80.6788
9456.604492 84.664 79.8435
9525.130859 84.450 79.0998
9594.154297 84.284 78.4185
9663.677734 84.164 77.7772
9733.705078 84.091 77.1566
9804.239258 84.065 76.5391
9875.285156 84.087 75.9063
9946.845703 84.157 75.2374
10018.924805 84.276 74.5079
10091.526367 84.445 73.6890
10164.653320 84.665 72.7478
10238.310547 84.935 71.6476
10312.501953 85.255 70.3486
10387.230469 85.622 68.8085
10462.500977 86.034 66.9837
10538.316406 86.485 64.8306
10614.681641 86.971 62.3080
10691.599609 87.484 59.3792
10769.075195 88.016 56.0131
10847.112305 88.558 52.1868
10925.714844 89.099 47.8876
11004.886719 89.628 43.1136
11084.632812 90.136 37.8757
11164.957031 90.611 32.1959
11245.863281 91.047 26.1080
11327.355469 91.434 19.6558
11409.438477 91.768 12.8914
11492.116211 92.046 5.8717
11575.392578 92.265 -1.3454
11659.272461 92.426 -8.7054
11743.760742 92.532 -16.1605
11828.861328 92.585 -23.6726
11914.578125 92.589 -31.2138
12000.916016 92.547 -38.7659
12087.879883 92.461 -46.3174
12175.473633 92.335 -53.8600
12263.702148 92.169 -61.3843
12352.570312 91.962 -68.8782
12442.082031 91.717 -76.3267
12532.242188 91.435 -83.7133
12623.055664 91.118 -91.0238
12714.527344 90.767 -98.2468
12806.662109 90.387 -105.3747
12899.464844 89.980 -112.3997
12992.939453 89.547 -119.3138
13087.091797 89.092 -126.1079
13181.925781 88.618 -132.7729
13277.447266 88.129 -139.3005
13373.661133 87.628 -145.6844
13470.572266 87.122 -151.9214
13568.185547 86.614 -158.0103
13666.505859 86.111 -163.9537
13765.539062 85.617 -169.7559
13865.290039 85.139 -175.4229
13965.763672 84.682 179.0372
14066.965820 84.250 173.6145
14168.900391 83.846 168.2961
14271.574219 83.475 163.0674
14374.992188 83.138 157.9095
14479.159180 82.837 152.8026
14584.081055 82.572 147.7249
14689.763672 82.341 142.6548
14796.211914 82.143 137.5723
14903.431641 81.973 132.4590
15011.427734 81.829 127.2986
15120.207031 81.705 122.0767
15229.774414 81.597 116.7809
15340.135742 81.498 111.4026
15451.296875 81.403 105.9369
15563.263672 81.306 100.3840
15676.041016 81.201 94.7500
15789.635742 81.083 89.0452
15904.053711 80.947 83.2833
16019.300781 80.793 77.4777
16135.382812 80.616 71.6370
16252.306641 80.418 65.7629
16370.077148 80.199 59.8478
16488.701172 79.957 53.8760
16608.185547 79.693 47.8282
16728.535156 79.407 41.6830
16849.757812 79.097 35.4164
16971.857422 78.766 29.0005
17094.841797 78.413 22.4027
17218.718750 78.040 15.5864
17343.492188 77.645 8.5143
17469.169922 77.229 1.1516
17595.757812 76.793 -6.5286
17723.263672 76.336 -14.5447
17851.693359 75.861 -22.9049
17981.054688 75.371 -31.6072
18111.353516 74.872 -40.6398
18242.595703 74.370 -49.9786
18374.789062 73.874 -59.5857
18507.939453 73.389 -69.4055
18642.054688 72.918 -79.3644
18777.142578 72.462 -89.3679
18913.208984 72.013 -99.3064
19050.261719 71.565 -109.0618
19188.308594 71.106 -118.5183
19327.355469 70.631 -127.5740
19467.410156 70.142 -136.1562
19608.478516 69.655 -144.2395
19750.570312 69.206 -151.8685
19893.691406 68.853 -159.1736
20037.849609 0.000 -166.3499
