* Measurement data measured by REW V5.31.3
* Source: Headset (CX31993 HIFI AUDIO), MICROPHONE (Master Volume), R, volume: 0.250
* Format: 256k Log Swept Sine, 1 sweep at -12.0 dBFS with no timing reference
* Dated: 12 31, 24 12:55:52 PM
* REW Settings:
*  C-weighting compensation: Off
*  Target level: 75.0 dB
* Note: ; 
* Measurement: Sony LB Fit Vocal L
* Smoothing: 1/12 octave
* Frequency Step: 96 ppo
* Start Frequency: 0.36621094 Hz
*
* Freq(Hz) SPL(dB) Phase(degrees)
0.366211 16.713 -95.8386
0.368865 16.763 -96.0320
0.371538 16.837 -96.3143
0.374230 16.929 -96.6558
0.376942 17.031 -97.0318
0.379673 17.140 -97.4244
0.382424 17.254 -97.8221
0.385196 17.371 -98.2182
0.387987 17.489 -98.6089
0.390798 17.609 -98.9924
0.393630 17.730 -99.3676
0.396483 17.852 -99.7344
0.399356 17.975 -100.0926
0.402250 18.099 -100.4424
0.405165 18.224 -100.7840
0.408101 18.350 -101.1176
0.411058 18.477 -101.4436
0.414037 18.604 -101.7621
0.417037 18.733 -102.0735
0.420059 18.862 -102.3780
0.423103 18.992 -102.6760
0.426169 19.124 -102.9677
0.429257 19.256 -103.2534
0.432368 19.389 -103.5334
0.435501 19.524 -103.8080
0.438656 19.659 -104.0775
0.441835 19.795 -104.3421
0.445037 19.932 -104.6021
0.448262 20.070 -104.8579
0.451510 20.209 -105.1096
0.454782 20.350 -105.3576
0.458077 20.491 -105.6021
0.461397 20.633 -105.8433
0.464740 20.776 -106.0817
0.468108 20.920 -106.3173
0.471500 21.066 -106.5504
0.474917 21.212 -106.7814
0.478358 21.360 -107.0105
0.481825 21.508 -107.2378
0.485316 21.658 -107.4636
0.488833 21.808 -107.6882
0.492375 21.960 -107.9118
0.495943 22.113 -108.1347
0.499537 22.267 -108.3569
0.503157 22.422 -108.5788
0.506803 22.578 -108.8005
0.510475 22.736 -109.0223
0.514175 22.894 -109.2443
0.517900 23.054 -109.4668
0.521653 23.215 -109.6899
0.525434 23.377 -109.9138
0.529241 23.540 -110.1387
0.533076 23.704 -110.3648
0.536939 23.870 -110.5922
0.540830 24.037 -110.8211
0.544749 24.205 -111.0516
0.548696 24.374 -111.2839
0.552673 24.544 -111.5181
0.556677 24.716 -111.7544
0.560711 24.889 -111.9928
0.564774 25.063 -112.2336
0.568867 25.238 -112.4769
0.572989 25.415 -112.7227
0.577141 25.593 -112.9712
0.581324 25.772 -113.2224
0.585536 25.953 -113.4765
0.589779 26.135 -113.7336
0.594053 26.318 -113.9937
0.598358 26.502 -114.2569
0.602694 26.688 -114.5234
0.607061 26.876 -114.7931
0.611460 27.064 -115.0661
0.615891 27.254 -115.3425
0.620354 27.445 -115.6224
0.624849 27.638 -115.9057
0.629377 27.832 -116.1926
0.633938 28.028 -116.4830
0.638532 28.225 -116.7770
0.643159 28.423 -117.0746
0.647819 28.623 -117.3758
0.652514 28.824 -117.6806
0.657242 29.027 -117.9892
0.662005 29.231 -118.3013
0.666802 29.437 -118.6171
0.671634 29.644 -118.9365
0.676501 29.853 -119.2595
0.681403 30.063 -119.5861
0.686341 30.275 -119.9162
0.691314 30.488 -120.2497
0.696324 30.702 -120.5866
0.701370 30.917 -120.9267
0.706452 31.133 -121.2698
0.711571 31.348 -121.6153
0.716728 31.563 -121.9626
0.721921 31.775 -122.3107
0.727153 31.984 -122.6581
0.732422 32.187 -123.0028
0.737729 32.385 -123.3427
0.743075 32.577 -123.6758
0.748460 32.765 -124.0007
0.753883 32.951 -124.3165
0.759346 33.134 -124.6227
0.764849 33.316 -124.9196
0.770391 33.497 -125.2075
0.775974 33.677 -125.4867
0.781597 33.857 -125.7578
0.787261 34.036 -126.0214
0.792966 34.215 -126.2781
0.798712 34.393 -126.5284
0.804500 34.570 -126.7728
0.810329 34.747 -127.0120
0.816201 34.924 -127.2465
0.822116 35.100 -127.4768
0.828073 35.276 -127.7034
0.834074 35.451 -127.9268
0.840118 35.626 -128.1474
0.846206 35.801 -128.3657
0.852338 35.975 -128.5822
0.858514 36.148 -128.7972
0.864735 36.322 -129.0113
0.871001 36.495 -129.2247
0.877313 36.667 -129.4379
0.883670 36.839 -129.6512
0.890074 37.011 -129.8650
0.896524 37.183 -130.0797
0.903020 37.354 -130.2956
0.909564 37.525 -130.5129
0.916155 37.696 -130.7321
0.922794 37.867 -130.9534
0.929481 38.037 -131.1771
0.936216 38.208 -131.4035
0.943000 38.378 -131.6329
0.949834 38.548 -131.8655
0.956717 38.719 -132.1016
0.963649 38.889 -132.3414
0.970632 39.059 -132.5851
0.977666 39.229 -132.8330
0.984750 39.400 -133.0853
0.991886 39.570 -133.3422
0.999074 39.741 -133.6039
1.006314 39.912 -133.8706
1.013606 40.084 -134.1425
1.020951 40.256 -134.4197
1.028349 40.428 -134.7024
1.035801 40.601 -134.9907
1.043307 40.774 -135.2848
1.050867 40.948 -135.5847
1.058482 41.123 -135.8904
1.066152 41.299 -136.2018
1.073878 41.475 -136.5184
1.081660 41.651 -136.8398
1.089498 41.828 -137.1649
1.097393 42.006 -137.4923
1.105345 42.183 -137.8206
1.113355 42.361 -138.1480
1.121423 42.538 -138.4733
1.129549 42.715 -138.7957
1.137734 42.891 -139.1147
1.145979 43.066 -139.4301
1.154283 43.241 -139.7420
1.162647 43.415 -140.0507
1.171072 43.589 -140.3564
1.179558 43.762 -140.6595
1.188106 43.934 -140.9601
1.196715 44.106 -141.2588
1.205387 44.277 -141.5558
1.214122 44.448 -141.8514
1.222920 44.618 -142.1461
1.231782 44.787 -142.4400
1.240708 44.956 -142.7337
1.249699 45.125 -143.0273
1.258754 45.293 -143.3212
1.267876 45.461 -143.6157
1.277063 45.629 -143.9111
1.286318 45.796 -144.2077
1.295639 45.962 -144.5059
1.305027 46.129 -144.8058
1.314484 46.295 -145.1079
1.324009 46.462 -145.4123
1.333604 46.628 -145.7193
1.343268 46.794 -146.0293
1.353002 46.960 -146.3425
1.362806 47.126 -146.6592
1.372681 47.292 -146.9795
1.382628 47.458 -147.3039
1.392647 47.625 -147.6324
1.402739 47.791 -147.9653
1.412904 47.958 -148.3027
1.423142 48.126 -148.6446
1.433455 48.294 -148.9908
1.443843 48.462 -149.3411
1.454305 48.630 -149.6946
1.464844 48.798 -150.0504
1.475459 48.966 -150.4075
1.486150 49.134 -150.7645
1.496920 49.301 -151.1207
1.507767 49.468 -151.4755
1.518693 49.634 -151.8287
1.529698 49.800 -152.1804
1.540783 49.965 -152.5308
1.551948 50.130 -152.8801
1.563194 50.293 -153.2286
1.574521 50.457 -153.5768
1.585931 50.619 -153.9250
1.597423 50.781 -154.2735
1.608999 50.943 -154.6228
1.620658 51.104 -154.9733
1.632402 51.264 -155.3252
1.644232 51.425 -155.6791
1.656146 51.584 -156.0352
1.668147 51.744 -156.3940
1.680235 51.903 -156.7558
1.692411 52.062 -157.1209
1.704675 52.220 -157.4897
1.717028 52.378 -157.8626
1.729470 52.537 -158.2399
1.742003 52.695 -158.6219
1.754626 52.853 -159.0090
1.767341 53.011 -159.4013
1.780147 53.169 -159.7991
1.793047 53.327 -160.2024
1.806040 53.485 -160.6112
1.819128 53.642 -161.0250
1.832310 53.800 -161.4434
1.845587 53.957 -161.8655
1.858961 54.114 -162.2907
1.872432 54.270 -162.7181
1.886001 54.426 -163.1473
1.899667 54.581 -163.5780
1.913433 54.735 -164.0098
1.927299 54.889 -164.4427
1.941265 55.041 -164.8766
1.955332 55.194 -165.3114
1.969501 55.345 -165.7473
1.983773 55.496 -166.1841
1.998148 55.646 -166.6221
2.012627 55.796 -167.0613
2.027212 55.946 -167.5018
2.041902 56.094 -167.9438
2.056698 56.243 -168.3873
2.071602 56.391 -168.8327
2.086614 56.538 -169.2800
2.101734 56.686 -169.7294
2.116964 56.833 -170.1811
2.132304 56.980 -170.6354
2.147756 57.126 -171.0925
2.163320 57.272 -171.5524
2.178996 57.418 -172.0154
2.194786 57.564 -172.4814
2.210690 57.709 -172.9504
2.226710 57.854 -173.4223
2.242845 57.997 -173.8967
2.259098 58.140 -174.3735
2.275468 58.283 -174.8523
2.291957 58.424 -175.3329
2.308566 58.565 -175.8151
2.325295 58.705 -176.2985
2.342145 58.844 -176.7831
2.359117 58.983 -177.2685
2.376212 59.120 -177.7548
2.393431 59.258 -178.2418
2.410775 59.394 -178.7294
2.428244 59.530 -179.2175
2.445840 59.666 -179.7061
2.463564 59.801 179.8047
2.481416 59.935 179.3149
2.499397 60.070 178.8245
2.517509 60.203 178.3332
2.535752 60.337 177.8407
2.554127 60.470 177.3468
2.572635 60.602 176.8512
2.591277 60.733 176.3535
2.610055 60.864 175.8536
2.628968 60.994 175.3515
2.648019 61.123 174.8475
2.667208 61.251 174.3417
2.686535 61.379 173.8346
2.706003 61.505 173.3265
2.725612 61.631 172.8178
2.745363 61.756 172.3088
2.765257 61.881 171.7999
2.785295 62.004 171.2914
2.805478 62.127 170.7836
2.825808 62.250 170.2766
2.846285 62.372 169.7707
2.866910 62.493 169.2657
2.887685 62.614 168.7618
2.908611 62.735 168.2585
2.929688 62.855 167.7556
2.950917 62.974 167.2524
2.972301 63.092 166.7485
2.993839 63.210 166.2437
3.015534 63.327 165.7380
3.037386 63.443 165.2317
3.059396 63.558 164.7249
3.081565 63.672 164.2180
3.103896 63.785 163.7116
3.126388 63.898 163.2060
3.149043 64.010 162.7018
3.171862 64.122 162.1992
3.194847 64.233 161.6987
3.217998 64.344 161.2005
3.241317 64.454 160.7047
3.264805 64.563 160.2113
3.288463 64.673 159.7200
3.312293 64.781 159.2305
3.336295 64.889 158.7421
3.360471 64.996 158.2547
3.384822 65.103 157.7681
3.409350 65.209 157.2822
3.434056 65.314 156.7972
3.458940 65.418 156.3134
3.484005 65.522 155.8312
3.509252 65.625 155.3508
3.534681 65.728 154.8727
3.560295 65.831 154.3970
3.586094 65.933 153.9241
3.612081 66.035 153.4542
3.638255 66.137 152.9871
3.664620 66.238 152.5228
3.691175 66.339 152.0611
3.717923 66.439 151.6016
3.744864 66.539 151.1440
3.772001 66.639 150.6884
3.799335 66.738 150.2344
3.826866 66.837 149.7823
3.854597 66.935 149.3321
3.882529 67.033 148.8838
3.910664 67.131 148.4375
3.939002 67.229 147.9934
3.967546 67.326 147.5516
3.996296 67.424 147.1120
4.025255 67.521 146.6747
4.054423 67.619 146.2397
4.083804 67.716 145.8069
4.113396 67.813 145.3759
4.143204 67.910 144.9467
4.173227 68.006 144.5191
4.203468 68.103 144.0928
4.233928 68.199 143.6676
4.264609 68.296 143.2433
4.295512 68.392 142.8198
4.326639 68.488 142.3968
4.357992 68.585 141.9744
4.389572 68.681 141.5526
4.421380 68.777 141.1313
4.453419 68.874 140.7104
4.485691 68.970 140.2901
4.518196 69.067 139.8700
4.550936 69.163 139.4500
4.583914 69.259 139.0297
4.617131 69.355 138.6090
4.650589 69.452 138.1874
4.684289 69.548 137.7648
4.718233 69.644 137.3409
4.752424 69.740 136.9156
4.786862 69.835 136.4888
4.821549 69.931 136.0606
4.856488 70.027 135.6310
4.891680 70.122 135.1999
4.927127 70.217 134.7673
4.962831 70.313 134.3331
4.998794 70.407 133.8971
5.035017 70.502 133.4593
5.071503 70.596 133.0194
5.108253 70.690 132.5772
5.145270 70.783 132.1327
5.182555 70.876 131.6857
5.220110 70.969 131.2364
5.257937 71.061 130.7848
5.296038 71.152 130.3313
5.334415 71.243 129.8760
5.373071 71.334 129.4192
5.412006 71.424 128.9610
5.451224 71.513 128.5014
5.490725 71.602 128.0404
5.530514 71.689 127.5779
5.570590 71.776 127.1137
5.610957 71.863 126.6482
5.651616 71.948 126.1817
5.692570 72.033 125.7147
5.733821 72.116 125.2477
5.775370 72.199 124.7813
5.817221 72.282 124.3156
5.859375 72.363 123.8508
5.901834 72.443 123.3870
5.944602 72.523 122.9240
5.987679 72.601 122.4620
6.031068 72.679 122.0016
6.074771 72.756 121.5432
6.118792 72.832 121.0875
6.163131 72.907 120.6350
6.207792 72.982 120.1860
6.252776 73.056 119.7407
6.298086 73.129 119.2990
6.343725 73.201 118.8611
6.389694 73.273 118.4269
6.435996 73.344 117.9969
6.482634 73.415 117.5714
6.529610 73.485 117.1508
6.576926 73.555 116.7352
6.624585 73.625 116.3248
6.672590 73.694 115.9196
6.720942 73.764 115.5193
6.769645 73.833 115.1237
6.818700 73.902 114.7328
6.868111 73.971 114.3463
6.917881 74.040 113.9642
6.968010 74.109 113.5864
7.018504 74.179 113.2127
7.069362 74.249 112.8429
7.120590 74.319 112.4764
7.172189 74.389 112.1126
7.224161 74.460 111.7510
7.276511 74.532 111.3910
7.329239 74.603 111.0322
7.382350 74.676 110.6743
7.435845 74.749 110.3168
7.489729 74.822 109.9592
7.544002 74.896 109.6009
7.598669 74.970 109.2412
7.653732 75.044 108.8794
7.709194 75.119 108.5150
7.765058 75.194 108.1477
7.821327 75.270 107.7774
7.878004 75.345 107.4036
7.935091 75.421 107.0261
7.992592 75.496 106.6446
8.050510 75.571 106.2587
8.108847 75.646 105.8683
8.167607 75.721 105.4736
8.226793 75.795 105.0746
8.286408 75.869 104.6717
8.346454 75.943 104.2650
8.406936 76.015 103.8549
8.467856 76.087 103.4416
8.529218 76.158 103.0254
8.591024 76.228 102.6068
8.653278 76.297 102.1866
8.715983 76.365 101.7654
8.779143 76.433 101.3439
8.842760 76.499 100.9225
8.906839 76.564 100.5018
8.971381 76.629 100.0823
9.036392 76.692 99.6647
9.101873 76.755 99.2497
9.167829 76.817 98.8378
9.234263 76.878 98.4293
9.301178 76.939 98.0246
9.368578 76.999 97.6237
9.436467 77.059 97.2269
9.504847 77.118 96.8342
9.573723 77.177 96.4456
9.643099 77.237 96.0611
9.712976 77.296 95.6800
9.783361 77.355 95.3021
9.854255 77.415 94.9267
9.925663 77.474 94.5533
9.997588 77.535 94.1814
10.070035 77.595 93.8102
10.143007 77.656 93.4389
10.216507 77.717 93.0668
10.290540 77.778 92.6931
10.365109 77.839 92.3172
10.440219 77.901 91.9387
10.515873 77.963 91.5569
10.592076 78.024 91.1716
10.668830 78.085 90.7825
10.746141 78.146 90.3895
10.824012 78.206 89.9927
10.902447 78.266 89.5925
10.981451 78.325 89.1893
11.061027 78.383 88.7835
11.141180 78.440 88.3759
11.221913 78.496 87.9672
11.303232 78.551 87.5585
11.385140 78.606 87.1506
11.467641 78.659 86.7444
11.550741 78.711 86.3407
11.634442 78.762 85.9405
11.718750 78.812 85.5444
11.803669 78.862 85.1531
11.889203 78.912 84.7668
11.975357 78.961 84.3857
12.062136 79.010 84.0097
12.149543 79.059 83.6386
12.237583 79.108 83.2718
12.326262 79.157 82.9086
12.415583 79.207 82.5480
12.505552 79.258 82.1888
12.596172 79.309 81.8302
12.687449 79.361 81.4707
12.779387 79.413 81.1092
12.871992 79.465 80.7447
12.965268 79.518 80.3762
13.059220 79.570 80.0031
13.153852 79.623 79.6251
13.249170 79.675 79.2420
13.345179 79.726 78.8541
13.441884 79.777 78.4618
13.539289 79.827 78.0661
13.637401 79.875 77.6681
13.736223 79.922 77.2690
13.835761 79.968 76.8703
13.936021 80.013 76.4735
14.037007 80.057 76.0799
14.138725 80.099 75.6908
14.241180 80.141 75.3071
14.344377 80.182 74.9297
14.448323 80.223 74.5589
14.553021 80.264 74.1944
14.658478 80.305 73.8359
14.764700 80.346 73.4825
14.871691 80.388 73.1328
14.979457 80.431 72.7855
15.088005 80.474 72.4388
15.197339 80.518 72.0912
15.307465 80.562 71.7412
15.418389 80.607 71.3875
15.530117 80.651 71.0291
15.642655 80.696 70.6657
15.756008 80.740 70.2974
15.870182 80.783 69.9246
15.985184 80.825 69.5483
16.101019 80.866 69.1700
16.217694 80.906 68.7911
16.335214 80.945 68.4135
16.453586 80.983 68.0387
16.572815 81.019 67.6681
16.692909 81.055 67.3028
16.813872 81.090 66.9432
16.935713 81.125 66.5894
17.058436 81.160 66.2406
17.182048 81.196 65.8959
17.306556 81.231 65.5536
17.431967 81.267 65.2122
17.558286 81.304 64.8700
17.685521 81.340 64.5256
17.813677 81.376 64.1780
17.942762 81.412 63.8270
18.072783 81.447 63.4730
18.203746 81.480 63.1173
18.335658 81.512 62.7618
18.468526 81.543 62.4090
18.602356 81.572 62.0617
18.737156 81.599 61.7227
18.872934 81.626 61.3944
19.009695 81.652 61.0786
19.147447 81.678 60.7761
19.286197 81.704 60.4865
19.425953 81.732 60.2083
19.566721 81.761 59.9388
19.708510 81.793 59.6745
19.851326 81.826 59.4114
19.995177 81.861 59.1452
20.140070 81.898 58.8722
20.286013 81.936 58.5894
20.433014 81.975 58.2953
20.581080 82.013 57.9893
20.730219 82.051 57.6724
20.880439 82.087 57.3471
21.031747 82.122 57.0164
21.184152 82.155 56.6840
21.337661 82.187 56.3536
21.492282 82.217 56.0283
21.648024 82.246 55.7102
21.804895 82.275 55.4002
21.962902 82.305 55.0978
22.122054 82.335 54.8014
22.282360 82.367 54.5080
22.443827 82.401 54.2141
22.606464 82.435 53.9162
22.770280 82.471 53.6107
22.935283 82.508 53.2950
23.101481 82.545 52.9672
23.268884 82.582 52.6265
23.437500 82.618 52.2733
23.607338 82.653 51.9088
23.778406 82.686 51.5352
23.950714 82.717 51.1551
24.124271 82.746 50.7713
24.299086 82.774 50.3870
24.475167 82.799 50.0052
24.652524 82.823 49.6289
24.831166 82.845 49.2605
25.011103 82.866 48.9018
25.192344 82.887 48.5539
25.374898 82.908 48.2165
25.558775 82.930 47.8878
25.743984 82.954 47.5646
25.930536 82.979 47.2426
26.118439 83.005 46.9163
26.307704 83.033 46.5804
26.498341 83.062 46.2306
26.690359 83.090 45.8645
26.883768 83.117 45.4826
27.078579 83.141 45.0885
27.274801 83.160 44.6891
27.472446 83.176 44.2936
27.671522 83.187 43.9123
27.872042 83.195 43.5550
28.074014 83.201 43.2291
28.277450 83.206 42.9381
28.482360 83.214 42.6807
28.688755 83.225 42.4507
28.896645 83.241 42.2382
29.106042 83.262 42.0310
29.316957 83.287 41.8173
29.529400 83.317 41.5876
29.743382 83.348 41.3362
29.958915 83.379 41.0619
30.176009 83.410 40.7672
30.394677 83.438 40.4577
30.614929 83.465 40.1398
30.836778 83.488 39.8197
31.060234 83.510 39.5019
31.285309 83.531 39.1888
31.512015 83.550 38.8815
31.740364 83.568 38.5798
31.970368 83.586 38.2832
32.202039 83.603 37.9917
32.435388 83.619 37.7054
32.670428 83.635 37.4250
32.907171 83.650 37.1504
33.145630 83.665 36.8811
33.385817 83.681 36.6158
33.627745 83.696 36.3529
33.871425 83.712 36.0912
34.116871 83.727 35.8299
34.364096 83.742 35.5694
34.613113 83.757 35.3104
34.863934 83.771 35.0535
35.116572 83.785 34.7982
35.371041 83.800 34.5427
35.627354 83.814 34.2843
35.885525 83.829 34.0206
36.145566 83.843 33.7505
36.407492 83.856 33.4751
36.671316 83.867 33.1980
36.937051 83.876 32.9238
37.204712 83.884 32.6568
37.474313 83.892 32.3988
37.745867 83.900 32.1485
38.019389 83.909 31.9018
38.294893 83.918 31.6538
38.572394 83.928 31.4005
38.851905 83.938 31.1407
39.133442 83.947 30.8762
39.417019 83.955 30.6103
39.702651 83.963 30.3460
39.990353 83.969 30.0843
40.280140 83.976 29.8240
40.572026 83.983 29.5627
40.866028 83.990 29.2988
41.162160 83.996 29.0332
41.460438 84.000 28.7690
41.760877 84.004 28.5101
42.063494 84.008 28.2590
42.368303 84.012 28.0146
42.675322 84.018 27.7729
42.984565 84.024 27.5292
43.296048 84.030 27.2804
43.609789 84.037 27.0273
43.925804 84.042 26.7739
44.244108 84.047 26.5242
44.564719 84.053 26.2791
44.887654 84.059 26.0345
45.212928 84.067 25.7836
45.540560 84.075 25.5202
45.870565 84.082 25.2441
46.202962 84.085 24.9624
46.537768 84.086 24.6876
46.875000 84.084 24.4318
47.214676 84.083 24.2006
47.556813 84.083 23.9902
47.901429 84.087 23.7890
48.248542 84.093 23.5836
48.598171 84.102 23.3650
48.950334 84.110 23.1322
49.305048 84.116 22.8916
49.662333 84.121 22.6523
50.022206 84.125 22.4209
50.384688 84.128 22.1980
50.749796 84.132 21.9792
51.117550 84.137 21.7577
51.487969 84.142 21.5286
51.861072 84.146 21.2913
52.236879 84.148 21.0501
52.615409 84.147 20.8115
52.996681 84.146 20.5806
53.380717 84.144 20.3581
53.767536 84.142 20.1400
54.157158 84.142 19.9189
54.549603 84.142 19.6887
54.944892 84.141 19.4480
55.343045 84.138 19.2009
55.744084 84.135 18.9550
56.148028 84.130 18.7163
56.554900 84.126 18.4861
56.964720 84.123 18.2606
57.377510 84.121 18.0345
57.793291 84.120 17.8058
58.212085 84.118 17.5765
58.633914 84.116 17.3519
59.058799 84.114 17.1366
59.486764 84.111 16.9319
59.917829 84.109 16.7366
60.352019 84.107 16.5485
60.789354 84.105 16.3654
61.229859 84.102 16.1856
61.673556 84.099 16.0076
62.120468 84.094 15.8302
62.570618 84.087 15.6531
63.024031 84.079 15.4764
63.480729 84.069 15.2993
63.940736 84.059 15.1182
64.404077 84.047 14.9285
64.870776 84.034 14.7277
65.340856 84.019 14.5186
65.814343 84.002 14.3090
66.291261 83.984 14.1082
66.771635 83.966 13.9207
67.255489 83.952 13.7438
67.742850 83.941 13.5695
68.233743 83.934 13.3900
68.728193 83.930 13.2030
69.226226 83.928 13.0106
69.727867 83.927 12.8159
70.233144 83.927 12.6191
70.742083 83.927 12.4198
71.254709 83.925 12.2216
71.771050 83.920 12.0325
72.291132 83.913 11.8611
72.814984 83.904 11.7104
73.342631 83.895 11.5767
73.874102 83.885 11.4521
74.409424 83.875 11.3293
74.948626 83.865 11.2023
75.491734 83.854 11.0667
76.038779 83.842 10.9196
76.589787 83.829 10.7606
77.144788 83.815 10.5916
77.703811 83.800 10.4157
78.266885 83.784 10.2365
78.834039 83.768 10.0569
79.405303 83.751 9.8793
79.980706 83.734 9.7058
80.560280 83.717 9.5378
81.144053 83.701 9.3759
81.732056 83.685 9.2194
82.324320 83.669 9.0673
82.920876 83.653 8.9183
83.521755 83.637 8.7709
84.126988 83.620 8.6245
84.736607 83.602 8.4799
85.350643 83.584 8.3398
85.969129 83.565 8.2067
86.592097 83.545 8.0806
87.219579 83.526 7.9592
87.851608 83.506 7.8397
88.488217 83.486 7.7214
89.129439 83.464 7.6060
89.775308 83.441 7.4960
90.425856 83.416 7.3922
91.081119 83.391 7.2930
91.741131 83.365 7.1954
92.405925 83.338 7.0966
93.075536 83.311 6.9948
93.750000 83.284 6.8879
94.429351 83.258 6.7734
95.113625 83.231 6.6487
95.802858 83.204 6.5128
96.497085 83.176 6.3673
97.196342 83.146 6.2178
97.900667 83.113 6.0734
98.610096 83.077 5.9446
99.324665 83.038 5.8415
100.044413 82.996 5.7714
100.769376 82.951 5.7393
101.499592 82.904 5.7477
102.235100 82.856 5.7990
102.975938 82.808 5.8942
103.722144 82.761 6.0317
104.473757 82.717 6.2063
105.230817 82.677 6.4100
105.993363 82.642 6.6349
106.761435 82.614 6.8723
107.535072 82.594 7.1122
108.314315 82.582 7.3428
109.099206 82.576 7.5527
109.889783 82.576 7.7349
110.686090 82.579 7.8874
111.488167 82.585 8.0127
112.296056 82.590 8.1144
113.109800 82.596 8.1956
113.929440 82.600 8.2581
114.755020 82.603 8.3022
115.586582 82.604 8.3280
116.424170 82.603 8.3365
117.267827 82.598 8.3318
118.117598 82.591 8.3205
118.973527 82.581 8.3099
119.835658 82.570 8.3043
120.704037 82.557 8.3032
121.578708 82.544 8.3059
122.459718 82.529 8.3133
123.347111 82.513 8.3273
124.240935 82.497 8.3495
125.141236 82.480 8.3804
126.048061 82.464 8.4202
126.961458 82.447 8.4683
127.881473 82.431 8.5240
128.808154 82.414 8.5861
129.741551 82.396 8.6527
130.681712 82.377 8.7217
131.628686 82.357 8.7906
132.582521 82.337 8.8591
133.543269 82.318 8.9259
134.510979 82.302 8.9856
135.485701 82.288 9.0302
136.467486 82.277 9.0595
137.456386 82.267 9.0854
138.452451 82.256 9.1234
139.455735 82.246 9.1827
140.466288 82.236 9.2649
141.484165 82.225 9.3648
142.509418 82.213 9.4738
143.542100 82.200 9.5828
144.582265 82.186 9.6844
145.629968 82.172 9.7749
146.685262 82.156 9.8542
147.748204 82.140 9.9253
148.818849 82.123 9.9912
149.897251 82.106 10.0552
150.983469 82.089 10.1203
152.077557 82.070 10.1893
153.179574 82.051 10.2638
154.289576 82.031 10.3442
155.407622 82.011 10.4311
156.533770 81.990 10.5250
157.668078 81.969 10.6269
158.810606 81.946 10.7373
159.961413 81.923 10.8551
161.120559 81.898 10.9771
162.288105 81.871 11.0986
163.464112 81.842 11.2148
164.648640 81.812 11.3218
165.841752 81.782 11.4169
167.043510 81.752 11.4985
168.253976 81.724 11.5656
169.473213 81.700 11.6196
170.701286 81.678 11.6658
171.938258 81.659 11.7122
173.184194 81.642 11.7673
174.439158 81.627 11.8379
175.703216 81.612 11.9269
176.976434 81.596 12.0341
178.258878 81.580 12.1573
179.550615 81.561 12.2941
180.851713 81.542 12.4407
182.162239 81.522 12.5924
183.482262 81.502 12.7423
184.811850 81.482 12.8839
186.151073 81.465 13.0135
187.500000 81.448 13.1332
188.858702 81.432 13.2498
190.227250 81.418 13.3713
191.605715 81.404 13.5028
192.994169 81.390 13.6444
194.392685 81.375 13.7925
195.801334 81.359 13.9434
197.220191 81.340 14.0950
198.649330 81.322 14.2454
200.088825 81.304 14.3914
201.538751 81.289 14.5305
202.999184 81.278 14.6611
204.470200 81.269 14.7841
205.951875 81.262 14.9049
207.444287 81.256 15.0310
208.947514 81.251 15.1685
210.461634 81.246 15.3185
211.986726 81.239 15.4779
213.522869 81.231 15.6415
215.070144 81.222 15.8048
216.628631 81.212 15.9664
218.198411 81.203 16.1268
219.779567 81.195 16.2877
221.372180 81.189 16.4509
222.976334 81.186 16.6176
224.592112 81.185 16.7866
226.219600 81.185 16.9570
227.858880 81.185 17.1279
229.510039 81.185 17.2998
231.173164 81.184 17.4733
232.848340 81.182 17.6486
234.535655 81.179 17.8242
236.235197 81.175 17.9971
237.947054 81.172 18.1646
239.671317 81.169 18.3260
241.408074 81.166 18.4823
243.157416 81.165 18.6343
244.919435 81.164 18.7828
246.694223 81.163 18.9285
248.481871 81.161 19.0719
250.282473 81.159 19.2150
252.096123 81.156 19.3604
253.922915 81.153 19.5101
255.762945 81.152 19.6634
257.616309 81.152 19.8170
259.483103 81.154 19.9675
261.363424 81.160 20.1147
263.257372 81.167 20.2620
265.165043 81.176 20.4139
267.086538 81.185 20.5730
269.021957 81.193 20.7374
270.971401 81.201 20.9033
272.934972 81.207 21.0671
274.912771 81.213 21.2267
276.904902 81.219 21.3825
278.911469 81.225 21.5358
280.932577 81.233 21.6871
282.968330 81.243 21.8352
285.018835 81.256 21.9780
287.084199 81.270 22.1146
289.164530 81.286 22.2446
291.259935 81.302 22.3676
293.370525 81.318 22.4835
295.496408 81.335 22.5938
297.637697 81.351 22.7010
299.794503 81.368 22.8093
301.966937 81.385 22.9215
304.155114 81.400 23.0371
306.359147 81.416 23.1521
308.579152 81.430 23.2616
310.815244 81.444 23.3627
313.067539 81.457 23.4553
315.336156 81.471 23.5397
317.621211 81.486 23.6161
319.922826 81.502 23.6851
322.241118 81.519 23.7475
324.576210 81.537 23.8047
326.928223 81.555 23.8589
329.297280 81.571 23.9139
331.683504 81.587 23.9738
334.087019 81.601 24.0411
336.507952 81.615 24.1144
338.946427 81.630 24.1871
341.402572 81.647 24.2502
343.876516 81.664 24.2969
346.368387 81.681 24.3262
348.878315 81.698 24.3434
351.406431 81.714 24.3565
353.952867 81.729 24.3713
356.517756 81.744 24.3898
359.101230 81.758 24.4118
361.703426 81.773 24.4381
364.324478 81.788 24.4706
366.964523 81.801 24.5088
369.623699 81.814 24.5478
372.302145 81.825 24.5818
375.000000 81.834 24.6093
377.717405 81.844 24.6313
380.454501 81.853 24.6473
383.211431 81.861 24.6539
385.988339 81.869 24.6495
388.785369 81.876 24.6362
391.602668 81.882 24.6188
394.440383 81.888 24.6011
397.298660 81.892 24.5857
400.177650 81.895 24.5743
403.077502 81.896 24.5696
405.998368 81.895 24.5759
408.940400 81.891 24.5999
411.903750 81.885 24.6481
414.888575 81.879 24.7250
417.895028 81.873 24.8297
420.923268 81.870 24.9547
423.973452 81.872 25.0869
427.045738 81.879 25.2117
430.140287 81.889 25.3184
433.257261 81.902 25.4025
436.396822 81.914 25.4650
439.559133 81.926 25.5105
442.744360 81.936 25.5469
445.952668 81.943 25.5820
449.184225 81.949 25.6212
452.439199 81.953 25.6674
455.717760 81.955 25.7218
459.020079 81.955 25.7850
462.346327 81.955 25.8582
465.696680 81.954 25.9441
469.071310 81.954 26.0457
472.470394 81.955 26.1621
475.894109 81.957 26.2898
479.342634 81.960 26.4257
482.816148 81.966 26.5685
486.314833 81.972 26.7173
489.838871 81.979 26.8688
493.388445 81.987 27.0188
496.963741 81.993 27.1659
500.564945 81.998 27.3115
504.192245 82.000 27.4574
507.845830 82.000 27.6042
511.525890 81.999 27.7524
515.232618 81.996 27.9006
518.966206 81.993 28.0466
522.726849 81.989 28.1863
526.514743 81.985 28.3173
530.330086 81.982 28.4409
534.173076 81.980 28.5612
538.043915 81.978 28.6817
541.942803 81.978 28.8039
545.869944 81.977 28.9276
549.825542 81.975 29.0531
553.809805 81.974 29.1819
557.822939 81.974 29.3156
561.865154 81.976 29.4548
565.936660 81.980 29.5991
570.037671 81.985 29.7474
574.168399 81.992 29.8983
578.329060 81.999 30.0499
582.519870 82.007 30.2006
586.741049 82.015 30.3513
590.992817 82.022 30.5042
595.275394 82.029 30.6618
599.589005 82.035 30.8267
603.933874 82.040 30.9994
608.310228 82.047 31.1770
612.718295 82.055 31.3538
617.158304 82.064 31.5236
621.630488 82.075 31.6822
626.135079 82.086 31.8290
630.672311 82.096 31.9673
635.242423 82.106 32.1021
639.845651 82.116 32.2376
644.482237 82.125 32.3759
649.152421 82.133 32.5183
653.856447 82.142 32.6664
658.594560 82.152 32.8203
663.367008 82.164 32.9756
668.174039 82.178 33.1238
673.015903 82.195 33.2585
677.892854 82.212 33.3815
682.805145 82.230 33.5015
687.753032 82.248 33.6261
692.736774 82.264 33.7584
697.756631 82.279 33.8980
702.812863 82.293 34.0421
707.905735 82.306 34.1857
713.035511 82.320 34.3219
718.202461 82.334 34.4442
723.406852 82.349 34.5488
728.648956 82.366 34.6363
733.929047 82.383 34.7118
739.247399 82.401 34.7824
744.604290 82.419 34.8554
750.000000 82.436 34.9390
755.434809 82.454 35.0411
760.909001 82.472 35.1667
766.422861 82.491 35.3141
771.976677 82.510 35.4761
777.570739 82.531 35.6442
783.205337 82.552 35.8106
788.880766 82.574 35.9695
794.597321 82.595 36.1180
800.355301 82.615 36.2555
806.155005 82.633 36.3830
811.996736 82.650 36.5015
817.880799 82.667 36.6127
823.807501 82.685 36.7196
829.777150 82.705 36.8251
835.790057 82.726 36.9315
841.846536 82.748 37.0405
847.946903 82.772 37.1539
854.091476 82.796 37.2722
860.280575 82.820 37.3941
866.514523 82.844 37.5156
872.793644 82.867 37.6304
879.118267 82.891 37.7317
885.488720 82.914 37.8144
891.905336 82.939 37.8765
898.368450 82.965 37.9207
904.878398 82.992 37.9543
911.435520 83.020 37.9870
918.040157 83.048 38.0274
924.692655 83.077 38.0807
931.393359 83.107 38.1479
938.142619 83.139 38.2272
944.940787 83.173 38.3153
951.788218 83.209 38.4073
958.685268 83.247 38.4985
965.632296 83.287 38.5852
972.629666 83.327 38.6636
979.677741 83.367 38.7291
986.776890 83.404 38.7783
993.927482 83.438 38.8108
1001.129891 83.470 38.8302
1008.384491 83.500 38.8434
1015.691660 83.530 38.8578
1023.051781 83.561 38.8779
1030.465236 83.594 38.9032
1037.932411 83.629 38.9306
1045.453698 83.666 38.9569
1053.029486 83.703 38.9792
1060.660172 83.740 38.9932
1068.346153 83.775 38.9941
1076.087829 83.808 38.9798
1083.885605 83.840 38.9516
1091.739887 83.870 38.9135
1099.651084 83.899 38.8725
1107.619609 83.929 38.8374
1115.645878 83.960 38.8148
1123.730308 83.992 38.8068
1131.873321 84.026 38.8109
1140.075341 84.062 38.8211
1148.336797 84.097 38.8279
1156.658119 84.132 38.8216
1165.039741 84.164 38.7941
1173.482099 84.193 38.7420
1181.985634 84.220 38.6680
1190.550789 84.244 38.5790
1199.178011 84.264 38.4822
1207.867749 84.283 38.3833
1216.620457 84.300 38.2877
1225.436590 84.315 38.2002
1234.316609 84.330 38.1228
1243.260976 84.345 38.0537
1252.270157 84.358 37.9883
1261.344623 84.370 37.9213
1270.484846 84.380 37.8468
1279.691303 84.387 37.7601
1288.964474 84.390 37.6572
1298.304842 84.390 37.5360
1307.712894 84.388 37.3970
1317.189120 84.384 37.2443
1326.734016 84.379 37.0844
1336.348077 84.372 36.9248
1346.031806 84.364 36.7739
1355.785708 84.354 36.6396
1365.610290 84.342 36.5293
1375.506065 84.328 36.4478
1385.473549 84.311 36.3990
1395.513261 84.294 36.3853
1405.625726 84.275 36.4065
1415.811469 84.254 36.4593
1426.071023 84.232 36.5371
1436.404921 84.207 36.6314
1446.813703 84.179 36.7343
1457.297912 84.148 36.8416
1467.858093 84.115 36.9547
1478.494798 84.081 37.0797
1489.208581 84.045 37.2255
1500.000000 84.009 37.4018
1510.869618 83.974 37.6176
1521.818002 83.939 37.8799
1532.845723 83.904 38.1916
1543.953355 83.870 38.5500
1555.141477 83.836 38.9471
1566.410674 83.802 39.3727
1577.761531 83.766 39.8188
1589.194642 83.730 40.2808
1600.710601 83.692 40.7586
1612.310010 83.654 41.2573
1623.993473 83.617 41.7866
1635.761599 83.583 42.3592
1647.615002 83.554 42.9879
1659.554299 83.531 43.6846
1671.580114 83.515 44.4598
1683.693072 83.508 45.3228
1695.893807 83.513 46.2783
1708.182952 83.534 47.3243
1720.561150 83.573 48.4510
1733.029045 83.634 49.6394
1745.587288 83.718 50.8596
1758.236533 83.825 52.0707
1770.977440 83.954 53.2249
1783.810673 84.102 54.2759
1796.736900 84.266 55.1890
1809.756796 84.440 55.9453
1822.871040 84.620 56.5445
1836.080315 84.803 57.0028
1849.385310 84.986 57.3485
1862.786718 85.168 57.6138
1876.285239 85.348 57.8253
1889.881575 85.526 57.9987
1903.576436 85.704 58.1377
1917.370535 85.880 58.2351
1931.264593 86.055 58.2763
1945.259332 86.228 58.2440
1959.355483 86.398 58.1234
1973.553781 86.565 57.9072
1987.854965 86.728 57.5989
2002.259781 86.885 57.2132
2016.768981 87.037 56.7708
2031.383320 87.182 56.2901
2046.103561 87.321 55.7821
2060.930471 87.454 55.2526
2075.864823 87.580 54.7057
2090.907395 87.697 54.1436
2106.058972 87.805 53.5641
2121.320344 87.902 52.9600
2136.692305 87.990 52.3240
2152.175658 88.068 51.6550
2167.771210 88.140 50.9613
2183.479774 88.205 50.2615
2199.302169 88.266 49.5778
2215.239219 88.323 48.9282
2231.291755 88.377 48.3209
2247.460615 88.427 47.7526
2263.746641 88.474 47.2104
2280.150683 88.516 46.6736
2296.673595 88.553 46.1212
2313.316238 88.584 45.5402
2330.079481 88.609 44.9287
2346.964198 88.630 44.2950
2363.971268 88.646 43.6553
2381.101578 88.660 43.0305
2398.356022 88.672 42.4402
2415.735498 88.684 41.8963
2433.240913 88.695 41.4015
2450.873180 88.708 40.9501
2468.633217 88.721 40.5293
2486.521951 88.734 40.1209
2504.540314 88.746 39.7046
2522.689246 88.755 39.2624
2540.969692 88.762 38.7816
2559.382606 88.765 38.2568
2577.928947 88.767 37.6899
2596.609683 88.766 37.0890
2615.425787 88.763 36.4662
2634.378241 88.758 35.8349
2653.468031 88.751 35.2090
2672.696154 88.740 34.6015
2692.063613 88.728 34.0247
2711.571415 88.714 33.4919
2731.220579 88.700 33.0166
2751.012130 88.687 32.6067
2770.947098 88.676 32.2592
2791.026522 88.666 31.9590
2811.251451 88.659 31.6817
2831.622938 88.652 31.3991
2852.142045 88.647 31.0858
2872.809842 88.641 30.7243
2893.627406 88.634 30.3086
2914.595823 88.623 29.8471
2935.716186 88.609 29.3609
2956.989596 88.592 28.8770
2978.417161 88.572 28.4189
3000.000000 88.550 28.0003
3021.739237 88.526 27.6230
3043.636005 88.500 27.2799
3065.691446 88.470 26.9569
3087.906710 88.437 26.6348
3110.282955 88.400 26.2937
3132.821347 88.358 25.9202
3155.523062 88.313 25.5109
3178.389283 88.266 25.0697
3201.421202 88.216 24.6061
3224.620020 88.165 24.1333
3247.986946 88.113 23.6646
3271.523198 88.061 23.2102
3295.230004 88.007 22.7779
3319.108599 87.954 22.3754
3343.160228 87.901 22.0133
3367.386145 87.849 21.7042
3391.787613 87.799 21.4586
3416.365904 87.751 21.2808
3441.122300 87.707 21.1646
3466.058091 87.666 21.0933
3491.174576 87.625 21.0415
3516.473066 87.584 20.9804
3541.954880 87.542 20.8854
3567.621345 87.496 20.7421
3593.473800 87.447 20.5494
3619.513592 87.396 20.3214
3645.742080 87.342 20.0844
3672.160630 87.287 19.8704
3698.770620 87.232 19.7075
3725.573436 87.177 19.6111
3752.570477 87.123 19.5790
3779.763150 87.071 19.5924
3807.152872 87.018 19.6216
3834.741071 86.965 19.6368
3862.529185 86.909 19.6149
3890.518664 86.850 19.5430
3918.710966 86.786 19.4203
3947.107561 86.718 19.2609
3975.709929 86.648 19.0925
4004.519563 86.575 18.9476
4033.537962 86.501 18.8518
4062.766641 86.428 18.8173
4092.207123 86.356 18.8423
4121.860942 86.285 18.9128
4151.729646 86.216 19.0070
4181.814790 86.148 19.1000
4212.117944 86.078 19.1703
4242.640687 86.007 19.2058
4273.384610 85.934 19.2091
4304.351317 85.860 19.1990
4335.542421 85.786 19.2071
4366.959549 85.713 19.2692
4398.604338 85.643 19.4137
4430.478438 85.576 19.6521
4462.583511 85.512 19.9757
4494.921231 85.451 20.3586
4527.493283 85.392 20.7641
4560.301365 85.335 21.1545
4593.347189 85.279 21.5009
4626.632476 85.226 21.7881
4660.158962 85.175 22.0168
4693.928395 85.129 22.2004
4727.942535 85.087 22.3578
4762.203156 85.051 22.5065
4796.712043 85.021 22.6606
4831.470996 84.999 22.8323
4866.481826 84.984 23.0336
4901.746360 84.979 23.2797
4937.266434 84.984 23.5887
4973.043902 85.000 23.9775
5009.080628 85.028 24.4521
5045.378492 85.069 25.0019
5081.939384 85.123 25.5963
5118.765212 85.190 26.1874
5155.857894 85.269 26.7177
5193.219366 85.360 27.1330
5230.851574 85.459 27.3958
5268.756481 85.568 27.4923
5306.936062 85.686 27.4315
5345.392309 85.811 27.2386
5384.127225 85.942 26.9448
5423.142830 86.079 26.5784
5462.441159 86.218 26.1544
5502.024259 86.356 25.6678
5541.894195 86.489 25.0924
5582.053045 86.614 24.3875
5622.502902 86.726 23.5109
5663.245876 86.821 22.4308
5704.284090 86.897 21.1346
5745.619684 86.950 19.6329
5787.254813 86.980 17.9567
5829.191647 86.985 16.1479
5871.432373 86.963 14.2507
5913.979192 86.914 12.3086
5956.834323 86.837 10.3643
6000.000000 86.732 8.4603
6043.478473 86.601 6.6414
6087.272010 86.444 4.9559
6131.382892 86.265 3.4550
6175.813420 86.064 2.1852
6220.565910 85.847 1.1790
6265.642695 85.616 0.4465
6311.046124 85.377 -0.0286
6356.778566 85.135 -0.2910
6402.842404 84.896 -0.4120
6449.240040 84.665 -0.4826
6495.973891 84.440 -0.5875
6543.046396 84.215 -0.7594
6590.460007 83.982 -0.9530
6638.217197 83.737 -1.0676
6686.320456 83.482 -0.9922
6734.772290 83.221 -0.6382
6783.575226 82.962 0.0433
6832.731809 82.709 1.0575
6882.244600 82.470 2.3748
6932.116181 82.248 3.9446
6982.349153 82.049 5.7109
7032.946133 81.881 7.6210
7083.909760 81.752 9.6285
7135.242690 81.670 11.6912
7186.947600 81.640 13.7741
7239.027185 81.665 15.8647
7291.484160 81.742 17.9856
7344.321260 81.873 20.1710
7397.541239 82.060 22.4191
7451.146872 82.309 24.6622
7505.140954 82.624 26.7719
7559.526299 83.003 28.5855
7614.305743 83.442 29.9392
7669.482141 83.930 30.6965
7725.058371 84.452 30.7688
7781.037328 84.992 30.1228
7837.421932 85.529 28.7758
7894.215122 86.043 26.7834
7951.419859 86.510 24.2274
8009.039125 86.911 21.2048
8067.075924 87.227 17.8186
8125.533282 87.444 14.1723
8184.414245 87.552 10.3698
8243.721885 87.549 6.5157
8303.459292 87.440 2.7123
8363.629581 87.235 -0.9420
8424.235888 86.950 -4.3497
8485.281374 86.605 -7.4146
8546.769221 86.220 -10.0492
8608.702634 85.817 -12.1860
8671.084842 85.414 -13.7892
8733.919097 85.028 -14.8654
8797.208675 84.670 -15.4725
8860.956876 84.347 -15.7170
8925.167022 84.062 -15.7360
8989.842461 83.815 -15.6749
9054.986566 83.603 -15.6667
9120.602731 83.424 -15.8138
9186.694378 83.275 -16.1752
9253.264952 83.151 -16.7674
9320.317925 83.052 -17.5800
9387.856790 82.974 -18.5956
9455.885071 82.912 -19.8011
9524.406312 82.864 -21.1887
9593.424086 82.826 -22.7506
9662.941992 82.792 -24.4723
9732.963653 82.758 -26.3269
9803.492719 82.717 -28.2770
9874.532869 82.663 -30.2837
9946.087805 82.589 -32.3230
10018.161257 82.489 -34.3967
10090.756983 82.354 -36.5325
10163.878768 82.179 -38.7720
10237.530423 81.958 -41.1544
10311.715789 81.685 -43.7021
10386.438732 81.359 -46.4059
10461.703149 80.976 -49.2138
10537.512962 80.540 -52.0344
10613.872125 80.052 -54.7505
10690.784618 79.516 -57.2382
10768.254450 78.937 -59.3857
10846.285661 78.322 -61.1154
10924.882318 77.675 -62.3990
11004.048518 77.002 -63.2587
11083.788390 76.309 -63.7550
11164.106090 75.601 -63.9713
11245.005805 74.882 -63.9939
11326.491752 74.158 -63.8896
11408.568180 73.431 -63.6905
11491.239368 72.705 -63.3961
11574.509626 71.984 -62.9857
11658.383294 71.270 -62.4310
11742.864745 70.567 -61.7011
11827.958384 69.877 -60.7645
11913.668646 69.201 -59.5884
12000.000000 68.542 -58.1346
12086.956947 67.898 -56.3560
12174.544019 67.272 -54.1970
12262.765784 66.665 -51.6079
12351.626840 66.077 -48.5674
12441.131819 65.509 -45.1002
12531.285389 64.962 -41.2750
12622.092249 64.436 -37.1880
12713.557132 63.931 -32.9396
12805.684808 63.448 -28.6031
12898.480079 62.986 -24.1934
12991.947783 62.552 -19.6505
13086.092792 62.151 -14.8484
13180.920015 61.796 -9.6171
13276.434395 61.502 -3.7716
13372.640911 61.292 2.8477
13469.544580 61.195 10.3170
13567.150452 61.243 18.5674
13665.463617 61.469 27.3481
13764.489200 61.897 36.2381
13864.232362 62.536 44.7262
13964.698305 63.375 52.3339
14065.892266 64.386 58.7205
14167.819519 65.527 63.7104
14270.485380 66.750 67.2594
14373.895200 68.007 69.4033
14478.054370 69.254 70.2156
14582.968320 70.451 69.7762
14688.642520 71.562 68.1599
14795.082478 72.558 65.4474
14902.293745 73.413 61.7448
15010.281908 74.109 57.1985
15119.052599 74.639 51.9998
15228.611486 75.006 46.3848
15338.964283 75.228 40.6210
15450.116741 75.334 34.9771
15562.074656 75.359 29.6811
15674.843864 75.340 24.8854
15788.430244 75.312 20.6432
15902.839718 75.300 16.8938
16018.078250 75.319 13.4617
16134.151848 75.371 10.0902
16251.066563 75.445 6.4990
16368.828491 75.518 2.4388
16487.443769 75.563 -2.2695
16606.918584 75.547 -7.7036
16727.259161 75.439 -13.8169
16848.471777 75.213 -20.4453
16970.562748 74.849 -27.3450
17093.538442 74.339 -34.2421
17217.405268 73.685 -40.8759
17342.169684 72.901 -47.0259
17467.838194 72.008 -52.5187
17594.417350 71.029 -57.2234
17721.913751 69.991 -61.0426
17850.334044 68.923 -63.9045
17979.684923 67.849 -65.7692
18109.973131 66.795 -66.6565
18241.205462 65.779 -66.6759
18373.388756 64.815 -66.0322
18506.529905 63.912 -64.9988
18640.635849 63.072 -63.8724
18775.713581 62.292 -62.9201
18911.770141 61.565 -62.3265
19048.812624 60.881 -62.1667
19186.848172 60.226 -62.4139
19325.883983 59.592 -62.9692
19465.927305 58.976 -63.6931
19606.985439 58.391 -64.4362
19749.065738 57.869 -65.0724
19892.175609 57.464 -65.5221
20036.322514 57.240 -65.7507
