* Measurement data measured by REW V5.31.3
* Source: Headset (CX31993 HIFI AUDIO), MICROPHONE (Master Volume), R, volume: 0.250
* Format: 256k Log Swept Sine, 1 sweep at -12.0 dBFS with no timing reference
* Dated: 12 31, 24 1:01:02 PM
* REW Settings:
*  C-weighting compensation: Off
*  Target level: 75.0 dB
* Note: ; 
* Measurement: Sony LB 400 MIN L
* Smoothing: 1/12 octave
* Frequency Step: 96 ppo
* Start Frequency: 0.36621094 Hz
*
* Freq(Hz) SPL(dB) Phase(degrees)
0.366211 31.531 131.6428
0.368865 31.516 131.6581
0.371538 31.494 131.6795
0.374230 31.466 131.7035
0.376942 31.435 131.7270
0.379673 31.402 131.7478
0.382424 31.367 131.7644
0.385196 31.331 131.7757
0.387987 31.294 131.7811
0.390798 31.257 131.7802
0.393630 31.220 131.7727
0.396483 31.182 131.7585
0.399356 31.144 131.7375
0.402250 31.105 131.7093
0.405165 31.067 131.6741
0.408101 31.028 131.6316
0.411058 30.989 131.5816
0.414037 30.949 131.5242
0.417037 30.909 131.4590
0.420059 30.869 131.3860
0.423103 30.829 131.3050
0.426169 30.788 131.2158
0.429257 30.747 131.1183
0.432368 30.706 131.0121
0.435501 30.665 130.8972
0.438656 30.623 130.7733
0.441835 30.581 130.6402
0.445037 30.538 130.4976
0.448262 30.495 130.3451
0.451510 30.452 130.1826
0.454782 30.409 130.0096
0.458077 30.365 129.8259
0.461397 30.321 129.6310
0.464740 30.277 129.4245
0.468108 30.232 129.2060
0.471500 30.187 128.9750
0.474917 30.142 128.7309
0.478358 30.096 128.4731
0.481825 30.051 128.2010
0.485316 30.004 127.9138
0.488833 29.958 127.6107
0.492375 29.911 127.2908
0.495943 29.863 126.9530
0.499537 29.816 126.5963
0.503157 29.768 126.2193
0.506803 29.719 125.8206
0.510475 29.671 125.3983
0.514175 29.622 124.9506
0.517900 29.572 124.4752
0.521653 29.523 123.9694
0.525434 29.473 123.4300
0.529241 29.422 122.8533
0.533076 29.371 122.2348
0.536939 29.320 121.5691
0.540830 29.268 120.8496
0.544749 29.217 120.0679
0.548696 29.164 119.2136
0.552673 29.111 118.2738
0.556677 29.058 117.2311
0.560711 29.005 116.0631
0.564774 28.951 114.7396
0.568867 28.897 113.2187
0.572989 28.842 111.4416
0.577141 28.787 109.3222
0.581324 28.732 106.7308
0.585536 28.676 103.4632
0.589779 28.620 99.1836
0.594053 28.563 93.3131
0.598358 28.506 84.8188
0.602694 28.449 71.9124
0.607061 28.391 52.3292
0.611460 28.332 26.8244
0.615891 28.274 2.8431
0.620354 28.214 -14.2299
0.624849 28.155 -25.3962
0.629377 28.095 -32.9100
0.633938 28.034 -38.2630
0.638532 27.974 -42.2961
0.643159 27.912 -45.4841
0.647819 27.851 -48.1075
0.652514 27.788 -50.3392
0.657242 27.726 -52.2910
0.662005 27.663 -54.0377
0.666802 27.599 -55.6311
0.671634 27.535 -57.1084
0.676501 27.471 -58.4966
0.681403 27.406 -59.8158
0.686341 27.341 -61.0814
0.691314 27.276 -62.3049
0.696324 27.211 -63.4954
0.701370 27.147 -64.6597
0.706452 27.085 -65.8025
0.711571 27.028 -66.9267
0.716728 26.979 -68.0332
0.721921 26.942 -69.1206
0.727153 26.924 -70.1849
0.732422 26.931 -71.2200
0.737729 26.968 -72.2184
0.743075 27.033 -73.1738
0.748460 27.124 -74.0819
0.753883 27.236 -74.9414
0.759346 27.365 -75.7532
0.764849 27.509 -76.5194
0.770391 27.666 -77.2434
0.775974 27.835 -77.9287
0.781597 28.016 -78.5787
0.787261 28.208 -79.1970
0.792966 28.411 -79.7868
0.798712 28.624 -80.3511
0.804500 28.848 -80.8927
0.810329 29.081 -81.4143
0.816201 29.325 -81.9182
0.822116 29.579 -82.4065
0.828073 29.842 -82.8813
0.834074 30.114 -83.3444
0.840118 30.396 -83.7975
0.846206 30.686 -84.2421
0.852338 30.985 -84.6798
0.858514 31.292 -85.1118
0.864735 31.606 -85.5395
0.871001 31.929 -85.9640
0.877313 32.258 -86.3863
0.883670 32.595 -86.8075
0.890074 32.937 -87.2285
0.896524 33.286 -87.6504
0.903020 33.640 -88.0738
0.909564 34.000 -88.4997
0.916155 34.364 -88.9287
0.922794 34.732 -89.3617
0.929481 35.104 -89.7994
0.936216 35.479 -90.2423
0.943000 35.857 -90.6913
0.949834 36.236 -91.1468
0.956717 36.617 -91.6096
0.963649 36.998 -92.0801
0.970632 37.380 -92.5591
0.977666 37.761 -93.0471
0.984750 38.140 -93.5446
0.991886 38.518 -94.0523
0.999074 38.892 -94.5705
1.006314 39.263 -95.0999
1.013606 39.630 -95.6411
1.020951 39.991 -96.1944
1.028349 40.346 -96.7605
1.035801 40.694 -97.3398
1.043307 41.034 -97.9327
1.050867 41.366 -98.5398
1.058482 41.688 -99.1612
1.066152 42.000 -99.7972
1.073878 42.301 -100.4475
1.081660 42.591 -101.1118
1.089498 42.871 -101.7889
1.097393 43.141 -102.4771
1.105345 43.402 -103.1742
1.113355 43.655 -103.8777
1.121423 43.902 -104.5852
1.129549 44.142 -105.2947
1.137734 44.376 -106.0045
1.145979 44.606 -106.7134
1.154283 44.830 -107.4206
1.162647 45.049 -108.1252
1.171072 45.264 -108.8268
1.179558 45.475 -109.5248
1.188106 45.681 -110.2191
1.196715 45.882 -110.9093
1.205387 46.080 -111.5954
1.214122 46.274 -112.2771
1.222920 46.464 -112.9546
1.231782 46.650 -113.6278
1.240708 46.833 -114.2968
1.249699 47.012 -114.9618
1.258754 47.188 -115.6229
1.267876 47.362 -116.2804
1.277063 47.533 -116.9345
1.286318 47.701 -117.5856
1.295639 47.867 -118.2339
1.305027 48.031 -118.8799
1.314484 48.194 -119.5238
1.324009 48.355 -120.1663
1.333604 48.515 -120.8075
1.343268 48.674 -121.4482
1.353002 48.833 -122.0886
1.362806 48.991 -122.7295
1.372681 49.150 -123.3711
1.382628 49.310 -124.0143
1.392647 49.470 -124.6594
1.402739 49.631 -125.3070
1.412904 49.795 -125.9578
1.423142 49.960 -126.6122
1.433455 50.126 -127.2708
1.443843 50.295 -127.9338
1.454305 50.466 -128.6015
1.464844 50.638 -129.2737
1.475459 50.810 -129.9501
1.486150 50.983 -130.6301
1.496920 51.154 -131.3132
1.507767 51.325 -131.9986
1.518693 51.494 -132.6857
1.529698 51.663 -133.3740
1.540783 51.829 -134.0632
1.551948 51.994 -134.7527
1.563194 52.158 -135.4424
1.574521 52.320 -136.1320
1.585931 52.481 -136.8213
1.597423 52.641 -137.5101
1.608999 52.799 -138.1984
1.620658 52.956 -138.8862
1.632402 53.112 -139.5735
1.644232 53.267 -140.2603
1.656146 53.421 -140.9467
1.668147 53.574 -141.6329
1.680235 53.726 -142.3190
1.692411 53.877 -143.0053
1.704675 54.028 -143.6920
1.717028 54.178 -144.3794
1.729470 54.328 -145.0678
1.742003 54.477 -145.7576
1.754626 54.626 -146.4492
1.767341 54.775 -147.1432
1.780147 54.924 -147.8400
1.793047 55.072 -148.5403
1.806040 55.221 -149.2448
1.819128 55.369 -149.9543
1.832310 55.517 -150.6697
1.845587 55.664 -151.3914
1.858961 55.810 -152.1198
1.872432 55.955 -152.8548
1.886001 56.099 -153.5960
1.899667 56.242 -154.3425
1.913433 56.384 -155.0936
1.927299 56.525 -155.8483
1.941265 56.664 -156.6057
1.955332 56.802 -157.3648
1.969501 56.939 -158.1248
1.983773 57.075 -158.8849
1.998148 57.210 -159.6443
2.012627 57.344 -160.4024
2.027212 57.477 -161.1585
2.041902 57.608 -161.9122
2.056698 57.740 -162.6630
2.071602 57.870 -163.4105
2.086614 58.000 -164.1545
2.101734 58.128 -164.8947
2.116964 58.257 -165.6312
2.132304 58.384 -166.3640
2.147756 58.512 -167.0936
2.163320 58.638 -167.8207
2.178996 58.764 -168.5464
2.194786 58.889 -169.2721
2.210690 59.013 -169.9995
2.226710 59.137 -170.7301
2.242845 59.259 -171.4647
2.259098 59.380 -172.2036
2.275468 59.499 -172.9466
2.291957 59.617 -173.6930
2.308566 59.734 -174.4420
2.325295 59.850 -175.1925
2.342145 59.964 -175.9433
2.359117 60.078 -176.6935
2.376212 60.190 -177.4418
2.393431 60.301 -178.1872
2.410775 60.411 -178.9288
2.428244 60.521 -179.6654
2.445840 60.629 179.6038
2.463564 60.737 178.8795
2.481416 60.844 178.1622
2.499397 60.950 177.4525
2.517509 61.055 176.7500
2.535752 61.160 176.0543
2.554127 61.263 175.3643
2.572635 61.366 174.6782
2.591277 61.468 173.9941
2.610055 61.568 173.3108
2.628968 61.667 172.6272
2.648019 61.765 171.9431
2.667208 61.862 171.2590
2.686535 61.957 170.5754
2.706003 62.051 169.8934
2.725612 62.144 169.2141
2.745363 62.236 168.5387
2.765257 62.326 167.8685
2.785295 62.417 167.2047
2.805478 62.506 166.5486
2.825808 62.595 165.9014
2.846285 62.683 165.2642
2.866910 62.771 164.6376
2.887685 62.858 164.0220
2.908611 62.945 163.4175
2.929688 63.031 162.8231
2.950917 63.116 162.2378
2.972301 63.200 161.6602
2.993839 63.284 161.0892
3.015534 63.366 160.5242
3.037386 63.448 159.9650
3.059396 63.528 159.4116
3.081565 63.608 158.8644
3.103896 63.688 158.3242
3.126388 63.767 157.7914
3.149043 63.845 157.2670
3.171862 63.924 156.7517
3.194847 64.003 156.2464
3.217998 64.082 155.7520
3.241317 64.161 155.2691
3.264805 64.241 154.7983
3.288463 64.321 154.3399
3.312293 64.401 153.8939
3.336295 64.481 153.4597
3.360471 64.562 153.0370
3.384822 64.642 152.6249
3.409350 64.723 152.2229
3.434056 64.804 151.8300
3.458940 64.885 151.4458
3.484005 64.967 151.0696
3.509252 65.049 150.7009
3.534681 65.132 150.3393
3.560295 65.217 149.9845
3.586094 65.302 149.6365
3.612081 65.389 149.2953
3.638255 65.478 148.9615
3.664620 65.568 148.6355
3.691175 65.659 148.3181
3.717923 65.752 148.0093
3.744864 65.847 147.7090
3.772001 65.942 147.4163
3.799335 66.039 147.1299
3.826866 66.138 146.8481
3.854597 66.238 146.5692
3.882529 66.339 146.2914
3.910664 66.442 146.0131
3.939002 66.546 145.7329
3.967546 66.652 145.4499
3.996296 66.760 145.1638
4.025255 66.869 144.8747
4.054423 66.980 144.5834
4.083804 67.093 144.2907
4.113396 67.207 143.9968
4.143204 67.324 143.7012
4.173227 67.442 143.4030
4.203468 67.561 143.1007
4.233928 67.681 142.7926
4.264609 67.803 142.4771
4.295512 67.925 142.1525
4.326639 68.048 141.8176
4.357992 68.172 141.4717
4.389572 68.296 141.1146
4.421380 68.421 140.7466
4.453419 68.547 140.3685
4.485691 68.673 139.9810
4.518196 68.800 139.5842
4.550936 68.928 139.1784
4.583914 69.055 138.7631
4.617131 69.183 138.3380
4.650589 69.310 137.9024
4.684289 69.437 137.4558
4.718233 69.563 136.9975
4.752424 69.688 136.5273
4.786862 69.813 136.0450
4.821549 69.937 135.5509
4.856488 70.059 135.0458
4.891680 70.181 134.5305
4.927127 70.302 134.0059
4.962831 70.422 133.4732
4.998794 70.541 132.9330
5.035017 70.658 132.3860
5.071503 70.773 131.8323
5.108253 70.887 131.2719
5.145270 70.999 130.7045
5.182555 71.109 130.1298
5.220110 71.217 129.5480
5.257937 71.323 128.9603
5.296038 71.427 128.3678
5.334415 71.529 127.7722
5.373071 71.630 127.1751
5.412006 71.728 126.5778
5.451224 71.824 125.9810
5.490725 71.918 125.3848
5.530514 72.010 124.7892
5.570590 72.099 124.1937
5.610957 72.186 123.5988
5.651616 72.272 123.0055
5.692570 72.355 122.4151
5.733821 72.436 121.8294
5.775370 72.515 121.2499
5.817221 72.592 120.6777
5.859375 72.667 120.1133
5.901834 72.741 119.5567
5.944602 72.812 119.0077
5.987679 72.882 118.4666
6.031068 72.950 117.9338
6.074771 73.016 117.4103
6.118792 73.081 116.8971
6.163131 73.145 116.3954
6.207792 73.208 115.9057
6.252776 73.270 115.4286
6.298086 73.331 114.9637
6.343725 73.391 114.5111
6.389694 73.451 114.0705
6.435996 73.510 113.6419
6.482634 73.568 113.2253
6.529610 73.627 112.8209
6.576926 73.685 112.4288
6.624585 73.744 112.0492
6.672590 73.803 111.6817
6.720942 73.862 111.3258
6.769645 73.921 110.9807
6.818700 73.981 110.6455
6.868111 74.042 110.3193
6.917881 74.104 110.0014
6.968010 74.167 109.6913
7.018504 74.231 109.3885
7.069362 74.296 109.0923
7.120590 74.362 108.8019
7.172189 74.429 108.5157
7.224161 74.498 108.2324
7.276511 74.568 107.9508
7.329239 74.639 107.6700
7.382350 74.711 107.3892
7.435845 74.784 107.1077
7.489729 74.859 106.8248
7.544002 74.934 106.5391
7.598669 75.011 106.2496
7.653732 75.088 105.9551
7.709194 75.167 105.6550
7.765058 75.246 105.3485
7.821327 75.325 105.0355
7.878004 75.405 104.7153
7.935091 75.486 104.3875
7.992592 75.566 104.0516
8.050510 75.647 103.7069
8.108847 75.727 103.3534
8.167607 75.807 102.9910
8.226793 75.887 102.6199
8.286408 75.966 102.2401
8.346454 76.045 101.8519
8.406936 76.123 101.4554
8.467856 76.200 101.0509
8.529218 76.276 100.6386
8.591024 76.351 100.2191
8.653278 76.425 99.7932
8.715983 76.497 99.3615
8.779143 76.568 98.9247
8.842760 76.638 98.4834
8.906839 76.706 98.0381
8.971381 76.772 97.5898
9.036392 76.837 97.1394
9.101873 76.900 96.6878
9.167829 76.962 96.2360
9.234263 77.023 95.7845
9.301178 77.082 95.3342
9.368578 77.139 94.8858
9.436467 77.195 94.4403
9.504847 77.250 93.9984
9.573723 77.304 93.5609
9.643099 77.356 93.1281
9.712976 77.408 92.7006
9.783361 77.459 92.2787
9.854255 77.509 91.8629
9.925663 77.559 91.4533
9.997588 77.608 91.0502
10.070035 77.657 90.6533
10.143007 77.706 90.2624
10.216507 77.756 89.8773
10.290540 77.805 89.4976
10.365109 77.855 89.1228
10.440219 77.905 88.7523
10.515873 77.956 88.3852
10.592076 78.008 88.0206
10.668830 78.061 87.6578
10.746141 78.114 87.2957
10.824012 78.168 86.9336
10.902447 78.223 86.5701
10.981451 78.278 86.2044
11.061027 78.335 85.8356
11.141180 78.392 85.4627
11.221913 78.450 85.0850
11.303232 78.508 84.7017
11.385140 78.566 84.3123
11.467641 78.625 83.9163
11.550741 78.684 83.5134
11.634442 78.742 83.1036
11.718750 78.800 82.6868
11.803669 78.858 82.2634
11.889203 78.915 81.8337
11.975357 78.971 81.3984
12.062136 79.027 80.9583
12.149543 79.081 80.5143
12.237583 79.134 80.0674
12.326262 79.186 79.6189
12.415583 79.236 79.1701
12.505552 79.285 78.7225
12.596172 79.333 78.2772
12.687449 79.380 77.8356
12.779387 79.426 77.3992
12.871992 79.471 76.9689
12.965268 79.515 76.5458
13.059220 79.558 76.1304
13.153852 79.601 75.7234
13.249170 79.644 75.3247
13.345179 79.688 74.9341
13.441884 79.732 74.5509
13.539289 79.776 74.1742
13.637401 79.822 73.8026
13.736223 79.868 73.4344
13.835761 79.916 73.0677
13.936021 79.964 72.7007
14.037007 80.014 72.3313
14.138725 80.064 71.9577
14.241180 80.115 71.5783
14.344377 80.166 71.1920
14.448323 80.217 70.7981
14.553021 80.267 70.3966
14.658478 80.316 69.9883
14.764700 80.364 69.5743
14.871691 80.410 69.1567
14.979457 80.454 68.7383
15.088005 80.496 68.3220
15.197339 80.536 67.9111
15.307465 80.574 67.5090
15.418389 80.610 67.1188
15.530117 80.645 66.7429
15.642655 80.680 66.3831
15.756008 80.714 66.0399
15.870182 80.750 65.7129
15.985184 80.788 65.3997
16.101019 80.828 65.0967
16.217694 80.872 64.7993
16.335214 80.918 64.5015
16.453586 80.969 64.1967
16.572815 81.022 63.8781
16.692909 81.078 63.5395
16.813872 81.136 63.1755
16.935713 81.194 62.7822
17.058436 81.252 62.3576
17.182048 81.309 61.9019
17.306556 81.362 61.4173
17.431967 81.411 60.9082
17.558286 81.455 60.3809
17.685521 81.494 59.8430
17.813677 81.526 59.3026
17.942762 81.554 58.7682
18.072783 81.576 58.2476
18.203746 81.594 57.7472
18.335658 81.609 57.2715
18.468526 81.623 56.8226
18.602356 81.636 56.3999
18.737156 81.650 56.0005
18.872934 81.667 55.6190
19.009695 81.686 55.2490
19.147447 81.707 54.8832
19.286197 81.731 54.5150
19.425953 81.756 54.1392
19.566721 81.782 53.7531
19.708510 81.806 53.3568
19.851326 81.829 52.9533
19.995177 81.849 52.5482
20.140070 81.866 52.1492
20.286013 81.881 51.7647
20.433014 81.893 51.4028
20.581080 81.904 51.0699
20.730219 81.916 50.7695
20.880439 81.930 50.5013
21.031747 81.949 50.2607
21.184152 81.973 50.0394
21.337661 82.004 49.8260
21.492282 82.042 49.6077
21.648024 82.086 49.3717
21.804895 82.135 49.1077
21.962902 82.186 48.8087
22.122054 82.238 48.4726
22.282360 82.288 48.1018
22.443827 82.335 47.7031
22.606464 82.378 47.2866
22.770280 82.416 46.8636
22.935283 82.450 46.4454
23.101481 82.480 46.0414
23.268884 82.508 45.6575
23.437500 82.535 45.2955
23.607338 82.563 44.9534
23.778406 82.594 44.6251
23.950714 82.627 44.3029
24.124271 82.662 43.9781
24.299086 82.699 43.6439
24.475167 82.737 43.2953
24.652524 82.774 42.9314
24.831166 82.810 42.5540
25.011103 82.843 42.1677
25.192344 82.873 41.7786
25.374898 82.900 41.3924
25.558775 82.925 41.0135
25.743984 82.949 40.6440
25.930536 82.972 40.2830
26.118439 82.996 39.9275
26.307704 83.020 39.5732
26.498341 83.045 39.2155
26.690359 83.069 38.8511
26.883768 83.093 38.4787
27.078579 83.115 38.0993
27.274801 83.134 37.7163
27.472446 83.152 37.3340
27.671522 83.167 36.9572
27.872042 83.181 36.5894
28.074014 83.195 36.2322
28.277450 83.209 35.8850
28.482360 83.223 35.5454
28.688755 83.239 35.2094
28.896645 83.257 34.8728
29.106042 83.276 34.5321
29.316957 83.295 34.1848
29.529400 83.315 33.8300
29.743382 83.335 33.4677
29.958915 83.355 33.0988
30.176009 83.375 32.7242
30.394677 83.395 32.3445
30.614929 83.414 31.9601
30.836778 83.432 31.5710
31.060234 83.450 31.1780
31.285309 83.467 30.7821
31.512015 83.483 30.3854
31.740364 83.497 29.9910
31.970368 83.509 29.6018
32.202039 83.521 29.2210
32.435388 83.532 28.8506
32.670428 83.542 28.4913
32.907171 83.553 28.1427
33.145630 83.565 27.8031
33.385817 83.577 27.4703
33.627745 83.590 27.1420
33.871425 83.603 26.8158
34.116871 83.618 26.4901
34.364096 83.632 26.1633
34.613113 83.647 25.8344
34.863934 83.662 25.5023
35.116572 83.677 25.1665
35.371041 83.691 24.8268
35.627354 83.705 24.4835
35.885525 83.718 24.1375
36.145566 83.729 23.7903
36.407492 83.740 23.4432
36.671316 83.751 23.0972
36.937051 83.760 22.7523
37.204712 83.770 22.4076
37.474313 83.779 22.0618
37.745867 83.789 21.7133
38.019389 83.797 21.3611
38.294893 83.805 21.0057
38.572394 83.812 20.6490
38.851905 83.818 20.2938
39.133442 83.822 19.9437
39.417019 83.825 19.6014
39.702651 83.829 19.2689
39.990353 83.832 18.9458
40.280140 83.837 18.6306
40.572026 83.842 18.3200
40.866028 83.849 18.0105
41.162160 83.858 17.6986
41.460438 83.866 17.3816
41.760877 83.876 17.0579
42.063494 83.885 16.7266
42.368303 83.893 16.3881
42.675322 83.901 16.0434
42.984565 83.907 15.6941
43.296048 83.912 15.3422
43.609789 83.916 14.9895
43.925804 83.918 14.6377
44.244108 83.919 14.2881
44.564719 83.920 13.9415
44.887654 83.919 13.5981
45.212928 83.919 13.2582
45.540560 83.918 12.9213
45.870565 83.917 12.5867
46.202962 83.916 12.2526
46.537768 83.917 11.9171
46.875000 83.917 11.5778
47.214676 83.918 11.2334
47.556813 83.918 10.8843
47.901429 83.918 10.5323
48.248542 83.917 10.1805
48.598171 83.915 9.8318
48.950334 83.913 9.4873
49.305048 83.912 9.1470
49.662333 83.910 8.8095
50.022206 83.909 8.4738
50.384688 83.907 8.1396
50.749796 83.905 7.8083
51.117550 83.903 7.4810
51.487969 83.901 7.1583
51.861072 83.898 6.8395
52.236879 83.896 6.5223
52.615409 83.894 6.2043
52.996681 83.891 5.8833
53.380717 83.888 5.5585
53.767536 83.884 5.2302
54.157158 83.879 4.9001
54.549603 83.872 4.5701
54.944892 83.865 4.2418
55.343045 83.856 3.9163
55.744084 83.847 3.5931
56.148028 83.838 3.2720
56.554900 83.829 2.9524
56.964720 83.819 2.6349
57.377510 83.810 2.3203
57.793291 83.800 2.0087
58.212085 83.792 1.6987
58.633914 83.784 1.3874
59.058799 83.776 1.0719
59.486764 83.768 0.7511
59.917829 83.760 0.4261
60.352019 83.750 0.0994
60.789354 83.739 -0.2263
61.229859 83.728 -0.5495
61.673556 83.715 -0.8694
62.120468 83.702 -1.1865
62.570618 83.689 -1.5018
63.024031 83.675 -1.8174
63.480729 83.661 -2.1350
63.940736 83.647 -2.4556
64.404077 83.631 -2.7793
64.870776 83.615 -3.1058
65.340856 83.598 -3.4350
65.814343 83.580 -3.7644
66.291261 83.561 -4.0885
66.771635 83.541 -4.4003
67.255489 83.521 -4.6959
67.742850 83.504 -4.9794
68.233743 83.490 -5.2621
68.728193 83.479 -5.5558
69.226226 83.469 -5.8665
69.727867 83.458 -6.1913
70.233144 83.445 -6.5220
70.742083 83.431 -6.8507
71.254709 83.416 -7.1730
71.771050 83.400 -7.4893
72.291132 83.385 -7.8030
72.814984 83.369 -8.1177
73.342631 83.353 -8.4346
73.874102 83.336 -8.7521
74.409424 83.319 -9.0685
74.948626 83.301 -9.3831
75.491734 83.283 -9.6968
76.038779 83.264 -10.0111
76.589787 83.245 -10.3269
77.144788 83.225 -10.6444
77.703811 83.205 -10.9631
78.266885 83.183 -11.2812
78.834039 83.160 -11.5958
79.405303 83.135 -11.9043
79.980706 83.110 -12.2053
80.560280 83.084 -12.4990
81.144053 83.058 -12.7863
81.732056 83.032 -13.0682
82.324320 83.005 -13.3466
82.920876 82.979 -13.6232
83.521755 82.952 -13.8995
84.126988 82.925 -14.1770
84.736607 82.898 -14.4570
85.350643 82.870 -14.7411
85.969129 82.842 -15.0300
86.592097 82.813 -15.3226
87.219579 82.783 -15.6168
87.851608 82.753 -15.9095
88.488217 82.721 -16.1990
89.129439 82.689 -16.4841
89.775308 82.658 -16.7652
90.425856 82.626 -17.0434
91.081119 82.594 -17.3199
91.741131 82.562 -17.5962
92.405925 82.529 -17.8729
93.075536 82.496 -18.1495
93.750000 82.462 -18.4249
94.429351 82.427 -18.6990
95.113625 82.392 -18.9730
95.802858 82.357 -19.2483
96.497085 82.321 -19.5248
97.196342 82.286 -19.8018
97.900667 82.250 -20.0801
98.610096 82.215 -20.3627
99.324665 82.178 -20.6509
100.044413 82.140 -20.9422
100.769376 82.100 -21.2316
101.499592 82.058 -21.5150
102.235100 82.014 -21.7917
102.975938 81.968 -22.0627
103.722144 81.921 -22.3290
104.473757 81.871 -22.5911
105.230817 81.821 -22.8494
105.993363 81.769 -23.1052
106.761435 81.716 -23.3604
107.535072 81.662 -23.6141
108.314315 81.606 -23.8629
109.099206 81.549 -24.1022
109.889783 81.490 -24.3296
110.686090 81.428 -24.5448
111.488167 81.364 -24.7466
112.296056 81.296 -24.9298
113.109800 81.226 -25.0851
113.929440 81.154 -25.2023
114.755020 81.084 -25.2755
115.586582 81.018 -25.3074
116.424170 80.959 -25.3080
117.267827 80.908 -25.2890
118.117598 80.865 -25.2612
118.973527 80.830 -25.2343
119.835658 80.799 -25.2162
120.704037 80.771 -25.2109
121.578708 80.745 -25.2205
122.459718 80.718 -25.2479
123.347111 80.691 -25.2971
124.240935 80.662 -25.3716
125.141236 80.633 -25.4726
126.048061 80.602 -25.5963
126.961458 80.570 -25.7344
127.881473 80.537 -25.8795
128.808154 80.503 -26.0284
129.741551 80.468 -26.1812
130.681712 80.429 -26.3372
131.628686 80.387 -26.4933
132.582521 80.342 -26.6460
133.543269 80.295 -26.7953
134.510979 80.249 -26.9479
135.485701 80.206 -27.1176
136.467486 80.167 -27.3176
137.456386 80.130 -27.5501
138.452451 80.093 -27.8014
139.455735 80.052 -28.0496
140.466288 80.009 -28.2748
141.484165 79.961 -28.4670
142.509418 79.912 -28.6277
143.542100 79.861 -28.7654
144.582265 79.810 -28.8919
145.629968 79.759 -29.0170
146.685262 79.709 -29.1467
147.748204 79.660 -29.2832
148.818849 79.612 -29.4251
149.897251 79.562 -29.5687
150.983469 79.511 -29.7101
152.077557 79.459 -29.8473
153.179574 79.404 -29.9806
154.289576 79.347 -30.1110
155.407622 79.290 -30.2375
156.533770 79.234 -30.3580
157.668078 79.178 -30.4707
158.810606 79.124 -30.5750
159.961413 79.070 -30.6709
161.120559 79.016 -30.7588
162.288105 78.961 -30.8405
163.464112 78.904 -30.9181
164.648640 78.845 -30.9934
165.841752 78.786 -31.0674
167.043510 78.726 -31.1418
168.253976 78.666 -31.2191
169.473213 78.606 -31.2999
170.701286 78.546 -31.3827
171.938258 78.485 -31.4633
173.184194 78.424 -31.5388
174.439158 78.363 -31.6073
175.703216 78.302 -31.6668
176.976434 78.242 -31.7166
178.258878 78.182 -31.7583
179.550615 78.123 -31.7970
180.851713 78.064 -31.8392
182.162239 78.005 -31.8907
183.482262 77.944 -31.9517
184.811850 77.880 -32.0138
186.151073 77.814 -32.0641
187.500000 77.747 -32.0944
188.858702 77.680 -32.1047
190.227250 77.614 -32.1001
191.605715 77.549 -32.0881
192.994169 77.484 -32.0767
194.392685 77.420 -32.0723
195.801334 77.357 -32.0779
197.220191 77.295 -32.0925
198.649330 77.234 -32.1133
200.088825 77.170 -32.1378
201.538751 77.104 -32.1642
202.999184 77.033 -32.1891
204.470200 76.956 -32.2065
205.951875 76.876 -32.2125
207.444287 76.794 -32.2054
208.947514 76.713 -32.1843
210.461634 76.635 -32.1482
211.986726 76.560 -32.0988
213.522869 76.486 -32.0404
215.070144 76.414 -31.9799
216.628631 76.342 -31.9232
218.198411 76.270 -31.8732
219.779567 76.196 -31.8282
221.372180 76.122 -31.7833
222.976334 76.046 -31.7334
224.592112 75.970 -31.6757
226.219600 75.893 -31.6094
227.858880 75.815 -31.5352
229.510039 75.736 -31.4533
231.173164 75.656 -31.3634
232.848340 75.574 -31.2662
234.535655 75.491 -31.1644
236.235197 75.407 -31.0616
237.947054 75.324 -30.9614
239.671317 75.242 -30.8640
241.408074 75.163 -30.7676
243.157416 75.084 -30.6699
244.919435 75.007 -30.5675
246.694223 74.928 -30.4552
248.481871 74.848 -30.3275
250.282473 74.766 -30.1804
252.096123 74.682 -30.0145
253.922915 74.597 -29.8345
255.762945 74.510 -29.6454
257.616309 74.421 -29.4502
259.483103 74.328 -29.2501
261.363424 74.232 -29.0478
263.257372 74.132 -28.8468
265.165043 74.031 -28.6486
267.086538 73.929 -28.4474
269.021957 73.830 -28.2313
270.971401 73.732 -27.9901
272.934972 73.637 -27.7206
274.912771 73.544 -27.4272
276.904902 73.450 -27.1172
278.911469 73.354 -26.7963
280.932577 73.257 -26.4659
282.968330 73.158 -26.1241
285.018835 73.058 -25.7695
287.084199 72.957 -25.4026
289.164530 72.855 -25.0259
291.259935 72.753 -24.6407
293.370525 72.649 -24.2480
295.496408 72.546 -23.8469
297.637697 72.443 -23.4356
299.794503 72.340 -23.0105
301.966937 72.238 -22.5667
304.155114 72.136 -22.0994
306.359147 72.034 -21.6071
308.579152 71.931 -21.0919
310.815244 71.828 -20.5571
313.067539 71.722 -20.0009
315.336156 71.615 -19.4169
317.621211 71.506 -18.7992
319.922826 71.397 -18.1483
322.241118 71.290 -17.4698
324.576210 71.184 -16.7711
326.928223 71.079 -16.0562
329.297280 70.974 -15.3237
331.683504 70.868 -14.5687
334.087019 70.763 -13.7835
336.507952 70.659 -12.9620
338.946427 70.558 -12.1074
341.402572 70.462 -11.2289
343.876516 70.372 -10.3285
346.368387 70.286 -9.3960
348.878315 70.203 -8.4199
351.406431 70.123 -7.3997
353.952867 70.045 -6.3497
356.517756 69.969 -5.2902
359.101230 69.893 -4.2334
361.703426 69.819 -3.1808
364.324478 69.746 -2.1245
366.964523 69.673 -1.0482
369.623699 69.603 0.0652
372.302145 69.537 1.2225
375.000000 69.477 2.4224
377.717405 69.425 3.6605
380.454501 69.382 4.9308
383.211431 69.349 6.2263
385.988339 69.326 7.5412
388.785369 69.312 8.8683
391.602668 69.304 10.1941
394.440383 69.301 11.5038
397.298660 69.304 12.7906
400.177650 69.311 14.0585
403.077502 69.324 15.3186
405.998368 69.340 16.5878
408.940400 69.360 17.8815
411.903750 69.384 19.2041
414.888575 69.415 20.5477
417.895028 69.455 21.9010
420.923268 69.503 23.2545
423.973452 69.560 24.5970
427.045738 69.627 25.9156
430.140287 69.704 27.2011
433.257261 69.789 28.4471
436.396822 69.881 29.6451
439.559133 69.977 30.7873
442.744360 70.076 31.8718
445.952668 70.175 32.9020
449.184225 70.273 33.8855
452.439199 70.371 34.8323
455.717760 70.470 35.7491
459.020079 70.571 36.6364
462.346327 70.673 37.4925
465.696680 70.778 38.3178
469.071310 70.885 39.1151
472.470394 70.996 39.8888
475.894109 71.110 40.6418
479.342634 71.227 41.3732
482.816148 71.346 42.0817
486.314833 71.465 42.7686
489.838871 71.585 43.4355
493.388445 71.703 44.0831
496.963741 71.821 44.7112
500.564945 71.937 45.3192
504.192245 72.052 45.9045
507.845830 72.167 46.4637
511.525890 72.284 46.9960
515.232618 72.404 47.5038
518.966206 72.527 47.9886
522.726849 72.651 48.4509
526.514743 72.775 48.8917
530.330086 72.897 49.3125
534.173076 73.017 49.7119
538.043915 73.135 50.0850
541.942803 73.250 50.4291
545.869944 73.363 50.7492
549.825542 73.471 51.0528
553.809805 73.575 51.3416
557.822939 73.675 51.6091
561.865154 73.773 51.8465
565.936660 73.870 52.0499
570.037671 73.967 52.2254
574.168399 74.068 52.3874
578.329060 74.170 52.5515
582.519870 74.272 52.7263
586.741049 74.374 52.9091
590.992817 74.474 53.0931
595.275394 74.571 53.2763
599.589005 74.667 53.4614
603.933874 74.760 53.6497
608.310228 74.852 53.8361
612.718295 74.942 54.0131
617.158304 75.031 54.1768
621.630488 75.120 54.3264
626.135079 75.208 54.4606
630.672311 75.297 54.5809
635.242423 75.384 54.6896
639.845651 75.470 54.7875
644.482237 75.554 54.8758
649.152421 75.636 54.9583
653.856447 75.715 55.0413
658.594560 75.793 55.1319
663.367008 75.868 55.2336
668.174039 75.942 55.3416
673.015903 76.015 55.4447
677.892854 76.086 55.5321
682.805145 76.155 55.6002
687.753032 76.222 55.6538
692.736774 76.287 55.7015
697.756631 76.352 55.7508
702.812863 76.416 55.8060
707.905735 76.482 55.8699
713.035511 76.550 55.9423
718.202461 76.620 56.0187
723.406852 76.691 56.0919
728.648956 76.761 56.1553
733.929047 76.830 56.2073
739.247399 76.895 56.2525
744.604290 76.956 56.2970
750.000000 77.016 56.3448
755.434809 77.074 56.3982
760.909001 77.133 56.4601
766.422861 77.193 56.5321
771.976677 77.254 56.6138
777.570739 77.316 56.7036
783.205337 77.376 56.7996
788.880766 77.435 56.8989
794.597321 77.493 56.9966
800.355301 77.548 57.0863
806.155005 77.602 57.1612
811.996736 77.656 57.2176
817.880799 77.712 57.2567
823.807501 77.768 57.2841
829.777150 77.826 57.3077
835.790057 77.884 57.3331
841.846536 77.942 57.3636
847.946903 77.999 57.4022
854.091476 78.055 57.4529
860.280575 78.111 57.5175
866.514523 78.168 57.5946
872.793644 78.226 57.6813
879.118267 78.285 57.7761
885.488720 78.347 57.8784
891.905336 78.411 57.9854
898.368450 78.474 58.0918
904.878398 78.537 58.1920
911.435520 78.599 58.2821
918.040157 78.659 58.3607
924.692655 78.718 58.4281
931.393359 78.776 58.4856
938.142619 78.836 58.5369
944.940787 78.897 58.5867
951.788218 78.960 58.6396
958.685268 79.026 58.6989
965.632296 79.092 58.7649
972.629666 79.159 58.8341
979.677741 79.226 58.9001
986.776890 79.292 58.9540
993.927482 79.357 58.9885
1001.129891 79.421 58.9994
1008.384491 79.484 58.9862
1015.691660 79.547 58.9504
1023.051781 79.610 58.8945
1030.465236 79.673 58.8219
1037.932411 79.737 58.7372
1045.453698 79.799 58.6459
1053.029486 79.861 58.5536
1060.660172 79.922 58.4667
1068.346153 79.982 58.3904
1076.087829 80.043 58.3282
1083.885605 80.105 58.2795
1091.739887 80.169 58.2399
1099.651084 80.233 58.2034
1107.619609 80.297 58.1646
1115.645878 80.360 58.1184
1123.730308 80.421 58.0586
1131.873321 80.481 57.9801
1140.075341 80.539 57.8806
1148.336797 80.597 57.7623
1156.658119 80.654 57.6313
1165.039741 80.712 57.4939
1173.482099 80.770 57.3544
1181.985634 80.829 57.2138
1190.550789 80.887 57.0701
1199.178011 80.944 56.9196
1207.867749 80.999 56.7590
1216.620457 81.051 56.5858
1225.436590 81.100 56.3988
1234.316609 81.144 56.1973
1243.260976 81.185 55.9803
1252.270157 81.223 55.7501
1261.344623 81.259 55.5125
1270.484846 81.294 55.2758
1279.691303 81.328 55.0485
1288.964474 81.363 54.8355
1298.304842 81.396 54.6364
1307.712894 81.428 54.4456
1317.189120 81.458 54.2552
1326.734016 81.483 54.0568
1336.348077 81.503 53.8445
1346.031806 81.517 53.6172
1355.785708 81.526 53.3793
1365.610290 81.531 53.1389
1375.506065 81.532 52.9056
1385.473549 81.530 52.6905
1395.513261 81.528 52.5053
1405.625726 81.525 52.3580
1415.811469 81.523 52.2486
1426.071023 81.519 52.1706
1436.404921 81.514 52.1139
1446.813703 81.506 52.0672
1457.297912 81.496 52.0223
1467.858093 81.482 51.9763
1478.494798 81.465 51.9322
1489.208581 81.445 51.8976
1500.000000 81.422 51.8829
1510.869618 81.398 51.9014
1521.818002 81.373 51.9666
1532.845723 81.349 52.0860
1543.953355 81.324 52.2573
1555.141477 81.299 52.4696
1566.410674 81.273 52.7097
1577.761531 81.246 52.9683
1589.194642 81.216 53.2414
1600.710601 81.186 53.5283
1612.310010 81.154 53.8326
1623.993473 81.123 54.1630
1635.761599 81.093 54.5329
1647.615002 81.065 54.9586
1659.554299 81.043 55.4537
1671.580114 81.027 56.0268
1683.693072 81.018 56.6841
1695.893807 81.018 57.4308
1708.182952 81.032 58.2695
1720.561150 81.061 59.1962
1733.029045 81.110 60.1996
1745.587288 81.181 61.2581
1758.236533 81.275 62.3378
1770.977440 81.392 63.3948
1783.810673 81.532 64.3817
1796.736900 81.689 65.2553
1809.756796 81.859 65.9846
1822.871040 82.039 66.5561
1836.080315 82.222 66.9742
1849.385310 82.407 67.2587
1862.786718 82.590 67.4373
1876.285239 82.772 67.5389
1889.881575 82.950 67.5871
1903.576436 83.125 67.5963
1917.370535 83.298 67.5691
1931.264593 83.467 67.4980
1945.259332 83.634 67.3695
1959.355483 83.798 67.1688
1973.553781 83.960 66.8828
1987.854965 84.118 66.5031
2002.259781 84.273 66.0276
2016.768981 84.423 65.4623
2031.383320 84.565 64.8208
2046.103561 84.699 64.1200
2060.930471 84.824 63.3769
2075.864823 84.940 62.6093
2090.907395 85.045 61.8367
2106.058972 85.142 61.0782
2121.320344 85.231 60.3484
2136.692305 85.314 59.6547
2152.175658 85.392 58.9967
2167.771210 85.466 58.3674
2183.479774 85.536 57.7554
2199.302169 85.601 57.1462
2215.239219 85.662 56.5251
2231.291755 85.716 55.8817
2247.460615 85.766 55.2121
2263.746641 85.810 54.5213
2280.150683 85.848 53.8238
2296.673595 85.883 53.1404
2313.316238 85.913 52.4899
2330.079481 85.940 51.8824
2346.964198 85.965 51.3188
2363.971268 85.988 50.7928
2381.101578 86.009 50.2909
2398.356022 86.027 49.7968
2415.735498 86.042 49.2956
2433.240913 86.055 48.7789
2450.873180 86.064 48.2458
2468.633217 86.071 47.7028
2486.521951 86.076 47.1634
2504.540314 86.081 46.6446
2522.689246 86.087 46.1605
2540.969692 86.093 45.7173
2559.382606 86.102 45.3124
2577.928947 86.111 44.9352
2596.609683 86.121 44.5688
2615.425787 86.128 44.1945
2634.378241 86.132 43.7968
2653.468031 86.131 43.3677
2672.696154 86.126 42.9080
2692.063613 86.118 42.4276
2711.571415 86.108 41.9445
2731.220579 86.098 41.4815
2751.012130 86.090 41.0591
2770.947098 86.083 40.6899
2791.026522 86.081 40.3738
2811.251451 86.081 40.0966
2831.622938 86.083 39.8312
2852.142045 86.087 39.5460
2872.809842 86.090 39.2128
2893.627406 86.093 38.8133
2914.595823 86.094 38.3414
2935.716186 86.093 37.8026
2956.989596 86.090 37.2095
2978.417161 86.085 36.5765
3000.000000 86.077 35.9176
3021.739237 86.066 35.2465
3043.636005 86.050 34.5777
3065.691446 86.030 33.9293
3087.906710 86.004 33.3230
3110.282955 85.974 32.7790
3132.821347 85.941 32.3091
3155.523062 85.908 31.9140
3178.389283 85.875 31.5846
3201.421202 85.842 31.3032
3224.620020 85.808 31.0441
3247.986946 85.771 30.7805
3271.523198 85.732 30.4930
3295.230004 85.690 30.1733
3319.108599 85.647 29.8251
3343.160228 85.604 29.4636
3367.386145 85.562 29.1122
3391.787613 85.521 28.7946
3416.365904 85.482 28.5269
3441.122300 85.445 28.3134
3466.058091 85.409 28.1454
3491.174576 85.374 28.0018
3516.473066 85.338 27.8542
3541.954880 85.299 27.6742
3567.621345 85.258 27.4401
3593.473800 85.214 27.1415
3619.513592 85.167 26.7794
3645.742080 85.119 26.3639
3672.160630 85.070 25.9104
3698.770620 85.020 25.4357
3725.573436 84.969 24.9567
3752.570477 84.917 24.4890
3779.763150 84.865 24.0476
3807.152872 84.811 23.6481
3834.741071 84.756 23.3077
3862.529185 84.700 23.0416
3890.518664 84.643 22.8575
3918.710966 84.585 22.7520
3947.107561 84.526 22.7081
3975.709929 84.466 22.6970
4004.519563 84.405 22.6860
4033.537962 84.343 22.6469
4062.766641 84.278 22.5641
4092.207123 84.212 22.4387
4121.860942 84.143 22.2882
4151.729646 84.075 22.1420
4181.814790 84.005 22.0336
4212.117944 83.936 21.9917
4242.640687 83.868 22.0328
4273.384610 83.801 22.1575
4304.351317 83.735 22.3494
4335.542421 83.670 22.5793
4366.959549 83.605 22.8137
4398.604338 83.540 23.0227
4430.478438 83.474 23.1893
4462.583511 83.407 23.3152
4494.921231 83.341 23.4208
4527.493283 83.276 23.5402
4560.301365 83.215 23.7120
4593.347189 83.157 23.9684
4626.632476 83.104 24.3262
4660.158962 83.057 24.7822
4693.928395 83.015 25.3143
4727.942535 82.979 25.8860
4762.203156 82.947 26.4568
4796.712043 82.921 26.9935
4831.470996 82.899 27.4786
4866.481826 82.884 27.9142
4901.746360 82.876 28.3215
4937.266434 82.878 28.7347
4973.043902 82.890 29.1891
5009.080628 82.914 29.7081
5045.378492 82.951 30.2945
5081.939384 83.001 30.9279
5118.765212 83.065 31.5694
5155.857894 83.142 32.1677
5193.219366 83.231 32.6688
5230.851574 83.331 33.0278
5268.756481 83.441 33.2197
5306.936062 83.558 33.2432
5345.392309 83.682 33.1183
5384.127225 83.812 32.8777
5423.142830 83.947 32.5546
5462.441159 84.083 32.1709
5502.024259 84.219 31.7296
5541.894195 84.351 31.2140
5582.053045 84.475 30.5916
5622.502902 84.587 29.8240
5663.245876 84.683 28.8766
5704.284090 84.760 27.7274
5745.619684 84.815 26.3748
5787.254813 84.846 24.8393
5829.191647 84.852 23.1599
5871.432373 84.832 21.3839
5913.979192 84.785 19.5588
5956.834323 84.711 17.7289
6000.000000 84.611 15.9364
6043.478473 84.484 14.2241
6087.272010 84.332 12.6376
6131.382892 84.156 11.2255
6175.813420 83.960 10.0352
6220.565910 83.747 9.1058
6265.642695 83.521 8.4578
6311.046124 83.287 8.0847
6356.778566 83.050 7.9490
6402.842404 82.818 7.9818
6449.240040 82.594 8.0889
6495.973891 82.379 8.1746
6543.046396 82.166 8.1884
6590.460007 81.946 8.1594
6638.217197 81.715 8.1810
6686.320456 81.474 8.3660
6734.772290 81.227 8.8093
6783.575226 80.982 9.5696
6832.731809 80.746 10.6649
6882.244600 80.523 12.0760
6932.116181 80.320 13.7582
6982.349153 80.142 15.6524
7032.946133 79.994 17.6949
7083.909760 79.886 19.8198
7135.242690 79.826 21.9581
7186.947600 79.821 24.0421
7239.027185 79.872 26.0208
7291.484160 79.976 27.8823
7344.321260 80.134 29.6485
7397.541239 80.347 31.3395
7451.146872 80.621 32.9483
7505.140954 80.961 34.4369
7559.526299 81.367 35.7444
7614.305743 81.835 36.7957
7669.482141 82.355 37.5049
7725.058371 82.913 37.7762
7781.037328 83.490 37.5098
7837.421932 84.063 36.6138
7894.215122 84.610 35.0213
7951.419859 85.108 32.7068
8009.039125 85.535 29.6984
8067.075924 85.873 26.0858
8125.533282 86.109 22.0198
8184.414245 86.235 17.6996
8243.721885 86.251 13.3478
8303.459292 86.161 9.1827
8363.629581 85.980 5.3915
8424.235888 85.724 2.1056
8485.281374 85.413 -0.6134
8546.769221 85.066 -2.7736
8608.702634 84.705 -4.4402
8671.084842 84.345 -5.7161
8733.919097 84.001 -6.7167
8797.208675 83.682 -7.5422
8860.956876 83.395 -8.2561
8925.167022 83.143 -8.8815
8989.842461 82.927 -9.4111
9054.986566 82.747 -9.8247
9120.602731 82.602 -10.1112
9186.694378 82.489 -10.2897
9253.264952 82.405 -10.4175
9320.317925 82.346 -10.5825
9387.856790 82.306 -10.8864
9455.885071 82.282 -11.4268
9524.406312 82.269 -12.2775
9593.424086 82.262 -13.4705
9662.941992 82.256 -14.9899
9732.963653 82.248 -16.7833
9803.492719 82.232 -18.7798
9874.532869 82.203 -20.9069
9946.087805 82.154 -23.1073
10018.161257 82.078 -25.3529
10090.756983 81.968 -27.6492
10163.878768 81.816 -30.0259
10237.530423 81.617 -32.5211
10311.715789 81.366 -35.1659
10386.438732 81.061 -37.9705
10461.703149 80.701 -40.9120
10537.512962 80.287 -43.9333
10613.872125 79.823 -46.9567
10690.784618 79.311 -49.9008
10768.254450 78.756 -52.6927
10846.285661 78.163 -55.2704
10924.882318 77.536 -57.5808
11004.048518 76.883 -59.5744
11083.788390 76.207 -61.1995
11164.106090 75.516 -62.4003
11245.005805 74.815 -63.1238
11326.491752 74.110 -63.3368
11408.568180 73.406 -63.0447
11491.239368 72.706 -62.2981
11574.509626 72.013 -61.1838
11658.383294 71.330 -59.8076
11742.864745 70.656 -58.2747
11827.958384 69.993 -56.6644
11913.668646 69.341 -55.0056
12000.000000 68.703 -53.2704
12086.956947 68.080 -51.3883
12174.544019 67.474 -49.2682
12262.765784 66.886 -46.8199
12351.626840 66.319 -43.9818
12441.131819 65.772 -40.7419
12531.285389 65.246 -37.1415
12622.092249 64.740 -33.2587
12713.557132 64.256 -29.1875
12805.684808 63.793 -25.0122
12898.480079 63.355 -20.7782
12991.947783 62.944 -16.4741
13086.092792 62.569 -12.0367
13180.920015 62.240 -7.3695
13276.434395 61.973 -2.3624
13372.640911 61.788 3.0907
13469.544580 61.714 9.0747
13567.150452 61.783 15.6329
13665.463617 62.029 22.7379
13764.489200 62.479 30.2526
13864.232362 63.143 37.8999
13964.698305 64.009 45.2736
14065.892266 65.047 51.9033
14167.819519 66.211 57.3517
14270.485380 67.452 61.2956
14373.895200 68.722 63.5551
14478.054370 69.977 64.0844
14582.968320 71.177 62.9503
14688.642520 72.289 60.3153
14795.082478 73.284 56.4213
14902.293745 74.139 51.5688
15010.281908 74.836 46.0945
15119.052599 75.370 40.3458
15228.611486 75.745 34.6433
15338.964283 75.980 29.2324
15450.116741 76.102 24.2444
15562.074656 76.144 19.6884
15674.843864 76.145 15.4677
15788.430244 76.135 11.4113
15902.839718 76.138 7.3207
16018.078250 76.170 3.0250
16134.151848 76.231 -1.5837
16251.066563 76.311 -6.5446
16368.828491 76.388 -11.8378
16487.443769 76.436 -17.4015
16606.918584 76.424 -23.1545
16727.259161 76.322 -29.0157
16848.471777 76.101 -34.9083
16970.562748 75.744 -40.7493
17093.538442 75.240 -46.4480
17217.405268 74.592 -51.9176
17342.169684 73.812 -57.0792
17467.838194 72.920 -61.8488
17594.417350 71.941 -66.1248
17721.913751 70.902 -69.7904
17850.334044 69.831 -72.7278
17979.684923 68.754 -74.8414
18109.973131 67.694 -76.0916
18241.205462 66.672 -76.5277
18373.388756 65.701 -76.3005
18506.529905 64.788 -75.6417
18640.635849 63.935 -74.8238
18775.713581 63.139 -74.1121
18911.770141 62.391 -73.7147
19048.812624 61.682 -73.7444
19186.848172 61.001 -74.2075
19325.883983 60.341 -75.0225
19465.927305 59.701 -76.0493
19606.985439 59.094 -77.1216
19749.065738 58.553 -78.0763
19892.175609 58.135 -78.7822
20036.322514 57.903 -79.1542
