* Measurement data measured by REW V5.30.4
* Source: Headset (2- CX31993 HIFI AUDIO), MICROPHONE (Master Volume), L, volume: 0.500
* Format: 256k Log Swept Sine, 1 sweep at -12.0 dBFS with no timing reference
* Dated: 06 8, 24 6:14:28 PM
* REW Settings:
*  C-weighting compensation: Off
*  Target level: 75.0 dB
* Note: ; 
* Measurement: T 4U Natural R
* Smoothing: 1/12 octave
* Frequency Step: 96 ppo
* Start Frequency: 20.141602 Hz
*
* Freq(Hz) SPL(dB) Phase(degrees)
20.141602 85.106 -80.2326
20.287556 85.131 -80.4200
20.434568 85.167 -80.6971
20.582645 85.213 -81.0411
20.731796 85.263 -81.4318
20.882027 85.317 -81.8535
21.033346 85.372 -82.2946
21.185762 85.428 -82.7466
21.339283 85.485 -83.2030
21.493916 85.542 -83.6592
21.649670 85.601 -84.1119
21.806553 85.661 -84.5592
21.964573 85.723 -85.0006
22.123737 85.788 -85.4364
22.284056 85.854 -85.8681
22.445536 85.923 -86.2977
22.608185 85.992 -86.7272
22.772013 86.063 -87.1588
22.937029 86.133 -87.5935
23.103241 86.203 -88.0321
23.270657 86.271 -88.4740
23.439285 86.337 -88.9181
23.609137 86.399 -89.3624
23.780218 86.459 -89.8047
23.952539 86.515 -90.2430
24.126110 86.568 -90.6755
24.300938 86.619 -91.1011
24.477032 86.668 -91.5200
24.654402 86.717 -91.9329
24.833057 86.765 -92.3419
25.013008 86.813 -92.7496
25.194263 86.863 -93.1591
25.376831 86.914 -93.5736
25.560722 86.967 -93.9958
25.745945 87.022 -94.4280
25.932510 87.078 -94.8711
26.120428 87.135 -95.3252
26.309708 87.192 -95.7891
26.500359 87.250 -96.2604
26.692390 87.307 -96.7358
26.885815 87.364 -97.2117
27.080641 87.420 -97.6842
27.276878 87.475 -98.1504
27.474539 87.529 -98.6078
27.673630 87.583 -99.0559
27.874165 87.637 -99.4956
28.076153 87.691 -99.9294
28.279604 87.746 -100.3612
28.484529 87.801 -100.7952
28.690941 87.857 -101.2356
28.898848 87.912 -101.6852
29.108261 87.967 -102.1451
29.319191 88.021 -102.6139
29.531651 88.072 -103.0881
29.745649 88.122 -103.5625
29.961199 88.170 -104.0310
30.178310 88.216 -104.4883
30.396996 88.261 -104.9304
30.617264 88.306 -105.3556
30.839128 88.351 -105.7645
31.062601 88.397 -106.1602
31.287693 88.443 -106.5467
31.514416 88.489 -106.9286
31.742783 88.536 -107.3098
31.972803 88.581 -107.6931
32.204491 88.625 -108.0799
32.437859 88.667 -108.4712
32.672916 88.709 -108.8675
32.909679 88.750 -109.2699
33.148155 88.791 -109.6798
33.388359 88.833 -110.0988
33.630306 88.875 -110.5281
33.874004 88.919 -110.9678
34.119469 88.964 -111.4160
34.366711 89.009 -111.8693
34.615746 89.055 -112.3233
34.866585 89.101 -112.7730
35.119244 89.147 -113.2140
35.373734 89.191 -113.6430
35.630066 89.234 -114.0579
35.888256 89.274 -114.4575
36.148315 89.312 -114.8417
36.410259 89.347 -115.2108
36.674103 89.379 -115.5670
36.939857 89.411 -115.9145
37.207539 89.443 -116.2603
37.477161 89.477 -116.6141
37.748737 89.514 -116.9862
38.022282 89.554 -117.3856
38.297806 89.597 -117.8165
38.575329 89.641 -118.2770
38.854862 89.685 -118.7589
39.136421 89.729 -119.2496
39.420021 89.770 -119.7361
39.705673 89.810 -120.2085
39.993397 89.849 -120.6628
40.283207 89.887 -121.1009
40.575115 89.924 -121.5295
40.869141 89.959 -121.9563
41.165295 89.993 -122.3870
41.463596 90.024 -122.8240
41.764057 90.054 -123.2665
42.066696 90.083 -123.7116
42.371529 90.113 -124.1563
42.678570 90.143 -124.5982
42.987835 90.175 -125.0358
43.299343 90.207 -125.4672
43.613110 90.239 -125.8906
43.929150 90.271 -126.3041
44.247478 90.301 -126.7076
44.568115 90.331 -127.1037
44.891075 90.359 -127.4977
45.216373 90.388 -127.8963
45.544029 90.416 -128.3058
45.874062 90.445 -128.7290
46.206486 90.474 -129.1650
46.541317 90.503 -129.6088
46.878574 90.533 -130.0537
47.218277 90.562 -130.4930
47.560440 90.591 -130.9216
47.905083 90.619 -131.3372
48.252224 90.646 -131.7400
48.601879 90.673 -132.1331
48.954067 90.698 -132.5211
49.308807 90.723 -132.9098
49.666119 90.747 -133.3039
50.026020 90.771 -133.7063
50.388531 90.794 -134.1170
50.753666 90.816 -134.5337
51.121449 90.839 -134.9530
51.491894 90.862 -135.3721
51.865025 90.885 -135.7891
52.240860 90.908 -136.2033
52.619419 90.931 -136.6142
53.000721 90.953 -137.0213
53.384785 90.973 -137.4246
53.771633 90.991 -137.8251
54.161285 91.008 -138.2252
54.553761 91.023 -138.6277
54.949081 91.038 -139.0345
55.347263 91.052 -139.4444
55.748333 91.068 -139.8537
56.152309 91.085 -140.2570
56.559212 91.105 -140.6496
56.969063 91.125 -141.0292
57.381886 91.147 -141.3980
57.797699 91.169 -141.7625
58.216526 91.190 -142.1327
58.638386 91.209 -142.5195
59.063305 91.228 -142.9315
59.491302 91.245 -143.3718
59.922401 91.261 -143.8351
60.356625 91.275 -144.3091
60.793995 91.288 -144.7770
61.234531 91.300 -145.2233
61.678261 91.311 -145.6397
62.125206 91.322 -146.0288
62.575390 91.335 -146.4033
63.028835 91.349 -146.7800
63.485569 91.365 -147.1717
63.945610 91.381 -147.5795
64.408989 91.396 -147.9927
64.875725 91.409 -148.3934
65.345840 91.420 -148.7637
65.819366 91.430 -149.0918
66.296318 91.439 -149.3759
66.776726 91.449 -149.6255
67.260620 91.463 -149.8613
67.748016 91.478 -150.1079
68.238945 91.493 -150.3839
68.733429 91.506 -150.6943
69.231499 91.513 -151.0330
69.733177 91.514 -151.3919
70.238495 91.511 -151.7688
70.747475 91.506 -152.1677
71.260139 91.499 -152.5928
71.776520 91.490 -153.0437
72.296638 91.480 -153.5140
72.820526 91.469 -153.9915
73.348213 91.457 -154.4611
73.879723 91.446 -154.9107
74.415085 91.438 -155.3358
74.954330 91.435 -155.7407
75.497482 91.437 -156.1318
76.044571 91.444 -156.5129
76.595619 91.454 -156.8853
77.150665 91.465 -157.2514
77.709732 91.475 -157.6138
78.272850 91.482 -157.9719
78.840050 91.484 -158.3221
79.411354 91.482 -158.6630
79.986801 91.478 -159.0001
80.566422 91.473 -159.3415
81.150238 91.466 -159.6902
81.738289 91.459 -160.0414
82.330597 91.452 -160.3881
82.927200 91.444 -160.7272
83.528122 91.437 -161.0619
84.133400 91.430 -161.3978
84.743065 91.422 -161.7405
85.357147 91.414 -162.0943
85.975677 91.405 -162.4586
86.598694 91.395 -162.8256
87.226227 91.384 -163.1862
87.858307 91.374 -163.5392
88.494965 91.364 -163.8922
89.136238 91.352 -164.2488
89.782158 91.338 -164.6008
90.432755 91.320 -164.9368
91.088066 91.301 -165.2543
91.748131 91.280 -165.5592
92.412979 91.257 -165.8539
93.082642 91.229 -166.1310
93.757156 91.197 -166.3805
94.436562 91.164 -166.5981
95.120888 91.130 -166.7839
95.810173 91.096 -166.9354
96.504456 91.062 -167.0464
97.203766 91.025 -167.1150
97.908142 90.986 -167.1528
98.617622 90.947 -167.1835
99.332245 90.910 -167.2257
100.052048 90.880 -167.2765
100.777069 90.862 -167.3128
101.507339 90.862 -167.3144
102.242905 90.881 -167.2858
102.983795 90.918 -167.2568
103.730057 90.968 -167.2651
104.481728 91.023 -167.3372
105.238846 91.074 -167.4862
106.001450 91.116 -167.7221
106.769577 91.145 -168.0559
107.543274 91.163 -168.4853
108.322578 91.172 -168.9798
109.107529 91.175 -169.4886
109.898170 91.171 -169.9730
110.694534 91.160 -170.4312
111.496674 91.143 -170.8896
112.304626 91.119 -171.3728
113.118431 91.090 -171.8828
113.938133 91.057 -172.3954
114.763779 91.022 -172.8652
115.595406 90.987 -173.2373
116.433060 90.954 -173.4682
117.276779 90.923 -173.5453
118.126617 90.904 -173.4820
118.982613 90.910 -173.2857
119.844810 90.942 -172.9520
120.713257 90.988 -172.5361
121.587997 91.026 -172.2166
122.469070 91.048 -172.2057
123.356529 91.062 -172.5638
124.250420 91.080 -173.1484
125.150787 91.103 -173.7628
126.057678 91.123 -174.3131
126.971146 91.127 -174.8094
127.891228 91.113 -175.2774
128.817978 91.084 -175.7187
129.751450 91.043 -176.1345
130.691681 90.997 -176.5301
131.638733 90.954 -176.8895
132.592636 90.921 -177.1814
133.553452 90.900 -177.4033
134.521240 90.888 -177.5963
135.496033 90.880 -177.8076
136.477890 90.874 -178.0516
137.466858 90.869 -178.3128
138.462997 90.866 -178.5708
139.466354 90.867 -178.8134
140.476990 90.870 -179.0361
141.494949 90.870 -179.2395
142.520279 90.866 -179.4276
143.553040 90.858 -179.6053
144.593277 90.844 -179.7784
145.641052 90.828 -179.9551
146.696426 90.809 179.8581
147.759445 90.787 179.6584
148.830170 90.764 179.4463
149.908661 90.738 179.2242
150.994965 90.712 178.9953
152.089142 90.684 178.7641
153.191238 90.656 178.5361
154.301331 90.627 178.3178
155.419464 90.597 178.1149
156.545700 90.569 177.9301
157.680099 90.542 177.7613
158.822708 90.519 177.6030
159.973602 90.498 177.4489
161.132843 90.480 177.2955
162.300476 90.463 177.1422
163.476578 90.445 176.9902
164.661194 90.425 176.8419
165.854401 90.403 176.6995
167.056244 90.378 176.5636
168.266800 90.350 176.4316
169.486130 90.319 176.2957
170.714294 90.285 176.1431
171.951355 90.249 175.9619
173.197388 90.213 175.7486
174.452454 90.178 175.5120
175.716614 90.147 175.2710
176.989929 90.120 175.0469
178.272476 90.096 174.8533
179.564316 90.072 174.6895
180.865509 90.047 174.5436
182.176132 90.021 174.4032
183.496262 89.995 174.2636
184.825958 89.969 174.1285
186.165283 89.943 174.0030
187.514313 89.918 173.8880
188.873123 89.892 173.7794
190.241776 89.865 173.6708
191.620346 89.837 173.5576
193.008911 89.810 173.4403
194.407532 89.782 173.3224
195.816284 89.754 173.2056
197.235245 89.726 173.0899
198.664490 89.697 172.9761
200.104095 89.668 172.8640
201.554138 89.638 172.7521
203.014679 89.609 172.6452
204.485809 89.579 172.5483
205.967590 89.549 172.4619
207.460114 89.519 172.3873
208.963455 89.488 172.3240
210.477692 89.458 172.2703
212.002899 89.427 172.2275
213.539154 89.396 172.1974
215.086548 89.366 172.1810
216.645157 89.335 172.1800
218.215057 89.305 172.1959
219.796341 89.277 172.2256
221.389069 89.251 172.2603
222.993347 89.228 172.2901
224.609253 89.209 172.3127
226.236862 89.193 172.3351
227.876266 89.180 172.3646
229.527557 89.170 172.4031
231.190811 89.162 172.4467
232.866119 89.158 172.4898
234.553558 89.156 172.5265
236.253235 89.154 172.5482
237.965225 89.151 172.5421
239.689621 89.148 172.4932
241.426514 89.143 172.3938
243.175995 89.136 172.2536
244.938141 89.127 172.0907
246.713058 89.115 171.9203
248.500839 89.098 171.7546
250.301575 89.078 171.6035
252.115356 89.054 171.4698
253.942291 89.029 171.3506
255.782455 89.003 171.2415
257.635956 88.977 171.1395
259.502899 88.951 171.0438
261.383362 88.926 170.9540
263.277466 88.901 170.8705
265.185272 88.876 170.7942
267.106903 88.851 170.7256
269.042480 88.827 170.6652
270.992065 88.802 170.6133
272.955780 88.778 170.5698
274.933716 88.754 170.5334
276.925995 88.731 170.5008
278.932709 88.708 170.4704
280.953979 88.685 170.4422
282.989899 88.662 170.4164
285.040558 88.639 170.3921
287.106079 88.616 170.3681
289.186554 88.594 170.3439
291.282104 88.572 170.3200
293.392853 88.549 170.2975
295.518890 88.526 170.2774
297.660339 88.504 170.2611
299.817322 88.481 170.2501
301.989929 88.460 170.2448
304.178284 88.438 170.2433
306.382477 88.417 170.2424
308.602661 88.395 170.2403
310.838928 88.374 170.2369
313.091400 88.351 170.2328
315.360199 88.329 170.2295
317.645416 88.306 170.2281
319.947205 88.283 170.2296
322.265686 88.261 170.2350
324.600952 88.238 170.2448
326.953156 88.216 170.2585
329.322388 88.194 170.2755
331.708801 88.172 170.2949
334.112488 88.151 170.3162
336.533600 88.129 170.3386
338.972260 88.108 170.3611
341.428589 88.088 170.3825
343.902710 88.068 170.4023
346.394775 88.048 170.4213
348.904907 88.029 170.4409
351.433228 88.010 170.4633
353.979858 87.992 170.4902
356.544952 87.973 170.5224
359.128632 87.955 170.5585
361.731018 87.937 170.5953
364.352264 87.920 170.6294
366.992523 87.902 170.6591
369.651917 87.885 170.6852
372.330566 87.868 170.7104
375.028625 87.851 170.7368
377.746246 87.834 170.7661
380.483551 87.818 170.7995
383.240692 87.801 170.8379
386.017822 87.785 170.8811
388.815063 87.769 170.9283
391.632568 87.752 170.9781
394.470490 87.736 171.0297
397.328979 87.719 171.0820
400.208191 87.702 171.1337
403.108276 87.685 171.1842
406.029358 87.668 171.2333
408.971619 87.652 171.2822
411.935181 87.636 171.3330
414.920227 87.621 171.3875
417.926910 87.606 171.4460
420.955383 87.591 171.5069
424.005798 87.576 171.5681
427.078308 87.561 171.6284
430.173096 87.546 171.6882
433.290314 87.531 171.7483
436.430115 87.517 171.8095
439.592682 87.503 171.8720
442.778137 87.489 171.9359
445.986694 87.475 172.0011
449.218506 87.462 172.0674
452.473724 87.448 172.1347
455.752533 87.434 172.2028
459.055115 87.421 172.2717
462.381622 87.408 172.3416
465.732239 87.394 172.4128
469.107117 87.381 172.4858
472.506470 87.369 172.5607
475.930450 87.356 172.6375
479.379242 87.344 172.7164
482.853027 87.332 172.7972
486.351990 87.321 172.8801
489.876282 87.309 172.9647
493.426117 87.298 173.0500
497.001678 87.288 173.1351
500.603149 87.277 173.2196
504.230713 87.266 173.3043
507.884583 87.256 173.3898
511.564911 87.245 173.4765
515.271912 87.235 173.5645
519.005798 87.225 173.6539
522.766724 87.216 173.7450
526.554932 87.206 173.8380
530.370544 87.197 173.9328
534.213806 87.188 174.0297
538.084961 87.179 174.1283
541.984131 87.170 174.2286
545.911560 87.162 174.3306
549.867432 87.153 174.4344
553.851990 87.145 174.5400
557.865417 87.137 174.6472
561.907959 87.130 174.7557
565.979797 87.122 174.8655
570.081116 87.115 174.9767
574.212158 87.108 175.0897
578.373108 87.101 175.2044
582.564209 87.095 175.3206
586.785706 87.089 175.4382
591.037781 87.083 175.5572
595.320679 87.077 175.6777
599.634644 87.072 175.7998
603.979858 87.067 175.9235
608.356567 87.062 176.0485
612.764954 87.058 176.1747
617.205322 87.054 176.3027
621.677856 87.050 176.4327
626.182800 87.047 176.5651
630.720398 87.044 176.6998
635.290833 87.041 176.8365
639.894409 87.039 176.9753
644.531372 87.037 177.1160
649.201904 87.035 177.2584
653.906311 87.033 177.4025
658.644775 87.032 177.5484
663.417603 87.031 177.6963
668.224976 87.031 177.8463
673.067200 87.032 177.9985
677.944519 87.033 178.1531
682.857178 87.034 178.3101
687.805420 87.036 178.4694
692.789551 87.039 178.6306
697.809814 87.042 178.7938
702.866455 87.046 178.9588
707.959717 87.050 179.1256
713.089905 87.055 179.2946
718.257263 87.060 179.4658
723.462036 87.066 179.6393
728.704529 87.072 179.8149
733.985046 87.079 179.9927
739.303833 87.087 -179.8274
744.661133 87.095 -179.6455
750.057251 87.105 -179.4618
755.492493 87.115 -179.2764
760.967102 87.126 -179.0890
766.481384 87.137 -178.8997
772.035645 87.150 -178.7085
777.630127 87.163 -178.5157
783.265137 87.177 -178.3214
788.940979 87.193 -178.1260
794.657959 87.209 -177.9296
800.416382 87.226 -177.7323
806.216553 87.245 -177.5344
812.058716 87.264 -177.3356
817.943237 87.285 -177.1362
823.870361 87.306 -176.9361
829.840454 87.329 -176.7356
835.853821 87.353 -176.5347
841.910767 87.378 -176.3337
848.011597 87.404 -176.1332
854.156616 87.432 -175.9333
860.346191 87.460 -175.7346
866.580627 87.490 -175.5373
872.860229 87.522 -175.3418
879.185364 87.554 -175.1485
885.556274 87.588 -174.9578
891.973389 87.624 -174.7695
898.437012 87.660 -174.5839
904.947449 87.698 -174.4014
911.505066 87.737 -174.2227
918.110229 87.778 -174.0479
924.763245 87.820 -173.8773
931.464478 87.864 -173.7111
938.214233 87.909 -173.5498
945.012939 87.955 -173.3939
951.860901 88.003 -173.2442
958.758484 88.052 -173.1013
965.706055 88.102 -172.9655
972.703979 88.153 -172.8371
979.752563 88.206 -172.7162
986.852234 88.259 -172.6027
994.003357 88.315 -172.4967
1001.206299 88.372 -172.3986
1008.461426 88.430 -172.3099
1015.769165 88.490 -172.2322
1023.129822 88.551 -172.1669
1030.543823 88.614 -172.1141
1038.011597 88.677 -172.0730
1045.533447 88.741 -172.0424
1053.109863 88.806 -172.0210
1060.741089 88.871 -172.0086
1068.427612 88.935 -172.0055
1076.169922 89.000 -172.0126
1083.968262 89.064 -172.0311
1091.823120 89.129 -172.0614
1099.734863 89.193 -172.1034
1107.703979 89.258 -172.1569
1115.730835 89.322 -172.2219
1123.815918 89.387 -172.2983
1131.959595 89.451 -172.3859
1140.162231 89.516 -172.4843
1148.424316 89.580 -172.5931
1156.746216 89.644 -172.7120
1165.128418 89.707 -172.8406
1173.571411 89.771 -172.9787
1182.075562 89.833 -173.1260
1190.641357 89.895 -173.2819
1199.269287 89.957 -173.4462
1207.959717 90.018 -173.6189
1216.713135 90.079 -173.7995
1225.529907 90.139 -173.9876
1234.410645 90.198 -174.1828
1243.355713 90.257 -174.3848
1252.365601 90.315 -174.5931
1261.440796 90.373 -174.8074
1270.581665 90.430 -175.0272
1279.788818 90.487 -175.2524
1289.062744 90.543 -175.4826
1298.403809 90.598 -175.7174
1307.812622 90.652 -175.9565
1317.289551 90.707 -176.1995
1326.835205 90.760 -176.4461
1336.449951 90.813 -176.6963
1346.134399 90.866 -176.9499
1355.889038 90.918 -177.2068
1365.714355 90.969 -177.4668
1375.610840 91.020 -177.7294
1385.579102 91.071 -177.9946
1395.619629 91.122 -178.2622
1405.732910 91.172 -178.5319
1415.919434 91.222 -178.8038
1426.179810 91.271 -179.0779
1436.514526 91.321 -179.3540
1446.924072 91.370 -179.6323
1457.409058 91.419 -179.9130
1467.970093 91.468 179.8041
1478.607666 91.517 179.5190
1489.322266 91.565 179.2318
1500.114502 91.614 178.9426
1510.984985 91.663 178.6513
1521.934204 91.711 178.3581
1532.962769 91.760 178.0629
1544.071289 91.808 177.7655
1555.260254 91.857 177.4658
1566.530273 91.906 177.1637
1577.881958 91.955 176.8591
1589.315918 92.004 176.5519
1600.832764 92.053 176.2420
1612.433105 92.103 175.9295
1624.117432 92.153 175.6142
1635.886475 92.203 175.2959
1647.740723 92.253 174.9744
1659.680908 92.303 174.6495
1671.707642 92.354 174.3208
1683.821533 92.405 173.9882
1696.023193 92.457 173.6517
1708.313232 92.509 173.3113
1720.692383 92.561 172.9667
1733.161255 92.614 172.6179
1745.720459 92.667 172.2646
1758.370728 92.720 171.9066
1771.112549 92.774 171.5436
1783.946777 92.828 171.1755
1796.874023 92.883 170.8018
1809.894897 92.938 170.4225
1823.010132 92.993 170.0374
1836.220459 93.049 169.6461
1849.526489 93.105 169.2486
1862.928955 93.161 168.8447
1876.428467 93.218 168.4345
1890.025879 93.275 168.0177
1903.721802 93.332 167.5940
1917.516968 93.390 167.1630
1931.412109 93.449 166.7245
1945.407959 93.507 166.2781
1959.505127 93.566 165.8238
1973.704468 93.625 165.3611
1988.006714 93.685 164.8899
2002.412598 93.745 164.4099
2016.922852 93.805 163.9208
2031.538330 93.865 163.4225
2046.259644 93.926 162.9148
2061.087646 93.986 162.3974
2076.023193 94.047 161.8703
2091.066895 94.108 161.3331
2106.219727 94.169 160.7856
2121.482178 94.229 160.2274
2136.855225 94.290 159.6581
2152.339844 94.351 159.0777
2167.936523 94.411 158.4857
2183.646240 94.472 157.8822
2199.469727 94.532 157.2672
2215.407959 94.592 156.6406
2231.461670 94.652 156.0024
2247.631836 94.711 155.3524
2263.919189 94.770 154.6902
2280.324463 94.828 154.0160
2296.848633 94.885 153.3295
2313.492432 94.942 152.6306
2330.256836 94.998 151.9194
2347.142822 95.054 151.1959
2364.151123 95.108 150.4598
2381.282715 95.162 149.7115
2398.538574 95.215 148.9509
2415.919434 95.266 148.1782
2433.426270 95.317 147.3936
2451.059814 95.366 146.5972
2468.821289 95.414 145.7891
2486.711426 95.460 144.9693
2504.731201 95.505 144.1380
2522.881592 95.548 143.2953
2541.163330 95.589 142.4416
2559.577637 95.629 141.5771
2578.125488 95.667 140.7023
2596.807617 95.703 139.8179
2615.625244 95.736 138.9246
2634.579102 95.767 138.0230
2653.670410 95.796 137.1141
2672.899902 95.823 136.1990
2692.268799 95.847 135.2786
2711.778076 95.868 134.3544
2731.428711 95.887 133.4278
2751.221680 95.903 132.5005
2771.158203 95.916 131.5746
2791.239258 95.926 130.6524
2811.465820 95.934 129.7367
2831.838867 95.939 128.8304
2852.359619 95.941 127.9367
2873.029053 95.943 127.0588
2893.848145 95.942 126.1994
2914.818115 95.942 125.3606
2935.940186 95.942 124.5431
2957.215332 95.945 123.7452
2978.644531 95.950 122.9624
3000.229004 95.960 122.1871
3021.969971 95.975 121.4083
3043.868408 95.994 120.6134
3065.925537 96.018 119.7892
3088.142578 96.045 118.9250
3110.520508 96.072 118.0141
3133.060547 96.099 117.0548
3155.763916 96.122 116.0507
3178.631836 96.140 115.0093
3201.665527 96.152 113.9401
3224.866211 96.158 112.8536
3248.234863 96.157 111.7593
3271.772949 96.151 110.6654
3295.481445 96.138 109.5784
3319.361816 96.121 108.5028
3343.415283 96.100 107.4418
3367.643066 96.075 106.3976
3392.046387 96.047 105.3714
3416.626465 96.017 104.3637
3441.384766 95.985 103.3748
3466.322510 95.952 102.4044
3491.440918 95.918 101.4520
3516.741455 95.883 100.5162
3542.225098 95.849 99.5955
3567.893555 95.815 98.6874
3593.748047 95.782 97.7886
3619.789795 95.750 96.8958
3646.020264 95.718 96.0051
3672.440918 95.687 95.1134
3699.052979 95.657 94.2184
3725.857910 95.625 93.3193
3752.856934 95.593 92.4171
3780.051758 95.558 91.5145
3807.443604 95.522 90.6157
3835.033936 95.484 89.7257
3862.824219 95.444 88.8496
3890.815918 95.403 87.9916
3919.010254 95.361 87.1546
3947.408936 95.320 86.3388
3976.013428 95.280 85.5429
4004.825195 95.243 84.7632
4033.845703 95.208 83.9952
4063.076660 95.176 83.2336
4092.519287 95.147 82.4732
4122.175293 95.121 81.7093
4152.046387 95.098 80.9382
4182.133789 95.077 80.1567
4212.439453 95.057 79.3630
4242.964355 95.039 78.5559
4273.710449 95.022 77.7352
4304.679688 95.005 76.9014
4335.873047 94.987 76.0559
4367.292480 94.970 75.2008
4398.939453 94.952 74.3383
4430.815918 94.934 73.4708
4462.923340 94.915 72.6002
4495.263672 94.897 71.7274
4527.838379 94.879 70.8524
4560.648926 94.862 69.9742
4593.697266 94.846 69.0911
4626.984863 94.832 68.2008
4660.513672 94.818 67.3009
4694.285645 94.806 66.3893
4728.302246 94.794 65.4642
4762.565430 94.784 64.5241
4797.077148 94.773 63.5683
4831.838867 94.763 62.5966
4866.852539 94.752 61.6091
4902.119629 94.741 60.6061
4937.642578 94.730 59.5886
4973.422852 94.718 58.5572
5009.462402 94.705 57.5128
5045.763184 94.691 56.4561
5082.326660 94.676 55.3879
5119.155273 94.660 54.3090
5156.250977 94.643 53.2206
5193.615234 94.624 52.1237
5231.250488 94.604 51.0201
5269.158203 94.583 49.9110
5307.340820 94.560 48.7982
5345.799805 94.537 47.6828
5384.537598 94.512 46.5663
5423.556152 94.486 45.4492
5462.857422 94.460 44.3322
5502.443359 94.433 43.2152
5542.316406 94.406 42.0983
5582.478516 94.379 40.9810
5622.931641 94.352 39.8629
5663.677734 94.324 38.7437
5704.719238 94.297 37.6230
5746.058105 94.269 36.5011
5787.696289 94.241 35.3783
5829.636230 94.213 34.2552
5871.880371 94.184 33.1328
5914.430664 94.155 32.0117
5957.289062 94.127 30.8930
6000.458008 94.098 29.7776
6043.939941 94.069 28.6665
6087.736816 94.041 27.5610
6131.851074 94.013 26.4623
6176.285156 93.986 25.3716
6221.041016 93.960 24.2899
6266.121094 93.936 23.2180
6311.527832 93.914 22.1560
6357.263672 93.895 21.1039
6403.331055 93.879 20.0605
6449.732422 93.866 19.0245
6496.469727 93.859 17.9938
6543.545898 93.855 16.9653
6590.962891 93.858 15.9357
6638.723633 93.866 14.9010
6686.830566 93.880 13.8575
6735.286133 93.900 12.8011
6784.092773 93.926 11.7283
6833.252930 93.958 10.6356
6882.769531 93.996 9.5206
6932.645020 94.040 8.3812
6982.881836 94.091 7.2161
7033.482910 94.147 6.0240
7084.450195 94.210 4.8042
7135.787109 94.280 3.5559
7187.496094 94.357 2.2778
7239.579590 94.443 0.9680
7292.040527 94.539 -0.3765
7344.881836 94.645 -1.7612
7398.105957 94.765 -3.1946
7451.715820 94.899 -4.6899
7505.713867 95.049 -6.2659
7560.103516 95.217 -7.9471
7614.887207 95.403 -9.7645
7670.067871 95.608 -11.7537
7725.648438 95.828 -13.9540
7781.631836 96.061 -16.4050
7838.020508 96.301 -19.1445
7894.817871 96.541 -22.2047
7952.026855 96.771 -25.6086
8009.650391 96.983 -29.3670
8067.691406 97.164 -33.4760
8126.153320 97.303 -37.9142
8185.038574 97.389 -42.6429
8244.350586 97.413 -47.6058
8304.092773 97.366 -52.7311
8364.267578 97.243 -57.9354
8424.878906 97.043 -63.1293
8485.928711 96.765 -68.2229
8547.420898 96.415 -73.1324
8609.359375 95.998 -77.7848
8671.746094 95.524 -82.1218
8734.584961 95.002 -86.1018
8797.878906 94.444 -89.6993
8861.631836 93.859 -92.9048
8925.846680 93.256 -95.7215
8990.527344 92.646 -98.1633
9055.676758 92.036 -100.2520
9121.297852 91.431 -102.0134
9187.394531 90.836 -103.4768
9253.969727 90.256 -104.6715
9321.027344 89.691 -105.6265
9388.571289 89.145 -106.3684
9456.604492 88.617 -106.9216
9525.130859 88.108 -107.3079
9594.154297 87.618 -107.5460
9663.677734 87.146 -107.6520
9733.705078 86.693 -107.6401
9804.239258 86.258 -107.5223
9875.285156 85.840 -107.3086
9946.845703 85.439 -107.0072
10018.924805 85.055 -106.6243
10091.526367 84.686 -106.1644
10164.653320 84.332 -105.6306
10238.310547 83.991 -105.0233
10312.501953 83.664 -104.3415
10387.230469 83.350 -103.5822
10462.500977 83.048 -102.7406
10538.316406 82.758 -101.8105
10614.681641 82.481 -100.7828
10691.599609 82.216 -99.6461
10769.075195 81.965 -98.3853
10847.112305 81.728 -96.9810
10925.714844 81.508 -95.4089
11004.886719 81.309 -93.6383
11084.632812 81.136 -91.6331
11164.957031 80.996 -89.3541
11245.863281 80.903 -86.7653
11327.355469 80.872 -83.8468
11409.438477 80.921 -80.6130
11492.116211 81.070 -77.1368
11575.392578 81.336 -73.5679
11659.272461 81.725 -70.1331
11743.760742 82.233 -67.1052
11828.861328 82.840 -64.7444
11914.578125 83.516 -63.2386
12000.916016 84.225 -62.6686
12087.879883 84.935 -63.0078
12175.473633 85.620 -64.1461
12263.702148 86.264 -65.9236
12352.570312 86.859 -68.1624
12442.082031 87.408 -70.6935
12532.242188 87.920 -73.3759
12623.055664 88.409 -76.1086
12714.527344 88.895 -78.8372
12806.662109 89.394 -81.5542
12899.464844 89.926 -84.2982
12992.939453 90.503 -87.1488
13087.091797 91.134 -90.2198
13181.925781 91.823 -93.6498
13277.447266 92.563 -97.5905
13373.661133 93.338 -102.1923
13470.572266 94.124 -107.5883
13568.185547 94.889 -113.8764
13666.505859 95.595 -121.1029
13765.539062 96.202 -129.2469
13865.290039 96.671 -138.2078
13965.763672 96.966 -147.7997
14066.965820 97.062 -157.7590
14168.900391 96.948 -167.7704
14271.574219 96.628 -177.5095
14374.992188 96.121 173.3125
14479.159180 95.457 164.9181
14584.081055 94.674 157.4510
14689.763672 93.808 150.9796
14796.211914 92.900 145.5057
14903.431641 91.984 140.9783
15011.427734 91.090 137.3076
15120.207031 90.242 134.3801
15229.774414 89.456 132.0718
15340.135742 88.743 130.2602
15451.296875 88.108 128.8312
15563.263672 87.551 127.6829
15676.041016 87.071 126.7255
15789.635742 86.664 125.8791
15904.053711 86.325 125.0728
16019.300781 86.048 124.2439
16135.382812 85.826 123.3385
16252.306641 85.653 122.3134
16370.077148 85.521 121.1354
16488.701172 85.424 119.7789
16608.185547 85.356 118.2228
16728.535156 85.312 116.4457
16849.757812 85.287 114.4246
16971.857422 85.279 112.1341
17094.841797 85.279 109.5502
17218.718750 85.284 106.6516
17343.492188 85.286 103.4238
17469.169922 85.277 99.8597
17595.757812 85.250 95.9604
17723.263672 85.198 91.7337
17851.693359 85.113 87.1932
17981.054688 84.987 82.3580
18111.353516 84.812 77.2558
18242.595703 84.578 71.9306
18374.789062 84.277 66.4504
18507.939453 83.898 60.9181
18642.054688 83.435 55.4771
18777.142578 82.890 50.3079
18913.208984 82.274 45.5958
19050.261719 81.619 41.4592
19188.308594 80.969 37.8616
19327.355469 80.368 34.5856
19467.410156 79.847 31.3306
19608.478516 79.418 27.8704
19750.570312 79.081 24.1500
19893.691406 78.845 20.2766
20037.849609 0.000 16.4399
