* Measurement data measured by REW V5.30.4
* Source: Headset (2- CX31993 HIFI AUDIO), MICROPHONE (Master Volume), L, volume: 0.500
* Format: 256k Log Swept Sine, 1 sweep at -12.0 dBFS with no timing reference
* Dated: 06 8, 24 6:15:17 PM
* REW Settings:
*  C-weighting compensation: Off
*  Target level: 75.0 dB
* Note: ; 
* Measurement: T 4U Reference R
* Smoothing: 1/12 octave
* Frequency Step: 96 ppo
* Start Frequency: 20.141602 Hz
*
* Freq(Hz) SPL(dB) Phase(degrees)
20.141602 76.503 -68.0462
20.287556 76.605 -67.9932
20.434568 76.756 -67.9650
20.582645 76.944 -68.0259
20.731796 77.154 -68.2231
20.882027 77.375 -68.5781
21.033346 77.593 -69.0870
21.185762 77.800 -69.7258
21.339283 77.989 -70.4573
21.493916 78.153 -71.2379
21.649670 78.293 -72.0228
21.806553 78.406 -72.7709
21.964573 78.496 -73.4482
22.123737 78.566 -74.0311
22.284056 78.619 -74.5080
22.445536 78.661 -74.8808
22.608185 78.696 -75.1640
22.772013 78.730 -75.3833
22.937029 78.764 -75.5713
23.103241 78.801 -75.7637
23.270657 78.841 -75.9934
23.439285 78.885 -76.2859
23.609137 78.929 -76.6560
23.780218 78.974 -77.1055
23.952539 79.017 -77.6237
24.126110 79.060 -78.1896
24.300938 79.102 -78.7746
24.477032 79.146 -79.3474
24.654402 79.194 -79.8782
24.833057 79.250 -80.3428
25.013008 79.315 -80.7264
25.194263 79.392 -81.0254
25.376831 79.481 -81.2468
25.560722 79.581 -81.4073
25.745945 79.689 -81.5291
25.932510 79.800 -81.6360
26.120428 79.909 -81.7499
26.309708 80.012 -81.8874
26.500359 80.103 -82.0589
26.692390 80.179 -82.2680
26.885815 80.239 -82.5132
27.080641 80.282 -82.7891
27.276878 80.311 -83.0889
27.474539 80.329 -83.4063
27.673630 80.341 -83.7366
27.874165 80.352 -84.0777
28.076153 80.367 -84.4303
28.279604 80.392 -84.7968
28.484529 80.427 -85.1804
28.690941 80.476 -85.5838
28.898848 80.538 -86.0084
29.108261 80.612 -86.4532
29.319191 80.693 -86.9158
29.531651 80.780 -87.3921
29.745649 80.867 -87.8777
29.961199 80.952 -88.3681
30.178310 81.032 -88.8594
30.396996 81.106 -89.3481
30.617264 81.172 -89.8313
30.839128 81.232 -90.3064
31.062601 81.287 -90.7709
31.287693 81.339 -91.2228
31.514416 81.390 -91.6603
31.742783 81.445 -92.0824
31.972803 81.504 -92.4889
32.204491 81.569 -92.8794
32.437859 81.638 -93.2535
32.672916 81.711 -93.6095
32.909679 81.785 -93.9446
33.148155 81.857 -94.2546
33.388359 81.924 -94.5362
33.630306 81.985 -94.7878
33.874004 82.038 -95.0120
34.119469 82.084 -95.2170
34.366711 82.126 -95.4157
34.615746 82.164 -95.6250
34.866585 82.202 -95.8613
35.119244 82.241 -96.1368
35.373734 82.283 -96.4566
35.630066 82.330 -96.8166
35.888256 82.382 -97.2053
36.148315 82.441 -97.6071
36.410259 82.506 -98.0079
36.674103 82.579 -98.3986
36.939857 82.655 -98.7775
37.207539 82.733 -99.1490
37.477161 82.808 -99.5198
37.748737 82.874 -99.8948
38.022282 82.929 -100.2741
38.297806 82.970 -100.6521
38.575329 82.999 -101.0205
38.854862 83.018 -101.3725
39.136421 83.033 -101.7068
39.420021 83.051 -102.0306
39.705673 83.076 -102.3574
39.993397 83.111 -102.7029
40.283207 83.157 -103.0784
40.575115 83.210 -103.4855
40.869141 83.266 -103.9144
41.165295 83.321 -104.3463
41.463596 83.371 -104.7592
41.764057 83.415 -105.1342
42.066696 83.455 -105.4617
42.371529 83.492 -105.7434
42.678570 83.529 -105.9922
42.987835 83.568 -106.2286
43.299343 83.612 -106.4752
43.613110 83.662 -106.7512
43.929150 83.718 -107.0671
44.247478 83.777 -107.4229
44.568115 83.840 -107.8079
44.891075 83.902 -108.2044
45.216373 83.964 -108.5926
45.544029 84.023 -108.9560
45.874062 84.078 -109.2862
46.206486 84.129 -109.5840
46.541317 84.175 -109.8593
46.878574 84.215 -110.1269
47.218277 84.251 -110.4026
47.560440 84.283 -110.6989
47.905083 84.313 -111.0234
48.252224 84.342 -111.3770
48.601879 84.374 -111.7552
48.954067 84.411 -112.1486
49.308807 84.454 -112.5453
49.666119 84.502 -112.9330
50.026020 84.555 -113.3022
50.388531 84.609 -113.6481
50.753666 84.662 -113.9716
51.121449 84.712 -114.2786
51.491894 84.756 -114.5773
51.865025 84.796 -114.8762
52.240860 84.832 -115.1816
52.619419 84.867 -115.4972
53.000721 84.905 -115.8230
53.384785 84.945 -116.1563
53.771633 84.990 -116.4921
54.161285 85.037 -116.8250
54.553761 85.084 -117.1507
54.949081 85.129 -117.4690
55.347263 85.170 -117.7839
55.748333 85.207 -118.1032
56.152309 85.241 -118.4362
56.559212 85.273 -118.7894
56.969063 85.305 -119.1641
57.381886 85.340 -119.5546
57.797699 85.377 -119.9483
58.216526 85.416 -120.3293
58.638386 85.456 -120.6825
59.063305 85.497 -120.9996
59.491302 85.536 -121.2818
59.922401 85.575 -121.5394
60.356625 85.610 -121.7855
60.793995 85.642 -122.0299
61.234531 85.669 -122.2761
61.678261 85.693 -122.5246
62.125206 85.717 -122.7798
62.575390 85.743 -123.0531
63.028835 85.775 -123.3599
63.485569 85.811 -123.7105
63.945610 85.850 -124.1028
64.408989 85.891 -124.5223
64.875725 85.931 -124.9490
65.345840 85.969 -125.3655
65.819366 86.007 -125.7623
66.296318 86.043 -126.1367
66.776726 86.078 -126.4898
67.260620 86.113 -126.8233
67.748016 86.148 -127.1391
68.238945 86.183 -127.4417
68.733429 86.217 -127.7401
69.231499 86.250 -128.0463
69.733177 86.278 -128.3680
70.238495 86.303 -128.7022
70.747475 86.325 -129.0370
71.260139 86.350 -129.3636
71.776520 86.382 -129.6903
72.296638 86.424 -130.0420
72.820526 86.471 -130.4428
73.348213 86.516 -130.8942
73.879723 86.550 -131.3677
74.415085 86.571 -131.8186
74.954330 86.582 -132.2076
75.497482 86.588 -132.5143
76.044571 86.594 -132.7400
76.595619 86.606 -132.9059
77.150665 86.628 -133.0498
77.709732 86.658 -133.2164
78.272850 86.695 -133.4381
78.840050 86.733 -133.7198
79.411354 86.770 -134.0430
79.986801 86.804 -134.3837
80.566422 86.838 -134.7282
81.150238 86.869 -135.0733
81.738289 86.899 -135.4179
82.330597 86.925 -135.7575
82.927200 86.947 -136.0879
83.528122 86.966 -136.4089
84.133400 86.982 -136.7240
84.743065 86.995 -137.0378
85.357147 87.008 -137.3566
85.975677 87.021 -137.6871
86.598694 87.036 -138.0308
87.226227 87.052 -138.3813
87.858307 87.070 -138.7309
88.494965 87.090 -139.0805
89.136238 87.112 -139.4378
89.782158 87.133 -139.8055
90.432755 87.153 -140.1771
91.088066 87.173 -140.5425
91.748131 87.192 -140.8940
92.412979 87.210 -141.2257
93.082642 87.228 -141.5342
93.757156 87.246 -141.8222
94.436562 87.264 -142.0993
95.120888 87.280 -142.3766
95.810173 87.295 -142.6619
96.504456 87.309 -142.9568
97.203766 87.321 -143.2581
97.908142 87.333 -143.5608
98.617622 87.345 -143.8607
99.332245 87.358 -144.1557
100.052048 87.371 -144.4460
100.777069 87.383 -144.7328
101.507339 87.394 -145.0189
102.242905 87.405 -145.3058
102.983795 87.416 -145.5916
103.730057 87.428 -145.8724
104.481728 87.438 -146.1467
105.238846 87.446 -146.4186
106.001450 87.453 -146.6963
106.769577 87.459 -146.9846
107.543274 87.467 -147.2793
108.322578 87.479 -147.5726
109.107529 87.495 -147.8646
109.898170 87.518 -148.1653
110.694534 87.547 -148.4795
111.496674 87.582 -148.7940
112.304626 87.619 -149.0870
113.118431 87.649 -149.3472
113.938133 87.667 -149.5758
114.763779 87.674 -149.7708
115.595406 87.676 -149.9236
116.433060 87.678 -150.0374
117.276779 87.681 -150.1443
118.126617 87.685 -150.2956
118.982613 87.688 -150.5332
119.844810 87.688 -150.8647
120.713257 87.678 -151.2542
121.587997 87.657 -151.6442
122.469070 87.630 -151.9967
123.356529 87.604 -152.3056
124.250420 87.582 -152.5787
125.150787 87.563 -152.8268
126.057678 87.543 -153.0610
126.971146 87.520 -153.2857
127.891228 87.492 -153.4925
128.817978 87.458 -153.6601
129.751450 87.419 -153.7541
130.691681 87.380 -153.7419
131.638733 87.346 -153.6299
132.592636 87.323 -153.4826
133.553452 87.315 -153.3939
134.521240 87.326 -153.4303
135.496033 87.358 -153.5921
136.477890 87.408 -153.8263
137.466858 87.471 -154.0647
138.462997 87.546 -154.2415
139.466354 87.633 -154.3111
140.476990 87.732 -154.2959
141.494949 87.836 -154.2826
142.520279 87.931 -154.3451
143.553040 88.008 -154.5074
144.593277 88.066 -154.7608
145.641052 88.109 -155.0869
146.696426 88.141 -155.4660
147.759445 88.165 -155.8794
148.830170 88.183 -156.3111
149.908661 88.196 -156.7460
150.994965 88.206 -157.1720
152.089142 88.212 -157.5859
153.191238 88.216 -157.9916
154.301331 88.219 -158.3913
155.419464 88.219 -158.7819
156.545700 88.218 -159.1578
157.680099 88.214 -159.5134
158.822708 88.210 -159.8461
159.973602 88.203 -160.1601
161.132843 88.196 -160.4651
162.300476 88.189 -160.7713
163.476578 88.182 -161.0835
164.661194 88.175 -161.4007
165.854401 88.168 -161.7204
167.056244 88.161 -162.0426
168.266800 88.155 -162.3714
169.486130 88.151 -162.7126
170.714294 88.148 -163.0694
171.951355 88.146 -163.4408
173.197388 88.144 -163.8184
174.452454 88.140 -164.1871
175.716614 88.133 -164.5265
176.989929 88.124 -164.8141
178.272476 88.114 -165.0343
179.564316 88.103 -165.1890
180.865509 88.093 -165.2991
182.176132 88.087 -165.3940
183.496262 88.082 -165.5001
184.825958 88.079 -165.6319
186.165283 88.076 -165.7919
187.514313 88.072 -165.9746
188.873123 88.067 -166.1717
190.241776 88.062 -166.3754
191.620346 88.056 -166.5808
193.008911 88.050 -166.7868
194.407532 88.044 -166.9930
195.816284 88.037 -167.1977
197.235245 88.030 -167.3988
198.664490 88.023 -167.5958
200.104095 88.016 -167.7894
201.554138 88.009 -167.9820
203.014679 88.001 -168.1749
204.485809 87.993 -168.3678
205.967590 87.984 -168.5594
207.460114 87.976 -168.7490
208.963455 87.968 -168.9358
210.477692 87.960 -169.1197
212.002899 87.951 -169.3011
213.539154 87.943 -169.4804
215.086548 87.934 -169.6582
216.645157 87.925 -169.8346
218.215057 87.916 -170.0098
219.796341 87.906 -170.1835
221.389069 87.896 -170.3546
222.993347 87.886 -170.5222
224.609253 87.875 -170.6855
226.236862 87.865 -170.8434
227.876266 87.854 -170.9959
229.527557 87.843 -171.1439
231.190811 87.832 -171.2887
232.866119 87.821 -171.4331
234.553558 87.809 -171.5797
236.253235 87.796 -171.7305
237.965225 87.784 -171.8851
239.689621 87.772 -172.0387
241.426514 87.762 -172.1847
243.175995 87.752 -172.3194
244.938141 87.743 -172.4430
246.713058 87.734 -172.5574
248.500839 87.724 -172.6660
250.301575 87.715 -172.7722
252.115356 87.705 -172.8754
253.942291 87.697 -172.9719
255.782455 87.690 -173.0584
257.635956 87.686 -173.1352
259.502899 87.684 -173.2067
261.383362 87.682 -173.2809
263.277466 87.680 -173.3680
265.185272 87.677 -173.4749
267.106903 87.673 -173.6002
269.042480 87.670 -173.7389
270.992065 87.668 -173.8847
272.955780 87.667 -174.0320
274.933716 87.667 -174.1788
276.925995 87.667 -174.3240
278.932709 87.666 -174.4664
280.953979 87.664 -174.6064
282.989899 87.660 -174.7459
285.040558 87.654 -174.8850
287.106079 87.645 -175.0201
289.186554 87.635 -175.1478
291.282104 87.625 -175.2680
293.392853 87.615 -175.3831
295.518890 87.605 -175.4960
297.660339 87.596 -175.6099
299.817322 87.586 -175.7278
301.989929 87.577 -175.8488
304.178284 87.567 -175.9685
306.382477 87.556 -176.0828
308.602661 87.544 -176.1922
310.838928 87.533 -176.3007
313.091400 87.524 -176.4098
315.360199 87.516 -176.5182
317.645416 87.509 -176.6246
319.947205 87.502 -176.7282
322.265686 87.494 -176.8294
324.600952 87.485 -176.9290
326.953156 87.475 -177.0275
329.322388 87.464 -177.1256
331.708801 87.453 -177.2235
334.112488 87.442 -177.3212
336.533600 87.431 -177.4180
338.972260 87.420 -177.5128
341.428589 87.410 -177.6044
343.902710 87.399 -177.6922
346.394775 87.388 -177.7768
348.904907 87.378 -177.8591
351.433228 87.368 -177.9393
353.979858 87.358 -178.0172
356.544952 87.349 -178.0932
359.128632 87.339 -178.1679
361.731018 87.329 -178.2416
364.352264 87.320 -178.3141
366.992523 87.310 -178.3848
369.651917 87.301 -178.4537
372.330566 87.291 -178.5208
375.028625 87.282 -178.5867
377.746246 87.273 -178.6518
380.483551 87.264 -178.7158
383.240692 87.255 -178.7783
386.017822 87.246 -178.8392
388.815063 87.237 -178.8988
391.632568 87.228 -178.9572
394.470490 87.219 -179.0144
397.328979 87.210 -179.0702
400.208191 87.202 -179.1245
403.108276 87.193 -179.1774
406.029358 87.184 -179.2291
408.971619 87.175 -179.2797
411.935181 87.167 -179.3287
414.920227 87.158 -179.3757
417.926910 87.150 -179.4206
420.955383 87.142 -179.4636
424.005798 87.134 -179.5048
427.078308 87.127 -179.5443
430.173096 87.119 -179.5824
433.290314 87.111 -179.6195
436.430115 87.103 -179.6561
439.592682 87.095 -179.6926
442.778137 87.088 -179.7295
445.986694 87.080 -179.7662
449.218506 87.073 -179.8020
452.473724 87.066 -179.8364
455.752533 87.059 -179.8686
459.055115 87.052 -179.8987
462.381622 87.045 -179.9265
465.732239 87.039 -179.9524
469.107117 87.032 -179.9769
472.506470 87.026 179.9997
475.930450 87.019 179.9772
479.379242 87.012 179.9560
482.853027 87.006 179.9364
486.351990 87.000 179.9185
489.876282 86.994 179.9022
493.426117 86.988 179.8869
497.001678 86.983 179.8723
500.603149 86.977 179.8585
504.230713 86.972 179.8457
507.884583 86.966 179.8342
511.564911 86.960 179.8239
515.271912 86.955 179.8148
519.005798 86.950 179.8074
522.766724 86.945 179.8016
526.554932 86.939 179.7975
530.370544 86.935 179.7950
534.213806 86.930 179.7943
538.084961 86.926 179.7954
541.984131 86.921 179.7983
545.911560 86.917 179.8029
549.867432 86.914 179.8091
553.851990 86.910 179.8168
557.865417 86.907 179.8258
561.907959 86.903 179.8360
565.979797 86.900 179.8470
570.081116 86.897 179.8588
574.212158 86.894 179.8714
578.373108 86.892 179.8854
582.564209 86.889 179.9012
586.785706 86.887 179.9193
591.037781 86.885 179.9396
595.320679 86.884 179.9623
599.634644 86.882 179.9869
603.979858 86.881 -179.9868
608.356567 86.880 -179.9586
612.764954 86.880 -179.9285
617.205322 86.879 -179.8961
621.677856 86.879 -179.8616
626.182800 86.878 -179.8250
630.720398 86.879 -179.7864
635.290833 86.879 -179.7455
639.894409 86.880 -179.7026
644.531372 86.882 -179.6578
649.201904 86.884 -179.6112
653.906311 86.886 -179.5629
658.644775 86.889 -179.5133
663.417603 86.891 -179.4622
668.224976 86.895 -179.4095
673.067200 86.898 -179.3551
677.944519 86.902 -179.2988
682.857178 86.907 -179.2407
687.805420 86.911 -179.1806
692.789551 86.917 -179.1182
697.809814 86.923 -179.0531
702.866455 86.929 -178.9850
707.959717 86.936 -178.9143
713.089905 86.943 -178.8412
718.257263 86.951 -178.7659
723.462036 86.960 -178.6883
728.704529 86.969 -178.6083
733.985046 86.978 -178.5260
739.303833 86.988 -178.4419
744.661133 86.999 -178.3563
750.057251 87.011 -178.2694
755.492493 87.024 -178.1810
760.967102 87.037 -178.0911
766.481384 87.051 -177.9996
772.035645 87.066 -177.9064
777.630127 87.082 -177.8117
783.265137 87.099 -177.7155
788.940979 87.116 -177.6179
794.657959 87.135 -177.5192
800.416382 87.154 -177.4194
806.216553 87.175 -177.3187
812.058716 87.197 -177.2172
817.943237 87.219 -177.1149
823.870361 87.243 -177.0121
829.840454 87.268 -176.9089
835.853821 87.294 -176.8057
841.910767 87.321 -176.7025
848.011597 87.349 -176.5996
854.156616 87.379 -176.4974
860.346191 87.409 -176.3961
866.580627 87.441 -176.2959
872.860229 87.474 -176.1970
879.185364 87.509 -176.1002
885.556274 87.544 -176.0058
891.973389 87.582 -175.9145
898.437012 87.620 -175.8265
904.947449 87.660 -175.7421
911.505066 87.701 -175.6618
918.110229 87.744 -175.5857
924.763245 87.788 -175.5143
931.464478 87.833 -175.4479
938.214233 87.880 -175.3865
945.012939 87.928 -175.3306
951.860901 87.977 -175.2803
958.758484 88.028 -175.2363
965.706055 88.079 -175.1988
972.703979 88.132 -175.1684
979.752563 88.187 -175.1455
986.852234 88.242 -175.1308
994.003357 88.299 -175.1242
1001.206299 88.357 -175.1264
1008.461426 88.418 -175.1385
1015.769165 88.479 -175.1625
1023.129822 88.542 -175.1993
1030.543823 88.607 -175.2489
1038.011597 88.672 -175.3103
1045.533447 88.738 -175.3822
1053.109863 88.804 -175.4633
1060.741089 88.870 -175.5532
1068.427612 88.937 -175.6523
1076.169922 89.003 -175.7618
1083.968262 89.069 -175.8831
1091.823120 89.135 -176.0169
1099.734863 89.201 -176.1630
1107.703979 89.267 -176.3212
1115.730835 89.334 -176.4911
1123.815918 89.400 -176.6727
1131.959595 89.466 -176.8657
1140.162231 89.532 -177.0700
1148.424316 89.597 -177.2850
1156.746216 89.662 -177.5106
1165.128418 89.727 -177.7462
1173.571411 89.792 -177.9916
1182.075562 89.856 -178.2464
1190.641357 89.919 -178.5102
1199.269287 89.982 -178.7827
1207.959717 90.044 -179.0635
1216.713135 90.106 -179.3522
1225.529907 90.168 -179.6486
1234.410645 90.228 -179.9524
1243.355713 90.288 179.7368
1252.365601 90.348 179.4191
1261.440796 90.407 179.0949
1270.581665 90.465 178.7647
1279.788818 90.522 178.4287
1289.062744 90.579 178.0874
1298.403809 90.635 177.7410
1307.812622 90.690 177.3900
1317.289551 90.746 177.0346
1326.835205 90.800 176.6754
1336.449951 90.854 176.3124
1346.134399 90.907 175.9461
1355.889038 90.960 175.5762
1365.714355 91.013 175.2030
1375.610840 91.065 174.8265
1385.579102 91.117 174.4470
1395.619629 91.168 174.0645
1405.732910 91.220 173.6792
1415.919434 91.271 173.2911
1426.179810 91.321 172.9001
1436.514526 91.372 172.5063
1446.924072 91.422 172.1098
1457.409058 91.472 171.7107
1467.970093 91.522 171.3091
1478.607666 91.571 170.9050
1489.322266 91.621 170.4985
1500.114502 91.671 170.0894
1510.984985 91.720 169.6776
1521.934204 91.770 169.2632
1532.962769 91.819 168.8461
1544.071289 91.869 168.4263
1555.260254 91.918 168.0036
1566.530273 91.968 167.5780
1577.881958 92.018 167.1493
1589.315918 92.068 166.7173
1600.832764 92.118 166.2818
1612.433105 92.169 165.8428
1624.117432 92.220 165.4002
1635.886475 92.270 164.9540
1647.740723 92.322 164.5040
1659.680908 92.373 164.0502
1671.707642 92.425 163.5922
1683.821533 92.477 163.1299
1696.023193 92.530 162.6628
1708.313232 92.583 162.1909
1720.692383 92.636 161.7141
1733.161255 92.689 161.2324
1745.720459 92.743 160.7456
1758.370728 92.798 160.2534
1771.112549 92.852 159.7556
1783.946777 92.907 159.2518
1796.874023 92.962 158.7421
1809.894897 93.018 158.2261
1823.010132 93.074 157.7036
1836.220459 93.130 157.1743
1849.526489 93.187 156.6381
1862.928955 93.244 156.0946
1876.428467 93.301 155.5439
1890.025879 93.359 154.9858
1903.721802 93.417 154.4200
1917.516968 93.475 153.8462
1931.412109 93.534 153.2642
1945.407959 93.593 152.6737
1959.505127 93.653 152.0744
1973.704468 93.713 151.4661
1988.006714 93.773 150.8484
2002.412598 93.834 150.2213
2016.922852 93.894 149.5844
2031.538330 93.955 148.9377
2046.259644 94.017 148.2807
2061.087646 94.078 147.6134
2076.023193 94.139 146.9352
2091.066895 94.200 146.2460
2106.219727 94.262 145.5454
2121.482178 94.323 144.8333
2136.855225 94.384 144.1095
2152.339844 94.446 143.3739
2167.936523 94.507 142.6263
2183.646240 94.567 141.8664
2199.469727 94.628 141.0939
2215.407959 94.688 140.3087
2231.461670 94.748 139.5105
2247.631836 94.808 138.6991
2263.919189 94.867 137.8744
2280.324463 94.926 137.0363
2296.848633 94.985 136.1848
2313.492432 95.042 135.3199
2330.256836 95.099 134.4417
2347.142822 95.156 133.5501
2364.151123 95.211 132.6453
2381.282715 95.265 131.7271
2398.538574 95.318 130.7956
2415.919434 95.371 129.8508
2433.426270 95.421 128.8926
2451.059814 95.471 127.9214
2468.821289 95.520 126.9369
2486.711426 95.566 125.9394
2504.731201 95.612 124.9291
2522.881592 95.656 123.9065
2541.163330 95.698 122.8719
2559.577637 95.738 121.8259
2578.125488 95.777 120.7688
2596.807617 95.813 119.7010
2615.625244 95.847 118.6229
2634.579102 95.880 117.5352
2653.670410 95.910 116.4383
2672.899902 95.937 115.3331
2692.268799 95.962 114.2205
2711.778076 95.984 113.1016
2731.428711 96.004 111.9777
2751.221680 96.021 110.8503
2771.158203 96.035 109.7211
2791.239258 96.046 108.5923
2811.465820 96.054 107.4662
2831.838867 96.060 106.3454
2852.359619 96.063 105.2328
2873.029053 96.064 104.1319
2893.848145 96.062 103.0456
2914.818115 96.060 101.9767
2935.940186 96.057 100.9274
2957.215332 96.055 99.8980
2978.644531 96.055 98.8869
3000.229004 96.057 97.8897
3021.969971 96.064 96.8984
3043.868408 96.076 95.9026
3065.925537 96.092 94.8895
3088.142578 96.113 93.8465
3110.520508 96.136 92.7630
3133.060547 96.160 91.6325
3155.763916 96.182 90.4536
3178.631836 96.202 89.2297
3201.665527 96.216 87.9686
3224.866211 96.225 86.6798
3248.234863 96.227 85.3736
3271.772949 96.222 84.0595
3295.481445 96.211 82.7458
3319.361816 96.195 81.4389
3343.415283 96.174 80.1438
3367.643066 96.148 78.8640
3392.046387 96.119 77.6017
3416.626465 96.087 76.3586
3441.384766 96.053 75.1353
3466.322510 96.018 73.9321
3491.440918 95.982 72.7489
3516.741455 95.945 71.5844
3542.225098 95.908 70.4367
3567.893555 95.873 69.3030
3593.748047 95.839 68.1796
3619.789795 95.806 67.0619
3646.020264 95.775 65.9452
3672.440918 95.745 64.8252
3699.052979 95.716 63.6982
3725.857910 95.688 62.5621
3752.856934 95.659 61.4159
3780.051758 95.629 60.2598
3807.443604 95.598 59.0956
3835.033936 95.565 57.9256
3862.824219 95.530 56.7533
3890.815918 95.492 55.5829
3919.010254 95.452 54.4190
3947.408936 95.410 53.2661
3976.013428 95.366 52.1280
4004.825195 95.322 51.0077
4033.845703 95.277 49.9062
4063.076660 95.233 48.8231
4092.519287 95.191 47.7559
4122.175293 95.151 46.7010
4152.046387 95.114 45.6538
4182.133789 95.080 44.6091
4212.439453 95.048 43.5623
4242.964355 95.019 42.5089
4273.710449 94.993 41.4457
4304.679688 94.968 40.3701
4335.873047 94.945 39.2801
4367.292480 94.923 38.1751
4398.939453 94.901 37.0551
4430.815918 94.880 35.9209
4462.923340 94.858 34.7740
4495.263672 94.836 33.6162
4527.838379 94.814 32.4497
4560.648926 94.791 31.2764
4593.697266 94.768 30.0976
4626.984863 94.745 28.9140
4660.513672 94.723 27.7254
4694.285645 94.702 26.5305
4728.302246 94.681 25.3275
4762.565430 94.662 24.1143
4797.077148 94.643 22.8887
4831.838867 94.625 21.6489
4866.852539 94.608 20.3934
4902.119629 94.591 19.1213
4937.642578 94.575 17.8322
4973.422852 94.558 16.5259
5009.462402 94.541 15.2029
5045.763184 94.523 13.8634
5082.326660 94.505 12.5081
5119.155273 94.485 11.1381
5156.250977 94.465 9.7542
5193.615234 94.443 8.3577
5231.250488 94.420 6.9502
5269.158203 94.396 5.5328
5307.340820 94.370 4.1071
5345.799805 94.343 2.6742
5384.537598 94.315 1.2354
5423.556152 94.286 -0.2084
5462.857422 94.255 -1.6558
5502.443359 94.224 -3.1062
5542.316406 94.191 -4.5588
5582.478516 94.158 -6.0128
5622.931641 94.124 -7.4677
5663.677734 94.090 -8.9233
5704.719238 94.055 -10.3793
5746.058105 94.019 -11.8354
5787.696289 93.984 -13.2912
5829.636230 93.948 -14.7462
5871.880371 93.912 -16.2001
5914.430664 93.877 -17.6521
5957.289062 93.841 -19.1021
6000.458008 93.806 -20.5497
6043.939941 93.771 -21.9946
6087.736816 93.737 -23.4368
6131.851074 93.704 -24.8762
6176.285156 93.671 -26.3129
6221.041016 93.641 -27.7471
6266.121094 93.612 -29.1786
6311.527832 93.584 -30.6080
6357.263672 93.559 -32.0357
6403.331055 93.536 -33.4623
6449.732422 93.516 -34.8886
6496.469727 93.499 -36.3156
6543.545898 93.485 -37.7441
6590.962891 93.475 -39.1760
6638.723633 93.468 -40.6130
6686.830566 93.466 -42.0569
6735.286133 93.468 -43.5100
6784.092773 93.474 -44.9745
6833.252930 93.484 -46.4521
6882.769531 93.499 -47.9448
6932.645020 93.519 -49.4537
6982.881836 93.543 -50.9793
7033.482910 93.571 -52.5211
7084.450195 93.604 -54.0778
7135.787109 93.641 -55.6473
7187.496094 93.684 -57.2274
7239.579590 93.733 -58.8153
7292.040527 93.789 -60.4086
7344.881836 93.853 -62.0062
7398.105957 93.929 -63.6093
7451.715820 94.018 -65.2228
7505.713867 94.124 -66.8567
7560.103516 94.249 -68.5280
7614.887207 94.395 -70.2601
7670.067871 94.566 -72.0839
7725.648438 94.762 -74.0364
7781.631836 94.982 -76.1602
7838.020508 95.226 -78.5009
7894.817871 95.490 -81.1053
7952.026855 95.768 -84.0184
8009.650391 96.053 -87.2802
8067.691406 96.336 -90.9221
8126.153320 96.606 -94.9634
8185.038574 96.851 -99.4082
8244.350586 97.057 -104.2426
8304.092773 97.214 -109.4329
8364.267578 97.308 -114.9258
8424.878906 97.331 -120.6498
8485.928711 97.275 -126.5186
8547.420898 97.136 -132.4371
8609.359375 96.914 -138.3071
8671.746094 96.611 -144.0344
8734.584961 96.235 -149.5352
8797.878906 95.792 -154.7398
8861.631836 95.295 -159.5963
8925.846680 94.752 -164.0703
8990.527344 94.177 -168.1447
9055.676758 93.578 -171.8173
9121.297852 92.967 -175.0986
9187.394531 92.351 -178.0080
9253.969727 91.737 179.4282
9321.027344 91.130 177.1808
9388.571289 90.535 175.2192
9456.604492 89.955 173.5134
9525.130859 89.392 172.0358
9594.154297 88.846 170.7612
9663.677734 88.319 169.6672
9733.705078 87.812 168.7342
9804.239258 87.324 167.9447
9875.285156 86.855 167.2837
9946.845703 86.405 166.7383
10018.924805 85.972 166.2980
10091.526367 85.557 165.9542
10164.653320 85.157 165.7009
10238.310547 84.774 165.5341
10312.501953 84.405 165.4518
10387.230469 84.051 165.4539
10462.500977 83.710 165.5422
10538.316406 83.384 165.7209
10614.681641 83.070 165.9966
10691.599609 82.770 166.3794
10769.075195 82.483 166.8829
10847.112305 82.211 167.5259
10925.714844 81.955 168.3329
11004.886719 81.719 169.3339
11084.632812 81.507 170.5639
11164.957031 81.328 172.0615
11245.863281 81.193 173.8621
11327.355469 81.116 175.9877
11409.438477 81.114 178.4302
11492.116211 81.208 -178.8722
11575.392578 81.415 -176.0544
11659.272461 81.744 -173.3300
11743.760742 82.192 -170.9645
11828.861328 82.742 -169.2225
11914.578125 83.366 -168.3059
12000.916016 84.029 -168.3135
12087.879883 84.697 -169.2353
12175.473633 85.343 -170.9728
12263.702148 85.947 -173.3720
12352.570312 86.500 -176.2557
12442.082031 87.002 -179.4504
12532.242188 87.459 177.1934
12623.055664 87.886 173.7891
12714.527344 88.298 170.4077
12806.662109 88.713 167.0759
12899.464844 89.149 163.7793
12992.939453 89.622 160.4653
13087.091797 90.144 157.0488
13181.925781 90.723 153.4178
13277.447266 91.360 149.4409
13373.661133 92.051 144.9755
13470.572266 92.781 139.8804
13568.185547 93.529 134.0278
13666.505859 94.266 127.3195
13765.539062 94.958 119.7016
13865.290039 95.568 111.1791
13965.763672 96.057 101.8280
14066.965820 96.391 91.8010
14168.900391 96.543 81.3256
14271.574219 96.497 70.6851
14374.992188 96.251 60.1859
14479.159180 95.820 50.1161
14584.081055 95.227 40.7121
14689.763672 94.505 32.1409
14796.211914 93.689 24.4964
14903.431641 92.818 17.8063
15011.427734 91.925 12.0432
15120.207031 91.041 7.1370
15229.774414 90.191 2.9897
15340.135742 89.394 -0.5131
15451.296875 88.663 -3.4896
15563.263672 88.005 -6.0547
15676.041016 87.423 -8.3147
15789.635742 86.916 -10.3652
15904.053711 86.480 -12.2913
16019.300781 86.110 -14.1674
16135.382812 85.800 -16.0560
16252.306641 85.542 -18.0069
16370.077148 85.329 -20.0568
16488.701172 85.155 -22.2319
16608.185547 85.013 -24.5525
16728.535156 84.900 -27.0385
16849.757812 84.812 -29.7119
16971.857422 84.746 -32.5991
17094.841797 84.697 -35.7283
17218.718750 84.662 -39.1284
17343.492188 84.634 -42.8250
17469.169922 84.606 -46.8392
17595.757812 84.572 -51.1852
17723.263672 84.523 -55.8708
17851.693359 84.450 -60.8954
17981.054688 84.343 -66.2477
18111.353516 84.191 -71.8994
18242.595703 83.982 -77.7969
18374.789062 83.704 -83.8536
18507.939453 83.348 -89.9412
18642.054688 82.910 -95.8904
18777.142578 82.396 -101.5071
18913.208984 81.830 -106.6211
19050.261719 81.249 -111.1711
19188.308594 80.704 -115.2866
19327.355469 80.232 -119.2753
19467.410156 79.850 -123.4760
19608.478516 79.550 -128.0840
19750.570312 79.321 -133.0781
19893.691406 79.160 -138.2656
20037.849609 0.000 -143.3846
