* Measurement data measured by REW V5.31.3
* Source: Headset (2- CX31993 HIFI AUDIO), MICROPHONE (Master Volume), R, volume: 0.250
* Format: 256k Log Swept Sine, 1 sweep at -12.0 dBFS with no timing reference
* Dated: 11 10, 24 11:00:10 AM
* REW Settings:
*  C-weighting compensation: Off
*  Target level: 75.0 dB
* Note: ; 
* Measurement: Tanchjim Origin Kadenz L
* Smoothing: 1/12 octave
* Frequency Step: 96 ppo
* Start Frequency: 0.36621094 Hz
*
* Freq(Hz) SPL(dB) Phase(degrees)
0.366211 31.557 72.3651
0.368865 31.592 72.3194
0.371538 31.644 72.2528
0.374230 31.708 72.1725
0.376942 31.780 72.0847
0.379673 31.857 71.9937
0.382424 31.937 71.9023
0.385196 32.019 71.8123
0.387987 32.102 71.7245
0.390798 32.186 71.6395
0.393630 32.271 71.5574
0.396483 32.357 71.4783
0.399356 32.443 71.4022
0.402250 32.531 71.3289
0.405165 32.618 71.2583
0.408101 32.707 71.1905
0.411058 32.796 71.1252
0.414037 32.886 71.0622
0.417037 32.976 71.0016
0.420059 33.067 70.9431
0.423103 33.159 70.8867
0.426169 33.251 70.8321
0.429257 33.344 70.7792
0.432368 33.438 70.7280
0.435501 33.532 70.6782
0.438656 33.627 70.6298
0.441835 33.723 70.5825
0.445037 33.819 70.5362
0.448262 33.916 70.4908
0.451510 34.014 70.4462
0.454782 34.113 70.4021
0.458077 34.212 70.3585
0.461397 34.312 70.3152
0.464740 34.413 70.2720
0.468108 34.514 70.2287
0.471500 34.616 70.1853
0.474917 34.719 70.1416
0.478358 34.823 70.0974
0.481825 34.927 70.0526
0.485316 35.032 70.0070
0.488833 35.138 69.9605
0.492375 35.245 69.9128
0.495943 35.352 69.8640
0.499537 35.461 69.8138
0.503157 35.570 69.7620
0.506803 35.680 69.7086
0.510475 35.790 69.6533
0.514175 35.902 69.5961
0.517900 36.014 69.5367
0.521653 36.127 69.4751
0.525434 36.241 69.4111
0.529241 36.355 69.3445
0.533076 36.471 69.2752
0.536939 36.587 69.2031
0.540830 36.705 69.1281
0.544749 36.823 69.0499
0.548696 36.942 68.9685
0.552673 37.061 68.8838
0.556677 37.182 68.7955
0.560711 37.304 68.7036
0.564774 37.426 68.6079
0.568867 37.549 68.5084
0.572989 37.674 68.4048
0.577141 37.799 68.2971
0.581324 37.925 68.1852
0.585536 38.052 68.0689
0.589779 38.179 67.9481
0.594053 38.308 67.8227
0.598358 38.438 67.6926
0.602694 38.569 67.5576
0.607061 38.700 67.4178
0.611460 38.833 67.2729
0.615891 38.966 67.1229
0.620354 39.101 66.9676
0.624849 39.236 66.8070
0.629377 39.373 66.6410
0.633938 39.510 66.4695
0.638532 39.649 66.2924
0.643159 39.788 66.1095
0.647819 39.928 65.9209
0.652514 40.070 65.7264
0.657242 40.212 65.5260
0.662005 40.356 65.3195
0.666802 40.501 65.1070
0.671634 40.646 64.8883
0.676501 40.793 64.6634
0.681403 40.941 64.4322
0.686341 41.089 64.1947
0.691314 41.239 63.9508
0.696324 41.390 63.7006
0.701370 41.541 63.4441
0.706452 41.693 63.1814
0.711571 41.846 62.9128
0.716728 41.998 62.6387
0.721921 42.149 62.3600
0.727153 42.299 62.0777
0.732422 42.446 61.7934
0.737729 42.590 61.5088
0.743075 42.732 61.2257
0.748460 42.872 60.9454
0.753883 43.011 60.6689
0.759346 43.149 60.3965
0.764849 43.287 60.1284
0.770391 43.424 59.8647
0.775974 43.561 59.6051
0.781597 43.699 59.3495
0.787261 43.836 59.0975
0.792966 43.974 58.8488
0.798712 44.111 58.6032
0.804500 44.249 58.3603
0.810329 44.387 58.1199
0.816201 44.524 57.8815
0.822116 44.662 57.6450
0.828073 44.800 57.4099
0.834074 44.939 57.1761
0.840118 45.077 56.9431
0.846206 45.215 56.7106
0.852338 45.354 56.4785
0.858514 45.492 56.2464
0.864735 45.631 56.0139
0.871001 45.770 55.7809
0.877313 45.909 55.5470
0.883670 46.048 55.3119
0.890074 46.187 55.0754
0.896524 46.326 54.8373
0.903020 46.466 54.5971
0.909564 46.606 54.3547
0.916155 46.745 54.1098
0.922794 46.885 53.8622
0.929481 47.026 53.6115
0.936216 47.166 53.3575
0.943000 47.307 53.1001
0.949834 47.447 52.8389
0.956717 47.588 52.5736
0.963649 47.730 52.3041
0.970632 47.871 52.0302
0.977666 48.013 51.7515
0.984750 48.155 51.4678
0.991886 48.297 51.1790
0.999074 48.440 50.8848
1.006314 48.583 50.5849
1.013606 48.726 50.2791
1.020951 48.870 49.9673
1.028349 49.014 49.6492
1.035801 49.158 49.3246
1.043307 49.303 48.9934
1.050867 49.448 48.6553
1.058482 49.594 48.3104
1.066152 49.740 47.9586
1.073878 49.886 47.6001
1.081660 50.033 47.2353
1.089498 50.181 46.8648
1.097393 50.328 46.4898
1.105345 50.476 46.1114
1.113355 50.624 45.7309
1.121423 50.772 45.3496
1.129549 50.919 44.9682
1.137734 51.067 44.5873
1.145979 51.215 44.2071
1.154283 51.362 43.8279
1.162647 51.509 43.4496
1.171072 51.656 43.0722
1.179558 51.803 42.6955
1.188106 51.950 42.3197
1.196715 52.096 41.9444
1.205387 52.243 41.5696
1.214122 52.389 41.1951
1.222920 52.535 40.8208
1.231782 52.681 40.4465
1.240708 52.827 40.0720
1.249699 52.973 39.6972
1.258754 53.119 39.3220
1.267876 53.264 38.9460
1.277063 53.410 38.5692
1.286318 53.555 38.1913
1.295639 53.701 37.8122
1.305027 53.846 37.4316
1.314484 53.991 37.0493
1.324009 54.137 36.6652
1.333604 54.282 36.2789
1.343268 54.428 35.8904
1.353002 54.573 35.4993
1.362806 54.719 35.1055
1.372681 54.864 34.7086
1.382628 55.010 34.3086
1.392647 55.156 33.9051
1.402739 55.302 33.4981
1.412904 55.448 33.0872
1.423142 55.595 32.6725
1.433455 55.741 32.2538
1.443843 55.888 31.8315
1.454305 56.035 31.4058
1.464844 56.182 30.9774
1.475459 56.328 30.5470
1.486150 56.475 30.1153
1.496920 56.621 29.6831
1.507767 56.767 29.2507
1.518693 56.913 28.8183
1.529698 57.058 28.3862
1.540783 57.202 27.9543
1.551948 57.347 27.5224
1.563194 57.491 27.0904
1.574521 57.634 26.6583
1.585931 57.777 26.2258
1.597423 57.920 25.7927
1.608999 58.062 25.3587
1.620658 58.204 24.9238
1.632402 58.346 24.4877
1.644232 58.488 24.0500
1.656146 58.629 23.6107
1.668147 58.770 23.1694
1.680235 58.911 22.7258
1.692411 59.051 22.2798
1.704675 59.191 21.8309
1.717028 59.331 21.3791
1.729470 59.471 20.9238
1.742003 59.611 20.4650
1.754626 59.751 20.0022
1.767341 59.890 19.5353
1.780147 60.030 19.0639
1.793047 60.170 18.5879
1.806040 60.309 18.1072
1.819128 60.448 17.6216
1.832310 60.587 17.1314
1.845587 60.726 16.6369
1.858961 60.864 16.1383
1.872432 61.002 15.6362
1.886001 61.139 15.1309
1.899667 61.275 14.6229
1.913433 61.411 14.1125
1.927299 61.547 13.6001
1.941265 61.682 13.0860
1.955332 61.816 12.5704
1.969501 61.949 12.0536
1.983773 62.082 11.5357
1.998148 62.215 11.0170
2.012627 62.347 10.4975
2.027212 62.479 9.9774
2.041902 62.610 9.4568
2.056698 62.740 8.9357
2.071602 62.871 8.4141
2.086614 63.001 7.8921
2.101734 63.130 7.3695
2.116964 63.260 6.8464
2.132304 63.389 6.3226
2.147756 63.518 5.7978
2.163320 63.646 5.2719
2.178996 63.774 4.7445
2.194786 63.902 4.2151
2.210690 64.030 3.6834
2.226710 64.156 3.1491
2.242845 64.282 2.6120
2.259098 64.408 2.0724
2.275468 64.532 1.5303
2.291957 64.656 0.9860
2.308566 64.779 0.4401
2.325295 64.901 -0.1072
2.342145 65.023 -0.6554
2.359117 65.144 -1.2042
2.376212 65.264 -1.7532
2.393431 65.384 -2.3021
2.410775 65.503 -2.8505
2.428244 65.622 -3.3982
2.445840 65.740 -3.9449
2.463564 65.858 -4.4904
2.481416 65.975 -5.0347
2.499397 66.092 -5.5777
2.517509 66.208 -6.1196
2.535752 66.325 -6.6605
2.554127 66.440 -7.2010
2.572635 66.555 -7.7417
2.591277 66.670 -8.2832
2.610055 66.784 -8.8259
2.628968 66.896 -9.3700
2.648019 67.009 -9.9155
2.667208 67.120 -10.4622
2.686535 67.231 -11.0097
2.706003 67.340 -11.5576
2.725612 67.450 -12.1055
2.745363 67.558 -12.6529
2.765257 67.666 -13.1992
2.785295 67.773 -13.7442
2.805478 67.880 -14.2873
2.825808 67.987 -14.8282
2.846285 68.093 -15.3666
2.866910 68.198 -15.9024
2.887685 68.303 -16.4355
2.908611 68.408 -16.9662
2.929688 68.513 -17.4948
2.950917 68.617 -18.0220
2.972301 68.720 -18.5482
2.993839 68.823 -19.0739
3.015534 68.924 -19.5993
3.037386 69.026 -20.1243
3.059396 69.126 -20.6487
3.081565 69.226 -21.1722
3.103896 69.326 -21.6945
3.126388 69.425 -22.2153
3.149043 69.523 -22.7341
3.171862 69.621 -23.2506
3.194847 69.719 -23.7645
3.217998 69.817 -24.2754
3.241317 69.914 -24.7832
3.264805 70.011 -25.2878
3.288463 70.108 -25.7894
3.312293 70.205 -26.2882
3.336295 70.301 -26.7847
3.360471 70.397 -27.2791
3.384822 70.492 -27.7717
3.409350 70.587 -28.2626
3.434056 70.682 -28.7519
3.458940 70.776 -29.2396
3.484005 70.870 -29.7255
3.509252 70.964 -30.2098
3.534681 71.057 -30.6921
3.560295 71.150 -31.1725
3.586094 71.244 -31.6508
3.612081 71.337 -32.1269
3.638255 71.430 -32.6009
3.664620 71.524 -33.0728
3.691175 71.617 -33.5426
3.717923 71.710 -34.0105
3.744864 71.803 -34.4767
3.772001 71.896 -34.9413
3.799335 71.988 -35.4045
3.826866 72.081 -35.8666
3.854597 72.173 -36.3277
3.882529 72.266 -36.7880
3.910664 72.358 -37.2477
3.939002 72.450 -37.7068
3.967546 72.543 -38.1655
3.996296 72.635 -38.6239
4.025255 72.728 -39.0819
4.054423 72.820 -39.5397
4.083804 72.913 -39.9971
4.113396 73.005 -40.4543
4.143204 73.098 -40.9113
4.173227 73.190 -41.3683
4.203468 73.282 -41.8256
4.233928 73.374 -42.2832
4.264609 73.467 -42.7416
4.295512 73.559 -43.2008
4.326639 73.651 -43.6612
4.357992 73.742 -44.1229
4.389572 73.834 -44.5860
4.421380 73.926 -45.0507
4.453419 74.017 -45.5169
4.485691 74.109 -45.9845
4.518196 74.200 -46.4537
4.550936 74.291 -46.9242
4.583914 74.381 -47.3961
4.617131 74.472 -47.8694
4.650589 74.562 -48.3441
4.684289 74.652 -48.8203
4.718233 74.741 -49.2983
4.752424 74.830 -49.7780
4.786862 74.919 -50.2597
4.821549 75.007 -50.7435
4.856488 75.095 -51.2292
4.891680 75.182 -51.7168
4.927127 75.269 -52.2060
4.962831 75.355 -52.6965
4.998794 75.441 -53.1880
5.035017 75.526 -53.6802
5.071503 75.610 -54.1732
5.108253 75.694 -54.6669
5.145270 75.777 -55.1615
5.182555 75.860 -55.6571
5.220110 75.942 -56.1537
5.257937 76.023 -56.6512
5.296038 76.104 -57.1491
5.334415 76.184 -57.6472
5.373071 76.263 -58.1449
5.412006 76.341 -58.6418
5.451224 76.419 -59.1377
5.490725 76.496 -59.6325
5.530514 76.573 -60.1265
5.570590 76.648 -60.6195
5.610957 76.723 -61.1117
5.651616 76.798 -61.6028
5.692570 76.871 -62.0924
5.733821 76.944 -62.5803
5.775370 77.017 -63.0660
5.817221 77.089 -63.5493
5.859375 77.160 -64.0299
5.901834 77.231 -64.5080
5.944602 77.301 -64.9837
5.987679 77.370 -65.4569
6.031068 77.439 -65.9277
6.074771 77.508 -66.3960
6.118792 77.576 -66.8614
6.163131 77.644 -67.3240
6.207792 77.712 -67.7836
6.252776 77.779 -68.2402
6.298086 77.846 -68.6938
6.343725 77.913 -69.1447
6.389694 77.980 -69.5929
6.435996 78.046 -70.0385
6.482634 78.112 -70.4817
6.529610 78.178 -70.9225
6.576926 78.244 -71.3610
6.624585 78.310 -71.7972
6.672590 78.375 -72.2313
6.720942 78.441 -72.6635
6.769645 78.507 -73.0939
6.818700 78.572 -73.5228
6.868111 78.638 -73.9503
6.917881 78.703 -74.3768
6.968010 78.769 -74.8023
7.018504 78.834 -75.2270
7.069362 78.900 -75.6509
7.120590 78.965 -76.0743
7.172189 79.030 -76.4974
7.224161 79.095 -76.9203
7.276511 79.161 -77.3432
7.329239 79.226 -77.7663
7.382350 79.291 -78.1896
7.435845 79.356 -78.6133
7.489729 79.420 -79.0374
7.544002 79.485 -79.4621
7.598669 79.549 -79.8872
7.653732 79.614 -80.3131
7.709194 79.677 -80.7396
7.765058 79.741 -81.1669
7.821327 79.805 -81.5950
7.878004 79.868 -82.0238
7.935091 79.931 -82.4533
7.992592 79.993 -82.8834
8.050510 80.055 -83.3142
8.108847 80.117 -83.7455
8.167607 80.179 -84.1775
8.226793 80.240 -84.6100
8.286408 80.300 -85.0428
8.346454 80.361 -85.4759
8.406936 80.420 -85.9091
8.467856 80.480 -86.3424
8.529218 80.538 -86.7758
8.591024 80.597 -87.2089
8.653278 80.655 -87.6419
8.715983 80.712 -88.0743
8.779143 80.769 -88.5061
8.842760 80.825 -88.9371
8.906839 80.881 -89.3673
8.971381 80.937 -89.7965
9.036392 80.991 -90.2244
9.101873 81.046 -90.6509
9.167829 81.100 -91.0758
9.234263 81.153 -91.4990
9.301178 81.206 -91.9203
9.368578 81.259 -92.3397
9.436467 81.311 -92.7568
9.504847 81.363 -93.1717
9.573723 81.415 -93.5842
9.643099 81.466 -93.9943
9.712976 81.518 -94.4018
9.783361 81.568 -94.8070
9.854255 81.619 -95.2096
9.925663 81.670 -95.6098
9.997588 81.720 -96.0077
10.070035 81.771 -96.4035
10.143007 81.821 -96.7972
10.216507 81.872 -97.1892
10.290540 81.923 -97.5796
10.365109 81.973 -97.9688
10.440219 82.024 -98.3571
10.515873 82.075 -98.7447
10.592076 82.126 -99.1321
10.668830 82.178 -99.5197
10.746141 82.229 -99.9077
10.824012 82.280 -100.2965
10.902447 82.332 -100.6865
10.981451 82.383 -101.0780
11.061027 82.435 -101.4713
11.141180 82.486 -101.8665
11.221913 82.538 -102.2640
11.303232 82.589 -102.6638
11.385140 82.639 -103.0660
11.467641 82.690 -103.4708
11.550741 82.740 -103.8780
11.634442 82.790 -104.2877
11.718750 82.839 -104.6997
11.803669 82.888 -105.1138
11.889203 82.936 -105.5300
11.975357 82.983 -105.9480
12.062136 83.030 -106.3674
12.149543 83.076 -106.7881
12.237583 83.121 -107.2098
12.326262 83.166 -107.6321
12.415583 83.209 -108.0548
12.505552 83.252 -108.4774
12.596172 83.294 -108.8996
12.687449 83.335 -109.3211
12.779387 83.375 -109.7415
12.871992 83.414 -110.1603
12.965268 83.452 -110.5771
13.059220 83.490 -110.9915
13.153852 83.526 -111.4029
13.249170 83.562 -111.8109
13.345179 83.596 -112.2150
13.441884 83.630 -112.6146
13.539289 83.663 -113.0092
13.637401 83.695 -113.3984
13.736223 83.727 -113.7817
13.835761 83.758 -114.1587
13.936021 83.788 -114.5291
14.037007 83.819 -114.8928
14.138725 83.849 -115.2497
14.241180 83.879 -115.5999
14.344377 83.909 -115.9436
14.448323 83.939 -116.2812
14.553021 83.970 -116.6133
14.658478 84.001 -116.9406
14.764700 84.033 -117.2638
14.871691 84.065 -117.5838
14.979457 84.097 -117.9017
15.088005 84.131 -118.2183
15.197339 84.165 -118.5347
15.307465 84.199 -118.8516
15.418389 84.234 -119.1698
15.530117 84.269 -119.4899
15.642655 84.304 -119.8125
15.756008 84.339 -120.1379
15.870182 84.374 -120.4663
15.985184 84.409 -120.7976
16.101019 84.444 -121.1319
16.217694 84.479 -121.4688
16.335214 84.512 -121.8081
16.453586 84.546 -122.1495
16.572815 84.579 -122.4926
16.692909 84.611 -122.8370
16.813872 84.642 -123.1821
16.935713 84.673 -123.5275
17.058436 84.703 -123.8728
17.182048 84.733 -124.2172
17.306556 84.762 -124.5603
17.431967 84.790 -124.9014
17.558286 84.817 -125.2399
17.685521 84.844 -125.5751
17.813677 84.870 -125.9067
17.942762 84.896 -126.2343
18.072783 84.922 -126.5579
18.203746 84.948 -126.8777
18.335658 84.974 -127.1944
18.468526 85.001 -127.5092
18.602356 85.028 -127.8233
18.737156 85.056 -128.1388
18.872934 85.084 -128.4573
19.009695 85.112 -128.7809
19.147447 85.141 -129.1112
19.286197 85.169 -129.4493
19.425953 85.197 -129.7955
19.566721 85.223 -130.1492
19.708510 85.247 -130.5086
19.851326 85.269 -130.8710
19.995177 85.288 -131.2326
20.140070 85.305 -131.5887
20.286013 85.319 -131.9345
20.433014 85.331 -132.2652
20.581080 85.341 -132.5766
20.730219 85.351 -132.8658
20.880439 85.360 -133.1315
21.031747 85.372 -133.3745
21.184152 85.385 -133.5980
21.337661 85.402 -133.8070
21.492282 85.423 -134.0082
21.648024 85.448 -134.2093
21.804895 85.477 -134.4183
21.962902 85.510 -134.6422
22.122054 85.544 -134.8868
22.282360 85.580 -135.1554
22.443827 85.616 -135.4489
22.606464 85.650 -135.7657
22.770280 85.682 -136.1020
22.935283 85.711 -136.4525
23.101481 85.737 -136.8109
23.268884 85.760 -137.1710
23.437500 85.780 -137.5276
23.607338 85.797 -137.8764
23.778406 85.813 -138.2151
23.950714 85.828 -138.5431
24.124271 85.842 -138.8610
24.299086 85.857 -139.1704
24.475167 85.871 -139.4733
24.652524 85.885 -139.7714
24.831166 85.900 -140.0657
25.011103 85.914 -140.3565
25.192344 85.928 -140.6432
25.374898 85.942 -140.9253
25.558775 85.956 -141.2020
25.743984 85.971 -141.4737
25.930536 85.986 -141.7412
26.118439 86.002 -142.0068
26.307704 86.019 -142.2733
26.498341 86.038 -142.5440
26.690359 86.057 -142.8216
26.883768 86.076 -143.1079
27.078579 86.095 -143.4032
27.274801 86.113 -143.7060
27.472446 86.129 -144.0136
27.671522 86.144 -144.3225
27.872042 86.158 -144.6289
28.074014 86.170 -144.9297
28.277450 86.181 -145.2230
28.482360 86.192 -145.5085
28.688755 86.204 -145.7872
28.896645 86.216 -146.0612
29.106042 86.228 -146.3328
29.316957 86.242 -146.6040
29.529400 86.255 -146.8760
29.743382 86.268 -147.1489
29.958915 86.281 -147.4217
30.176009 86.294 -147.6929
30.394677 86.306 -147.9608
30.614929 86.318 -148.2242
30.836778 86.330 -148.4823
31.060234 86.342 -148.7355
31.285309 86.355 -148.9848
31.512015 86.369 -149.2316
31.740364 86.383 -149.4778
31.970368 86.398 -149.7250
32.202039 86.413 -149.9747
32.435388 86.429 -150.2281
32.670428 86.444 -150.4857
32.907171 86.459 -150.7474
33.145630 86.473 -151.0124
33.385817 86.485 -151.2788
33.627745 86.497 -151.5445
33.871425 86.507 -151.8069
34.116871 86.515 -152.0634
34.364096 86.523 -152.3124
34.613113 86.531 -152.5534
34.863934 86.539 -152.7873
35.116572 86.547 -153.0162
35.371041 86.555 -153.2430
35.627354 86.564 -153.4704
35.885525 86.573 -153.7004
36.145566 86.582 -153.9335
36.407492 86.590 -154.1691
36.671316 86.597 -154.4052
36.937051 86.603 -154.6396
37.204712 86.608 -154.8704
37.474313 86.613 -155.0965
37.745867 86.619 -155.3183
38.019389 86.624 -155.5376
38.294893 86.631 -155.7567
38.572394 86.638 -155.9782
38.851905 86.645 -156.2036
39.133442 86.652 -156.4332
39.417019 86.659 -156.6656
39.702651 86.665 -156.8989
39.990353 86.672 -157.1314
40.280140 86.679 -157.3628
40.572026 86.686 -157.5947
40.866028 86.694 -157.8298
41.162160 86.703 -158.0709
41.460438 86.711 -158.3186
41.760877 86.719 -158.5703
42.063494 86.725 -158.8210
42.368303 86.731 -159.0651
42.675322 86.737 -159.2998
42.984565 86.745 -159.5279
43.296048 86.754 -159.7571
43.609789 86.766 -159.9976
43.925804 86.778 -160.2566
44.244108 86.788 -160.5337
44.564719 86.795 -160.8195
44.887654 86.797 -161.0985
45.212928 86.796 -161.3554
45.540560 86.794 -161.5819
45.870565 86.794 -161.7806
46.202962 86.797 -161.9640
46.537768 86.804 -162.1487
46.875000 86.814 -162.3479
47.214676 86.823 -162.5665
47.556813 86.830 -162.8003
47.901429 86.834 -163.0391
48.248542 86.835 -163.2714
48.598171 86.833 -163.4884
48.950334 86.830 -163.6852
49.305048 86.827 -163.8612
49.662333 86.825 -164.0197
50.022206 86.826 -164.1677
50.384688 86.829 -164.3152
50.749796 86.836 -164.4730
51.117550 86.843 -164.6492
51.487969 86.850 -164.8456
51.861072 86.855 -165.0577
52.236879 86.858 -165.2769
52.615409 86.859 -165.4945
52.996681 86.859 -165.7051
53.380717 86.859 -165.9077
53.767536 86.859 -166.1040
54.157158 86.861 -166.2958
54.549603 86.863 -166.4850
54.944892 86.868 -166.6742
55.343045 86.874 -166.8672
55.744084 86.881 -167.0685
56.148028 86.889 -167.2804
56.554900 86.895 -167.5008
56.964720 86.899 -167.7230
57.377510 86.901 -167.9384
57.793291 86.902 -168.1404
58.212085 86.902 -168.3277
58.633914 86.902 -168.5051
59.058799 86.904 -168.6812
59.486764 86.905 -168.8649
59.917829 86.906 -169.0621
60.352019 86.905 -169.2739
60.789354 86.902 -169.4970
61.229859 86.895 -169.7268
61.673556 86.887 -169.9600
62.120468 86.877 -170.1955
62.570618 86.867 -170.4333
63.024031 86.857 -170.6730
63.480729 86.848 -170.9141
63.940736 86.840 -171.1566
64.404077 86.836 -171.4017
64.870776 86.835 -171.6523
65.340856 86.839 -171.9127
65.814343 86.845 -172.1903
66.291261 86.854 -172.4921
66.771635 86.860 -172.8170
67.255489 86.861 -173.1471
67.742850 86.854 -173.4491
68.233743 86.842 -173.6887
68.728193 86.829 -173.8503
69.226226 86.819 -173.9466
69.727867 86.814 -174.0095
70.233144 86.812 -174.0703
70.742083 86.810 -174.1441
71.254709 86.805 -174.2281
71.771050 86.795 -174.3098
72.291132 86.781 -174.3799
72.814984 86.766 -174.4395
73.342631 86.752 -174.5011
73.874102 86.740 -174.5832
74.409424 86.729 -174.7010
74.948626 86.718 -174.8613
75.491734 86.707 -175.0614
76.038779 86.693 -175.2927
76.589787 86.678 -175.5434
77.144788 86.661 -175.8006
77.703811 86.643 -176.0526
78.266885 86.626 -176.2906
78.834039 86.610 -176.5092
79.405303 86.595 -176.7066
79.980706 86.582 -176.8840
80.560280 86.570 -177.0450
81.144053 86.559 -177.1926
81.732056 86.545 -177.3252
82.324320 86.529 -177.4370
82.920876 86.510 -177.5214
83.521755 86.489 -177.5779
84.126988 86.468 -177.6142
84.736607 86.447 -177.6426
85.350643 86.425 -177.6733
85.969129 86.402 -177.7111
86.592097 86.378 -177.7554
87.219579 86.352 -177.8016
87.851608 86.325 -177.8436
88.488217 86.298 -177.8752
89.129439 86.272 -177.8891
89.775308 86.249 -177.8763
90.425856 86.229 -177.8297
91.081119 86.217 -177.7502
91.741131 86.213 -177.6490
92.405925 86.218 -177.5448
93.075536 86.232 -177.4591
93.750000 86.251 -177.4074
94.429351 86.273 -177.3945
95.113625 86.295 -177.4155
95.802858 86.316 -177.4632
96.497085 86.335 -177.5320
97.196342 86.353 -177.6183
97.900667 86.371 -177.7211
98.610096 86.388 -177.8438
99.324665 86.405 -177.9928
100.044413 86.421 -178.1734
100.769376 86.436 -178.3864
101.499592 86.447 -178.6276
102.235100 86.455 -178.8875
102.975938 86.460 -179.1544
103.722144 86.464 -179.4206
104.473757 86.468 -179.6866
105.230817 86.474 -179.9590
105.993363 86.481 179.7542
106.761435 86.487 179.4504
107.535072 86.489 179.1402
108.314315 86.486 178.8495
109.099206 86.477 178.6113
109.889783 86.467 178.4512
110.686090 86.460 178.3699
111.488167 86.462 178.3332
112.296056 86.472 178.2842
113.109800 86.486 178.1751
113.929440 86.496 177.9937
114.755020 86.497 177.7661
115.586582 86.487 177.5396
116.424170 86.469 177.3574
117.267827 86.451 177.2341
118.117598 86.436 177.1466
118.973527 86.427 177.0524
119.835658 86.420 176.9204
120.704037 86.411 176.7412
121.578708 86.396 176.5261
122.459718 86.372 176.3062
123.347111 86.343 176.1209
124.240935 86.313 175.9938
125.141236 86.290 175.9104
126.048061 86.277 175.8276
126.961458 86.271 175.7093
127.881473 86.266 175.5444
128.808154 86.259 175.3424
129.741551 86.243 175.1337
130.681712 86.219 174.9630
131.628686 86.193 174.8542
132.582521 86.170 174.7876
133.543269 86.153 174.7283
134.510979 86.142 174.6539
135.485701 86.134 174.5513
136.467486 86.127 174.4150
137.456386 86.117 174.2544
138.452451 86.103 174.0905
139.455735 86.086 173.9413
140.466288 86.067 173.8113
141.484165 86.047 173.6934
142.509418 86.028 173.5779
143.542100 86.008 173.4602
144.582265 85.990 173.3408
145.629968 85.971 173.2211
146.685262 85.953 173.1016
147.748204 85.936 172.9818
148.818849 85.918 172.8616
149.897251 85.900 172.7418
150.983469 85.882 172.6234
152.077557 85.863 172.5081
153.179574 85.844 172.3974
154.289576 85.826 172.2917
155.407622 85.808 172.1899
156.533770 85.791 172.0905
157.668078 85.775 171.9925
158.810606 85.760 171.8962
159.961413 85.746 171.8024
161.120559 85.731 171.7114
162.288105 85.715 171.6222
163.464112 85.697 171.5320
164.648640 85.678 171.4379
165.841752 85.656 171.3379
167.043510 85.633 171.2322
168.253976 85.609 171.1229
169.473213 85.584 171.0136
170.701286 85.559 170.9078
171.938258 85.534 170.8073
173.184194 85.511 170.7111
174.439158 85.489 170.6174
175.703216 85.468 170.5249
176.976434 85.448 170.4323
178.258878 85.427 170.3382
179.550615 85.406 170.2420
180.851713 85.385 170.1443
182.162239 85.364 170.0474
183.482262 85.341 169.9534
184.811850 85.318 169.8633
186.151073 85.292 169.7753
187.500000 85.264 169.6857
188.858702 85.234 169.5898
190.227250 85.201 169.4850
191.605715 85.169 169.3724
192.994169 85.138 169.2598
194.392685 85.108 169.1617
195.801334 85.081 169.0968
197.220191 85.054 169.0816
198.649330 85.028 169.1207
200.088825 85.002 169.2016
201.538751 84.977 169.3026
202.999184 84.954 169.4053
204.470200 84.935 169.4995
205.951875 84.919 169.5778
207.444287 84.908 169.6325
208.947514 84.899 169.6576
210.461634 84.891 169.6514
211.986726 84.882 169.6171
213.522869 84.873 169.5590
215.070144 84.863 169.4808
216.628631 84.852 169.3884
218.198411 84.840 169.2899
219.779567 84.825 169.1937
221.372180 84.808 169.1050
222.976334 84.788 169.0247
224.592112 84.767 168.9509
226.219600 84.744 168.8806
227.858880 84.721 168.8129
229.510039 84.697 168.7512
231.173164 84.673 168.7010
232.848340 84.649 168.6639
234.535655 84.626 168.6361
236.235197 84.603 168.6127
237.947054 84.580 168.5902
239.671317 84.558 168.5684
241.408074 84.536 168.5474
243.157416 84.514 168.5256
244.919435 84.490 168.5004
246.694223 84.465 168.4702
248.481871 84.438 168.4358
250.282473 84.409 168.3998
252.096123 84.378 168.3651
253.922915 84.348 168.3324
255.762945 84.317 168.3003
257.616309 84.288 168.2672
259.483103 84.259 168.2352
261.363424 84.231 168.2102
263.257372 84.204 168.1988
265.165043 84.176 168.2036
267.086538 84.147 168.2223
269.021957 84.118 168.2506
270.971401 84.088 168.2827
272.934972 84.057 168.3099
274.912771 84.028 168.3225
276.904902 83.999 168.3172
278.911469 83.971 168.2994
280.932577 83.945 168.2801
282.968330 83.920 168.2689
285.018835 83.896 168.2703
287.084199 83.872 168.2864
289.164530 83.847 168.3184
291.259935 83.821 168.3651
293.370525 83.794 168.4224
295.496408 83.766 168.4854
297.637697 83.737 168.5475
299.794503 83.709 168.6039
301.966937 83.679 168.6542
304.155114 83.650 168.6990
306.359147 83.620 168.7350
308.579152 83.590 168.7593
310.815244 83.561 168.7745
313.067539 83.535 168.7879
315.336156 83.509 168.8071
317.621211 83.485 168.8369
319.922826 83.461 168.8796
322.241118 83.436 168.9339
324.576210 83.409 168.9965
326.928223 83.382 169.0635
329.297280 83.354 169.1328
331.683504 83.326 169.2038
334.087019 83.296 169.2760
336.507952 83.267 169.3487
338.946427 83.237 169.4226
341.402572 83.207 169.4992
343.876516 83.178 169.5794
346.368387 83.150 169.6622
348.878315 83.122 169.7457
351.406431 83.096 169.8293
353.952867 83.070 169.9134
356.517756 83.044 169.9982
359.101230 83.017 170.0840
361.703426 82.991 170.1714
364.324478 82.964 170.2604
366.964523 82.937 170.3511
369.623699 82.911 170.4437
372.302145 82.884 170.5397
375.000000 82.857 170.6407
377.717405 82.830 170.7469
380.454501 82.802 170.8576
383.211431 82.774 170.9716
385.988339 82.746 171.0889
388.785369 82.718 171.2090
391.602668 82.690 171.3311
394.440383 82.663 171.4542
397.298660 82.635 171.5787
400.177650 82.608 171.7054
403.077502 82.582 171.8350
405.998368 82.556 171.9677
408.940400 82.530 172.1037
411.903750 82.504 172.2430
414.888575 82.478 172.3849
417.895028 82.451 172.5284
420.923268 82.425 172.6729
423.973452 82.398 172.8176
427.045738 82.372 172.9625
430.140287 82.346 173.1085
433.257261 82.320 173.2579
436.396822 82.294 173.4128
439.559133 82.268 173.5728
442.744360 82.243 173.7347
445.952668 82.217 173.8957
449.184225 82.192 174.0549
452.439199 82.167 174.2137
455.717760 82.142 174.3748
459.020079 82.117 174.5401
462.346327 82.092 174.7107
465.696680 82.067 174.8868
469.071310 82.042 175.0683
472.470394 82.016 175.2544
475.894109 81.991 175.4428
479.342634 81.966 175.6313
482.816148 81.942 175.8196
486.314833 81.918 176.0098
489.838871 81.895 176.2042
493.388445 81.871 176.4042
496.963741 81.849 176.6098
500.564945 81.826 176.8194
504.192245 81.803 177.0309
507.845830 81.781 177.2438
511.525890 81.759 177.4581
515.232618 81.737 177.6742
518.966206 81.716 177.8921
522.726849 81.695 178.1121
526.514743 81.674 178.3342
530.330086 81.653 178.5586
534.173076 81.632 178.7855
538.043915 81.611 179.0162
541.942803 81.589 179.2521
545.869944 81.568 179.4941
549.825542 81.547 179.7415
553.809805 81.526 179.9926
557.822939 81.506 -179.7539
561.865154 81.486 -179.4984
565.936660 81.466 -179.2405
570.037671 81.447 -178.9795
574.168399 81.428 -178.7145
578.329060 81.409 -178.4448
582.519870 81.390 -178.1703
586.741049 81.372 -177.8918
590.992817 81.354 -177.6105
595.275394 81.336 -177.3273
599.589005 81.319 -177.0422
603.933874 81.302 -176.7545
608.310228 81.286 -176.4638
612.718295 81.271 -176.1702
617.158304 81.255 -175.8744
621.630488 81.240 -175.5765
626.135079 81.225 -175.2760
630.672311 81.210 -174.9719
635.242423 81.195 -174.6632
639.845651 81.180 -174.3492
644.482237 81.165 -174.0299
649.152421 81.152 -173.7062
653.856447 81.139 -173.3790
658.594560 81.126 -173.0487
663.367008 81.114 -172.7151
668.174039 81.103 -172.3779
673.015903 81.093 -172.0365
677.892854 81.083 -171.6908
682.805145 81.074 -171.3407
687.753032 81.065 -170.9861
692.736774 81.057 -170.6272
697.756631 81.049 -170.2645
702.812863 81.041 -169.8982
707.905735 81.034 -169.5286
713.035511 81.028 -169.1557
718.202461 81.022 -168.7798
723.406852 81.017 -168.4014
728.648956 81.012 -168.0200
733.929047 81.009 -167.6346
739.247399 81.006 -167.2442
744.604290 81.005 -166.8487
750.000000 81.005 -166.4492
755.434809 81.005 -166.0474
760.909001 81.007 -165.6442
766.422861 81.008 -165.2393
771.976677 81.011 -164.8314
777.570739 81.014 -164.4185
783.205337 81.018 -163.9993
788.880766 81.022 -163.5737
794.597321 81.027 -163.1429
800.355301 81.033 -162.7074
806.155005 81.039 -162.2670
811.996736 81.047 -161.8204
817.880799 81.055 -161.3678
823.807501 81.065 -160.9110
829.777150 81.076 -160.4523
835.790057 81.089 -159.9933
841.846536 81.103 -159.5348
847.946903 81.120 -159.0769
854.091476 81.139 -158.6187
860.280575 81.159 -158.1587
866.514523 81.181 -157.6953
872.793644 81.205 -157.2283
879.118267 81.230 -156.7582
885.488720 81.256 -156.2864
891.905336 81.284 -155.8144
898.368450 81.312 -155.3429
904.878398 81.342 -154.8719
911.435520 81.374 -154.4015
918.040157 81.408 -153.9320
924.692655 81.443 -153.4639
931.393359 81.481 -152.9975
938.142619 81.520 -152.5334
944.940787 81.560 -152.0729
951.788218 81.603 -151.6174
958.685268 81.647 -151.1680
965.632296 81.693 -150.7245
972.629666 81.742 -150.2871
979.677741 81.791 -149.8567
986.776890 81.842 -149.4340
993.927482 81.894 -149.0195
1001.129891 81.947 -148.6134
1008.384491 82.001 -148.2154
1015.691660 82.056 -147.8252
1023.051781 82.112 -147.4420
1030.465236 82.170 -147.0654
1037.932411 82.229 -146.6960
1045.453698 82.289 -146.3348
1053.029486 82.350 -145.9830
1060.660172 82.412 -145.6415
1068.346153 82.475 -145.3106
1076.087829 82.538 -144.9901
1083.885605 82.602 -144.6794
1091.739887 82.667 -144.3785
1099.651084 82.732 -144.0877
1107.619609 82.797 -143.8067
1115.645878 82.862 -143.5349
1123.730308 82.928 -143.2716
1131.873321 82.993 -143.0164
1140.075341 83.059 -142.7689
1148.336797 83.125 -142.5290
1156.658119 83.191 -142.2962
1165.039741 83.256 -142.0701
1173.482099 83.322 -141.8506
1181.985634 83.387 -141.6380
1190.550789 83.452 -141.4324
1199.178011 83.517 -141.2339
1207.867749 83.581 -141.0415
1216.620457 83.645 -140.8542
1225.436590 83.709 -140.6709
1234.316609 83.773 -140.4906
1243.260976 83.836 -140.3133
1252.270157 83.899 -140.1386
1261.344623 83.962 -139.9660
1270.484846 84.024 -139.7948
1279.691303 84.087 -139.6245
1288.964474 84.149 -139.4548
1298.304842 84.211 -139.2857
1307.712894 84.273 -139.1170
1317.189120 84.336 -138.9489
1326.734016 84.398 -138.7813
1336.348077 84.461 -138.6136
1346.031806 84.524 -138.4455
1355.785708 84.588 -138.2768
1365.610290 84.652 -138.1078
1375.506065 84.717 -137.9388
1385.473549 84.783 -137.7701
1395.513261 84.849 -137.6020
1405.625726 84.917 -137.4349
1415.811469 84.985 -137.2689
1426.071023 85.055 -137.1044
1436.404921 85.126 -136.9420
1446.813703 85.198 -136.7828
1457.297912 85.271 -136.6281
1467.858093 85.346 -136.4796
1478.494798 85.421 -136.3383
1489.208581 85.498 -136.2053
1500.000000 85.576 -136.0811
1510.869618 85.656 -135.9661
1521.818002 85.736 -135.8612
1532.845723 85.817 -135.7672
1543.953355 85.899 -135.6848
1555.141477 85.982 -135.6147
1566.410674 86.065 -135.5573
1577.761531 86.148 -135.5130
1589.194642 86.232 -135.4821
1600.710601 86.315 -135.4647
1612.310010 86.398 -135.4604
1623.993473 86.481 -135.4682
1635.761599 86.562 -135.4871
1647.615002 86.643 -135.5158
1659.554299 86.723 -135.5536
1671.580114 86.802 -135.5996
1683.693072 86.880 -135.6527
1695.893807 86.957 -135.7115
1708.182952 87.033 -135.7747
1720.561150 87.109 -135.8415
1733.029045 87.184 -135.9113
1745.587288 87.258 -135.9838
1758.236533 87.332 -136.0582
1770.977440 87.405 -136.1341
1783.810673 87.478 -136.2112
1796.736900 87.550 -136.2893
1809.756796 87.622 -136.3681
1822.871040 87.695 -136.4480
1836.080315 87.767 -136.5289
1849.385310 87.839 -136.6111
1862.786718 87.912 -136.6946
1876.285239 87.985 -136.7798
1889.881575 88.058 -136.8669
1903.576436 88.132 -136.9563
1917.370535 88.206 -137.0483
1931.264593 88.280 -137.1435
1945.259332 88.356 -137.2424
1959.355483 88.432 -137.3454
1973.553781 88.508 -137.4532
1987.854965 88.586 -137.5663
2002.259781 88.664 -137.6854
2016.768981 88.743 -137.8113
2031.383320 88.822 -137.9449
2046.103561 88.903 -138.0871
2060.930471 88.984 -138.2391
2075.864823 89.065 -138.4016
2090.907395 89.147 -138.5753
2106.058972 89.230 -138.7605
2121.320344 89.313 -138.9576
2136.692305 89.396 -139.1669
2152.175658 89.480 -139.3888
2167.771210 89.563 -139.6236
2183.479774 89.647 -139.8716
2199.302169 89.730 -140.1331
2215.239219 89.813 -140.4084
2231.291755 89.896 -140.6979
2247.460615 89.979 -141.0018
2263.746641 90.061 -141.3202
2280.150683 90.143 -141.6532
2296.673595 90.224 -142.0012
2313.316238 90.304 -142.3642
2330.079481 90.383 -142.7427
2346.964198 90.462 -143.1365
2363.971268 90.539 -143.5457
2381.101578 90.615 -143.9704
2398.356022 90.690 -144.4105
2415.735498 90.763 -144.8662
2433.240913 90.834 -145.3372
2450.873180 90.904 -145.8233
2468.633217 90.971 -146.3242
2486.521951 91.037 -146.8395
2504.540314 91.100 -147.3689
2522.689246 91.161 -147.9117
2540.969692 91.219 -148.4671
2559.382606 91.274 -149.0344
2577.928947 91.327 -149.6129
2596.609683 91.377 -150.2019
2615.425787 91.424 -150.8006
2634.378241 91.468 -151.4081
2653.468031 91.508 -152.0234
2672.696154 91.546 -152.6455
2692.063613 91.580 -153.2732
2711.571415 91.610 -153.9051
2731.220579 91.637 -154.5402
2751.012130 91.661 -155.1773
2770.947098 91.681 -155.8151
2791.026522 91.697 -156.4523
2811.251451 91.709 -157.0879
2831.622938 91.718 -157.7205
2852.142045 91.724 -158.3491
2872.809842 91.725 -158.9723
2893.627406 91.724 -159.5890
2914.595823 91.718 -160.1978
2935.716186 91.710 -160.7973
2956.989596 91.698 -161.3864
2978.417161 91.683 -161.9637
3000.000000 91.665 -162.5282
3021.739237 91.644 -163.0791
3043.636005 91.620 -163.6153
3065.691446 91.593 -164.1360
3087.906710 91.564 -164.6404
3110.282955 91.532 -165.1275
3132.821347 91.498 -165.5967
3155.523062 91.462 -166.0471
3178.389283 91.424 -166.4782
3201.421202 91.384 -166.8891
3224.620020 91.343 -167.2793
3247.986946 91.300 -167.6483
3271.523198 91.256 -167.9955
3295.230004 91.212 -168.3203
3319.108599 91.166 -168.6220
3343.160228 91.120 -168.9002
3367.386145 91.073 -169.1544
3391.787613 91.027 -169.3841
3416.365904 90.981 -169.5891
3441.122300 90.936 -169.7695
3466.058091 90.893 -169.9262
3491.174576 90.851 -170.0607
3516.473066 90.811 -170.1754
3541.954880 90.774 -170.2736
3567.621345 90.740 -170.3595
3593.473800 90.709 -170.4374
3619.513592 90.681 -170.5113
3645.742080 90.654 -170.5848
3672.160630 90.630 -170.6604
3698.770620 90.608 -170.7393
3725.573436 90.586 -170.8212
3752.570477 90.565 -170.9051
3779.763150 90.544 -170.9891
3807.152872 90.523 -171.0714
3834.741071 90.503 -171.1504
3862.529185 90.484 -171.2254
3890.518664 90.465 -171.2959
3918.710966 90.446 -171.3622
3947.107561 90.429 -171.4247
3975.709929 90.412 -171.4844
4004.519563 90.397 -171.5426
4033.537962 90.382 -171.6006
4062.766641 90.368 -171.6595
4092.207123 90.355 -171.7199
4121.860942 90.343 -171.7817
4151.729646 90.330 -171.8442
4181.814790 90.318 -171.9056
4212.117944 90.306 -171.9640
4242.640687 90.294 -172.0171
4273.384610 90.282 -172.0629
4304.351317 90.272 -172.1003
4335.542421 90.263 -172.1295
4366.959549 90.256 -172.1522
4398.604338 90.252 -172.1714
4430.478438 90.250 -172.1909
4462.583511 90.252 -172.2149
4494.921231 90.257 -172.2477
4527.493283 90.265 -172.2932
4560.301365 90.276 -172.3550
4593.347189 90.289 -172.4365
4626.632476 90.304 -172.5402
4660.158962 90.321 -172.6687
4693.928395 90.339 -172.8239
4727.942535 90.357 -173.0074
4762.203156 90.375 -173.2203
4796.712043 90.393 -173.4631
4831.470996 90.409 -173.7353
4866.481826 90.424 -174.0358
4901.746360 90.436 -174.3622
4937.266434 90.445 -174.7116
4973.043902 90.451 -175.0808
5009.080628 90.454 -175.4667
5045.378492 90.453 -175.8664
5081.939384 90.449 -176.2776
5118.765212 90.442 -176.6983
5155.857894 90.432 -177.1277
5193.219366 90.419 -177.5654
5230.851574 90.402 -178.0119
5268.756481 90.383 -178.4675
5306.936062 90.360 -178.9326
5345.392309 90.333 -179.4065
5384.127225 90.301 -179.8880
5423.142830 90.265 179.6257
5462.441159 90.223 179.1382
5502.024259 90.176 178.6543
5541.894195 90.123 178.1792
5582.053045 90.064 177.7186
5622.502902 90.000 177.2782
5663.245876 89.930 176.8633
5704.284090 89.855 176.4784
5745.619684 89.776 176.1275
5787.254813 89.694 175.8136
5829.191647 89.609 175.5389
5871.432373 89.522 175.3045
5913.979192 89.433 175.1107
5956.834323 89.344 174.9573
6000.000000 89.255 174.8436
6043.478473 89.166 174.7685
6087.272010 89.078 174.7309
6131.382892 88.991 174.7300
6175.813420 88.905 174.7650
6220.565910 88.821 174.8356
6265.642695 88.739 174.9416
6311.046124 88.659 175.0833
6356.778566 88.583 175.2608
6402.842404 88.510 175.4745
6449.240040 88.441 175.7247
6495.973891 88.377 176.0107
6543.046396 88.319 176.3311
6590.460007 88.268 176.6829
6638.217197 88.225 177.0624
6686.320456 88.189 177.4648
6734.772290 88.162 177.8846
6783.575226 88.145 178.3156
6832.731809 88.138 178.7521
6882.244600 88.140 179.1882
6932.116181 88.152 179.6189
6982.349153 88.175 -179.9613
7032.946133 88.209 -179.5574
7083.909760 88.253 -179.1752
7135.242690 88.308 -178.8207
7186.947600 88.375 -178.5005
7239.027185 88.453 -178.2220
7291.484160 88.543 -177.9936
7344.321260 88.645 -177.8249
7397.541239 88.760 -177.7275
7451.146872 88.887 -177.7151
7505.140954 89.026 -177.8034
7559.526299 89.176 -178.0103
7614.305743 89.337 -178.3552
7669.482141 89.506 -178.8582
7725.058371 89.680 -179.5386
7781.037328 89.857 179.5863
7837.421932 90.030 178.5023
7894.215122 90.197 177.2000
7951.419859 90.350 175.6755
8009.039125 90.485 173.9318
8067.075924 90.595 171.9792
8125.533282 90.674 169.8366
8184.414245 90.716 167.5309
8243.721885 90.718 165.0968
8303.459292 90.676 162.5753
8363.629581 90.586 160.0119
8424.235888 90.448 157.4549
8485.281374 90.262 154.9531
8546.769221 90.029 152.5530
8608.702634 89.754 150.2968
8671.084842 89.439 148.2207
8733.919097 89.091 146.3543
8797.208675 88.713 144.7196
8860.956876 88.312 143.3313
8925.167022 87.894 142.1969
8989.842461 87.463 141.3174
9054.986566 87.025 140.6881
9120.602731 86.584 140.2996
9186.694378 86.145 140.1382
9253.264952 85.710 140.1876
9320.317925 85.282 140.4298
9387.856790 84.862 140.8465
9455.885071 84.453 141.4209
9524.406312 84.053 142.1382
9593.424086 83.665 142.9862
9662.941992 83.287 143.9551
9732.963653 82.920 145.0371
9803.492719 82.564 146.2259
9874.532869 82.218 147.5163
9946.087805 81.883 148.9041
10018.161257 81.560 150.3850
10090.756983 81.249 151.9553
10163.878768 80.950 153.6106
10237.530423 80.664 155.3458
10311.715789 80.392 157.1548
10386.438732 80.134 159.0306
10461.703149 79.891 160.9654
10537.512962 79.663 162.9502
10613.872125 79.451 164.9764
10690.784618 79.253 167.0355
10768.254450 79.071 169.1199
10846.285661 78.903 171.2239
10924.882318 78.748 173.3436
11004.048518 78.606 175.4771
11083.788390 78.477 177.6244
11164.106090 78.359 179.7874
11245.005805 78.253 -178.0311
11326.491752 78.159 -175.8271
11408.568180 78.078 -173.5964
11491.239368 78.011 -171.3351
11574.509626 77.959 -169.0406
11658.383294 77.925 -166.7117
11742.864745 77.911 -164.3492
11827.958384 77.919 -161.9556
11913.668646 77.953 -159.5353
12000.000000 78.014 -157.0946
12086.956947 78.106 -154.6419
12174.544019 78.232 -152.1890
12262.765784 78.394 -149.7505
12351.626840 78.597 -147.3448
12441.131819 78.843 -144.9952
12531.285389 79.138 -142.7331
12622.092249 79.485 -140.5995
12713.557132 79.889 -138.6474
12805.684808 80.352 -136.9435
12898.480079 80.875 -135.5682
12991.947783 81.456 -134.6154
13086.092792 82.088 -134.1885
13180.920015 82.759 -134.3926
13276.434395 83.452 -135.3252
13372.640911 84.142 -137.0638
13469.544580 84.803 -139.6524
13567.150452 85.402 -143.0894
13665.463617 85.907 -147.3165
13764.489200 86.288 -152.2122
13864.232362 86.519 -157.5921
13964.698305 86.584 -163.2200
14065.892266 86.477 -168.8305
14167.819519 86.205 -174.1601
14270.485380 85.784 -178.9769
14373.895200 85.242 176.8990
14478.054370 84.608 173.5859
14582.968320 83.915 171.1409
14688.642520 83.194 169.5663
14795.082478 82.474 168.8186
14902.293745 81.781 168.8204
15010.281908 81.132 169.4722
15119.052599 80.542 170.6652
15228.611486 80.019 172.2905
15338.964283 79.567 174.2465
15450.116741 79.187 176.4432
15562.074656 78.878 178.8027
15674.843864 78.636 -178.7413
15788.430244 78.460 -176.2465
15902.839718 78.345 -173.7646
16018.078250 78.289 -171.3448
16134.151848 78.289 -169.0367
16251.066563 78.343 -166.8935
16368.828491 78.448 -164.9730
16487.443769 78.600 -163.3370
16606.918584 78.791 -162.0482
16727.259161 79.014 -161.1637
16848.471777 79.259 -160.7298
16970.562748 79.514 -160.7804
17093.538442 79.768 -161.3378
17217.405268 80.009 -162.4111
17342.169684 80.225 -163.9940
17467.838194 80.403 -166.0636
17594.417350 80.533 -168.5813
17721.913751 80.606 -171.4974
17850.334044 80.615 -174.7562
17979.684923 80.555 -178.3010
18109.973131 80.425 177.9217
18241.205462 80.222 173.9613
18373.388756 79.945 169.8621
18506.529905 79.596 165.6644
18640.635849 79.172 161.4066
18775.713581 78.671 157.1326
18911.770141 78.091 152.8975
19048.812624 77.428 148.7708
19186.848172 76.683 144.8347
19325.883983 75.862 141.1771
19465.927305 74.982 137.8886
19606.985439 74.081 135.0611
19749.065738 73.227 132.7923
19892.175609 72.533 131.1879
20036.322514 72.135 130.3515

