* Measurement data measured by REW V5.30.4
* Source: Headset (2- CX31993 HIFI AUDIO), MICROPHONE (Master Volume), L, volume: 0.500
* Format: 256k Log Swept Sine, 1 sweep at -12.0 dBFS with no timing reference
* Dated: 07 13, 24 5:48:36 PM
* REW Settings:
*  C-weighting compensation: Off
*  Target level: 75.0 dB
* Note: ; 
* Measurement: Tangzu Wan'er SE R
* Smoothing: 1/12 octave
* Frequency Step: 96 ppo
* Start Frequency: 20.141602 Hz
*
* Freq(Hz) SPL(dB) Phase(degrees)
20.141602 95.533 27.9081
20.287556 95.540 27.8708
20.434568 95.549 27.7655
20.582645 95.561 27.6118
20.731796 95.575 27.4261
20.882027 95.590 27.2201
21.033346 95.605 26.9991
21.185762 95.621 26.7621
21.339283 95.637 26.5189
21.493916 95.654 26.2711
21.649670 95.670 26.0200
21.806553 95.687 25.7669
21.964573 95.703 25.5133
22.123737 95.719 25.2540
22.284056 95.734 24.9955
22.445536 95.748 24.7414
22.608185 95.762 24.4930
22.772013 95.775 24.2512
22.937029 95.788 24.0163
23.103241 95.801 23.7833
23.270657 95.813 23.5528
23.439285 95.825 23.3265
23.609137 95.838 23.1023
23.780218 95.850 22.8783
23.952539 95.863 22.6523
24.126110 95.876 22.4173
24.300938 95.889 22.1755
24.477032 95.902 21.9289
24.654402 95.915 21.6779
24.833057 95.927 21.4239
25.013008 95.939 21.1681
25.194263 95.950 20.9069
25.376831 95.961 20.6489
25.560722 95.971 20.3965
25.745945 95.982 20.1513
25.932510 95.991 19.9143
26.120428 96.001 19.6811
26.309708 96.011 19.4532
26.500359 96.020 19.2322
26.692390 96.030 19.0165
26.885815 96.039 18.8042
27.080641 96.048 18.5908
27.276878 96.056 18.3736
27.474539 96.063 18.1550
27.673630 96.070 17.9345
27.874165 96.076 17.7119
28.076153 96.081 17.4857
28.279604 96.086 17.2551
28.484529 96.091 17.0243
28.690941 96.095 16.7943
28.898848 96.100 16.5658
29.108261 96.106 16.3365
29.319191 96.112 16.1070
29.531651 96.119 15.8795
29.745649 96.126 15.6543
29.961199 96.134 15.4313
30.178310 96.141 15.2066
30.396996 96.148 14.9837
30.617264 96.154 14.7638
30.839128 96.159 14.5467
31.062601 96.163 14.3309
31.287693 96.167 14.1134
31.514416 96.171 13.8963
31.742783 96.175 13.6782
31.972803 96.178 13.4582
32.204491 96.182 13.2325
32.437859 96.186 13.0049
32.672916 96.190 12.7771
32.909679 96.194 12.5516
33.148155 96.198 12.3277
33.388359 96.202 12.1083
33.630306 96.205 11.8957
33.874004 96.209 11.6892
34.119469 96.211 11.4851
34.366711 96.213 11.2809
34.615746 96.213 11.0766
34.866585 96.213 10.8706
35.119244 96.212 10.6606
35.373734 96.210 10.4459
35.630066 96.210 10.2271
35.888256 96.212 10.0018
36.148315 96.218 9.7637
36.410259 96.227 9.5096
36.674103 96.239 9.2388
36.939857 96.252 8.9525
37.207539 96.265 8.6550
37.477161 96.275 8.3589
37.748737 96.280 8.0790
38.022282 96.279 7.8295
38.297806 96.274 7.6171
38.575329 96.266 7.4482
38.854862 96.256 7.3165
39.136421 96.246 7.2071
39.420021 96.238 7.1022
39.705673 96.231 6.9863
39.993397 96.226 6.8481
40.283207 96.221 6.6818
40.575115 96.217 6.4937
40.869141 96.213 6.2923
41.165295 96.210 6.0846
41.463596 96.207 5.8782
41.764057 96.206 5.6782
42.066696 96.206 5.4843
42.371529 96.205 5.2941
42.678570 96.204 5.1070
42.987835 96.201 4.9217
43.299343 96.196 4.7343
43.613110 96.189 4.5462
43.929150 96.182 4.3556
44.247478 96.175 4.1581
44.568115 96.169 3.9546
44.891075 96.163 3.7469
45.216373 96.158 3.5375
45.544029 96.152 3.3318
45.874062 96.147 3.1346
46.206486 96.142 2.9467
46.541317 96.137 2.7677
46.878574 96.132 2.5946
47.218277 96.127 2.4209
47.560440 96.122 2.2432
47.905083 96.117 2.0605
48.252224 96.110 1.8719
48.601879 96.104 1.6807
48.954067 96.097 1.4901
49.308807 96.090 1.3015
49.666119 96.083 1.1165
50.026020 96.076 0.9348
50.388531 96.069 0.7535
50.753666 96.062 0.5740
51.121449 96.054 0.3950
51.491894 96.046 0.2156
51.865025 96.037 0.0372
52.240860 96.028 -0.1411
52.619419 96.020 -0.3188
53.000721 96.011 -0.4954
53.384785 96.002 -0.6727
53.771633 95.994 -0.8484
54.161285 95.985 -1.0229
54.553761 95.976 -1.1962
54.949081 95.967 -1.3677
55.347263 95.957 -1.5389
55.748333 95.947 -1.7090
56.152309 95.936 -1.8782
56.559212 95.926 -2.0468
56.969063 95.915 -2.2140
57.381886 95.905 -2.3827
57.797699 95.894 -2.5503
58.216526 95.883 -2.7166
58.638386 95.872 -2.8812
59.063305 95.861 -3.0443
59.491302 95.849 -3.2069
59.922401 95.837 -3.3676
60.356625 95.825 -3.5278
60.793995 95.813 -3.6863
61.234531 95.801 -3.8435
61.678261 95.790 -4.0003
62.125206 95.779 -4.1578
62.575390 95.769 -4.3181
63.028835 95.758 -4.4815
63.485569 95.746 -4.6477
63.945610 95.732 -4.8118
64.408989 95.718 -4.9727
64.875725 95.703 -5.1291
65.345840 95.689 -5.2831
65.819366 95.674 -5.4365
66.296318 95.660 -5.5916
66.776726 95.646 -5.7472
67.260620 95.632 -5.9009
67.748016 95.618 -6.0519
68.238945 95.604 -6.2020
68.733429 95.590 -6.3514
69.231499 95.576 -6.4982
69.733177 95.563 -6.6421
70.238495 95.551 -6.7833
70.747475 95.539 -6.9229
71.260139 95.526 -7.0634
71.776520 95.512 -7.2060
72.296638 95.496 -7.3498
72.820526 95.479 -7.4936
73.348213 95.460 -7.6356
73.879723 95.441 -7.7746
74.415085 95.424 -7.9123
74.954330 95.406 -8.0489
75.497482 95.390 -8.1856
76.044571 95.374 -8.3232
76.595619 95.357 -8.4616
77.150665 95.340 -8.5994
77.709732 95.322 -8.7350
78.272850 95.303 -8.8658
78.840050 95.284 -8.9903
79.411354 95.265 -9.1078
79.986801 95.246 -9.2215
80.566422 95.228 -9.3368
81.150238 95.209 -9.4571
81.738289 95.191 -9.5830
82.330597 95.173 -9.7153
82.927200 95.155 -9.8504
83.528122 95.138 -9.9827
84.133400 95.120 -10.1102
84.743065 95.101 -10.2322
85.357147 95.083 -10.3485
85.975677 95.064 -10.4609
86.598694 95.044 -10.5686
87.226227 95.025 -10.6747
87.858307 95.005 -10.7807
88.494965 94.985 -10.8856
89.136238 94.964 -10.9914
89.782158 94.943 -11.0982
90.432755 94.921 -11.2060
91.088066 94.899 -11.3132
91.748131 94.878 -11.4184
92.412979 94.857 -11.5231
93.082642 94.837 -11.6271
93.757156 94.817 -11.7309
94.436562 94.797 -11.8329
95.120888 94.776 -11.9330
95.810173 94.755 -12.0311
96.504456 94.733 -12.1253
97.203766 94.711 -12.2173
97.908142 94.688 -12.3094
98.617622 94.666 -12.3978
99.332245 94.643 -12.4837
100.052048 94.620 -12.5675
100.777069 94.598 -12.6502
101.507339 94.576 -12.7282
102.242905 94.554 -12.8004
102.983795 94.533 -12.8678
103.730057 94.511 -12.9373
104.481728 94.489 -13.0109
105.238846 94.467 -13.0937
106.001450 94.445 -13.1861
106.769577 94.422 -13.2862
107.543274 94.399 -13.3852
108.322578 94.376 -13.4789
109.107529 94.352 -13.5675
109.898170 94.329 -13.6559
110.694534 94.306 -13.7429
111.496674 94.282 -13.8249
112.304626 94.260 -13.9004
113.118431 94.236 -13.9697
113.938133 94.212 -14.0329
114.763779 94.187 -14.0917
115.595406 94.160 -14.1461
116.433060 94.132 -14.2034
117.276779 94.103 -14.2670
118.126617 94.074 -14.3350
118.982613 94.045 -14.4116
119.844810 94.018 -14.4871
120.713257 93.995 -14.5538
121.587997 93.975 -14.6103
122.469070 93.958 -14.6579
123.356529 93.942 -14.6980
124.250420 93.926 -14.7342
125.150787 93.907 -14.7729
126.057678 93.885 -14.8147
126.971146 93.859 -14.8588
127.891228 93.830 -14.9069
128.817978 93.800 -14.9512
129.751450 93.771 -14.9888
130.691681 93.744 -15.0184
131.638733 93.717 -15.0403
132.592636 93.691 -15.0585
133.553452 93.665 -15.0820
134.521240 93.639 -15.1147
135.496033 93.614 -15.1542
136.477890 93.588 -15.1965
137.466858 93.561 -15.2361
138.462997 93.535 -15.2710
139.466354 93.509 -15.3028
140.476990 93.482 -15.3322
141.494949 93.456 -15.3626
142.520279 93.430 -15.3913
143.553040 93.404 -15.4116
144.593277 93.377 -15.4227
145.641052 93.350 -15.4282
146.696426 93.322 -15.4340
147.759445 93.293 -15.4424
148.830170 93.264 -15.4565
149.908661 93.236 -15.4733
150.994965 93.207 -15.4882
152.089142 93.179 -15.5026
153.191238 93.153 -15.5115
154.301331 93.127 -15.5159
155.419464 93.101 -15.5202
156.545700 93.075 -15.5228
157.680099 93.049 -15.5245
158.822708 93.022 -15.5280
159.973602 92.995 -15.5300
161.132843 92.967 -15.5327
162.300476 92.940 -15.5332
163.476578 92.912 -15.5301
164.661194 92.884 -15.5252
165.854401 92.856 -15.5198
167.056244 92.828 -15.5124
168.266800 92.799 -15.5046
169.486130 92.770 -15.4940
170.714294 92.741 -15.4796
171.951355 92.712 -15.4630
173.197388 92.683 -15.4433
174.452454 92.654 -15.4205
175.716614 92.624 -15.3934
176.989929 92.595 -15.3596
178.272476 92.565 -15.3251
179.564316 92.535 -15.2884
180.865509 92.503 -15.2489
182.176132 92.470 -15.2161
183.496262 92.436 -15.1811
184.825958 92.402 -15.1451
186.165283 92.367 -15.1059
187.514313 92.333 -15.0617
188.873123 92.300 -15.0152
190.241776 92.267 -14.9550
191.620346 92.235 -14.8904
193.008911 92.203 -14.8088
194.407532 92.170 -14.7222
195.816284 92.136 -14.6161
197.235245 92.100 -14.4986
198.664490 92.063 -14.3695
200.104095 92.024 -14.2287
201.554138 91.984 -14.0751
203.014679 91.944 -13.9041
204.485809 91.904 -13.7112
205.967590 91.868 -13.4920
207.460114 91.834 -13.2475
208.963455 91.805 -12.9746
210.477692 91.782 -12.6822
212.002899 91.764 -12.3789
213.539154 91.754 -12.0735
215.086548 91.751 -11.7780
216.645157 91.756 -11.5008
218.215057 91.766 -11.2611
219.796341 91.781 -11.0634
221.389069 91.798 -10.9094
222.993347 91.814 -10.8055
224.609253 91.828 -10.7510
226.236862 91.839 -10.7409
227.876266 91.847 -10.7625
229.527557 91.852 -10.8009
231.190811 91.852 -10.8458
232.866119 91.848 -10.8900
234.553558 91.840 -10.9372
236.253235 91.828 -10.9787
237.965225 91.814 -11.0107
239.689621 91.798 -11.0341
241.426514 91.781 -11.0435
243.175995 91.764 -11.0421
244.938141 91.745 -11.0333
246.713058 91.726 -11.0200
248.500839 91.705 -10.9982
250.301575 91.682 -10.9740
252.115356 91.659 -10.9428
253.942291 91.635 -10.9017
255.782455 91.611 -10.8541
257.635956 91.586 -10.7962
259.502899 91.561 -10.7361
261.383362 91.536 -10.6730
263.277466 91.510 -10.5989
265.185272 91.485 -10.5212
267.106903 91.459 -10.4369
269.042480 91.434 -10.3490
270.992065 91.408 -10.2524
272.955780 91.383 -10.1524
274.933716 91.357 -10.0488
276.925995 91.331 -9.9381
278.932709 91.306 -9.8292
280.953979 91.281 -9.7159
282.989899 91.258 -9.5958
285.040558 91.236 -9.4772
287.106079 91.216 -9.3523
289.186554 91.197 -9.2196
291.282104 91.180 -9.0791
293.392853 91.163 -8.9338
295.518890 91.148 -8.7848
297.660339 91.133 -8.6381
299.817322 91.118 -8.4954
301.989929 91.104 -8.3541
304.178284 91.089 -8.2210
306.382477 91.075 -8.0968
308.602661 91.060 -7.9782
310.838928 91.045 -7.8658
313.091400 91.031 -7.7590
315.360199 91.016 -7.6548
317.645416 91.000 -7.5562
319.947205 90.984 -7.4581
322.265686 90.967 -7.3632
324.600952 90.949 -7.2674
326.953156 90.931 -7.1660
329.322388 90.912 -7.0617
331.708801 90.893 -6.9544
334.112488 90.874 -6.8428
336.533600 90.855 -6.7249
338.972260 90.836 -6.6023
341.428589 90.817 -6.4739
343.902710 90.797 -6.3420
346.394775 90.778 -6.2049
348.904907 90.759 -6.0647
351.433228 90.739 -5.9186
353.979858 90.720 -5.7726
356.544952 90.700 -5.6252
359.128632 90.681 -5.4778
361.731018 90.662 -5.3317
364.352264 90.642 -5.1835
366.992523 90.623 -5.0343
369.651917 90.605 -4.8773
372.330566 90.586 -4.7241
375.028625 90.568 -4.5596
377.746246 90.550 -4.3950
380.483551 90.532 -4.2245
383.240692 90.514 -4.0524
386.017822 90.496 -3.8755
388.815063 90.478 -3.6914
391.632568 90.461 -3.5084
394.470490 90.443 -3.3189
397.328979 90.426 -3.1237
400.208191 90.410 -2.9250
403.108276 90.395 -2.7148
406.029358 90.380 -2.5024
408.971619 90.367 -2.2881
411.935181 90.356 -2.0725
414.920227 90.346 -1.8547
417.926910 90.337 -1.6465
420.955383 90.328 -1.4423
424.005798 90.321 -1.2512
427.078308 90.313 -1.0660
430.173096 90.305 -0.8859
433.290314 90.296 -0.7091
436.430115 90.287 -0.5296
439.592682 90.277 -0.3531
442.778137 90.267 -0.1787
445.986694 90.257 -0.0052
449.218506 90.247 0.1727
452.473724 90.236 0.3507
455.752533 90.225 0.5297
459.055115 90.214 0.7092
462.381622 90.202 0.8978
465.732239 90.191 1.0860
469.107117 90.179 1.2770
472.506470 90.167 1.4773
475.930450 90.155 1.6757
479.379242 90.144 1.8778
482.853027 90.132 2.0830
486.351990 90.121 2.2883
489.876282 90.110 2.5010
493.426117 90.099 2.7159
497.001678 90.089 2.9258
500.603149 90.078 3.1441
504.230713 90.068 3.3616
507.884583 90.058 3.5815
511.564911 90.048 3.8011
515.271912 90.038 4.0252
519.005798 90.029 4.2543
522.766724 90.020 4.4805
526.554932 90.011 4.7162
530.370544 90.002 4.9475
534.213806 89.993 5.1879
538.084961 89.985 5.4244
541.984131 89.977 5.6612
545.911560 89.970 5.9053
549.867432 89.962 6.1470
553.851990 89.955 6.3894
557.865417 89.947 6.6349
561.907959 89.941 6.8859
565.979797 89.934 7.1369
570.081116 89.927 7.3904
574.212158 89.921 7.6462
578.373108 89.916 7.9040
582.564209 89.910 8.1649
586.785706 89.905 8.4298
591.037781 89.900 8.6936
595.320679 89.896 8.9597
599.634644 89.892 9.2304
603.979858 89.888 9.5020
608.356567 89.884 9.7767
612.764954 89.880 10.0557
617.205322 89.877 10.3332
621.677856 89.875 10.6160
626.182800 89.872 10.9004
630.720398 89.870 11.1893
635.290833 89.868 11.4792
639.894409 89.867 11.7713
644.531372 89.866 12.0670
649.201904 89.866 12.3650
653.906311 89.866 12.6640
658.644775 89.866 12.9686
663.417603 89.867 13.2734
668.224976 89.868 13.5811
673.067200 89.870 13.8912
677.944519 89.872 14.2040
682.857178 89.874 14.5190
687.805420 89.877 14.8372
692.789551 89.880 15.1644
697.809814 89.884 15.4895
702.866455 89.889 15.8214
707.959717 89.894 16.1561
713.089905 89.900 16.4908
718.257263 89.906 16.8251
723.462036 89.913 17.1695
728.704529 89.921 17.5110
733.985046 89.929 17.8533
739.303833 89.938 18.2033
744.661133 89.948 18.5558
750.057251 89.959 18.9094
755.492493 89.970 19.2681
760.967102 89.982 19.6281
766.481384 89.995 19.9921
772.035645 90.009 20.3577
777.630127 90.023 20.7283
783.265137 90.039 21.0968
788.940979 90.055 21.4724
794.657959 90.073 21.8443
800.416382 90.091 22.2171
806.216553 90.111 22.5960
812.058716 90.131 22.9736
817.943237 90.153 23.3568
823.870361 90.176 23.7408
829.840454 90.199 24.1215
835.853821 90.224 24.5049
841.910767 90.249 24.8878
848.011597 90.276 25.2762
854.156616 90.304 25.6610
860.346191 90.333 26.0492
866.580627 90.363 26.4396
872.860229 90.394 26.8318
879.185364 90.427 27.2200
885.556274 90.461 27.6120
891.973389 90.496 27.9973
898.437012 90.533 28.3886
904.947449 90.570 28.7767
911.505066 90.609 29.1587
918.110229 90.648 29.5467
924.763245 90.689 29.9325
931.464478 90.731 30.3277
938.214233 90.775 30.7216
945.012939 90.820 31.1193
951.860901 90.868 31.5173
958.758484 90.918 31.9255
965.706055 90.971 32.3312
972.703979 91.027 32.7406
979.752563 91.087 33.1460
986.852234 91.151 33.5328
994.003357 91.219 33.9046
1001.206299 91.289 34.2516
1008.461426 91.361 34.5733
1015.769165 91.434 34.8587
1023.129822 91.507 35.1223
1030.543823 91.579 35.3629
1038.011597 91.650 35.5811
1045.533447 91.720 35.7839
1053.109863 91.788 35.9776
1060.741089 91.856 36.1543
1068.427612 91.922 36.3242
1076.169922 91.988 36.4922
1083.968262 92.054 36.6500
1091.823120 92.119 36.8005
1099.734863 92.184 36.9483
1107.703979 92.248 37.0905
1115.730835 92.312 37.2227
1123.815918 92.377 37.3519
1131.959595 92.440 37.4752
1140.162231 92.504 37.5834
1148.424316 92.567 37.6969
1156.746216 92.630 37.7985
1165.128418 92.693 37.8969
1173.571411 92.755 37.9889
1182.075562 92.817 38.0729
1190.641357 92.878 38.1582
1199.269287 92.938 38.2316
1207.959717 92.998 38.3015
1216.713135 93.058 38.3706
1225.529907 93.117 38.4312
1234.410645 93.176 38.4925
1243.355713 93.234 38.5462
1252.365601 93.291 38.6001
1261.440796 93.348 38.6457
1270.581665 93.404 38.6982
1279.788818 93.460 38.7443
1289.062744 93.516 38.7866
1298.403809 93.571 38.8305
1307.812622 93.625 38.8747
1317.289551 93.679 38.9114
1326.835205 93.733 38.9557
1336.449951 93.786 38.9968
1346.134399 93.839 39.0377
1355.889038 93.892 39.0736
1365.714355 93.945 39.1134
1375.610840 93.998 39.1552
1385.579102 94.050 39.2005
1395.619629 94.102 39.2407
1405.732910 94.154 39.2841
1415.919434 94.206 39.3249
1426.179810 94.258 39.3698
1436.514526 94.310 39.4106
1446.924072 94.363 39.4619
1457.409058 94.415 39.5039
1467.970093 94.467 39.5496
1478.607666 94.520 39.5926
1489.322266 94.573 39.6450
1500.114502 94.626 39.6957
1510.984985 94.680 39.7455
1521.934204 94.734 39.7878
1532.962769 94.788 39.8398
1544.071289 94.843 39.8862
1555.260254 94.898 39.9345
1566.530273 94.953 39.9823
1577.881958 95.009 40.0390
1589.315918 95.066 40.0801
1600.832764 95.123 40.1262
1612.433105 95.181 40.1783
1624.117432 95.239 40.2225
1635.886475 95.298 40.2681
1647.740723 95.358 40.3096
1659.680908 95.418 40.3552
1671.707642 95.479 40.3948
1683.821533 95.541 40.4312
1696.023193 95.604 40.4642
1708.313232 95.667 40.5054
1720.692383 95.731 40.5386
1733.161255 95.796 40.5710
1745.720459 95.862 40.5919
1758.370728 95.928 40.6152
1771.112549 95.996 40.6294
1783.946777 96.064 40.6514
1796.874023 96.133 40.6718
1809.894897 96.203 40.6683
1823.010132 96.274 40.6718
1836.220459 96.346 40.6724
1849.526489 96.419 40.6633
1862.928955 96.493 40.6553
1876.428467 96.568 40.6332
1890.025879 96.644 40.6117
1903.721802 96.720 40.5774
1917.516968 96.798 40.5405
1931.412109 96.877 40.4915
1945.407959 96.957 40.4404
1959.505127 97.037 40.3787
1973.704468 97.119 40.3093
1988.006714 97.201 40.2358
2002.412598 97.285 40.1472
2016.922852 97.369 40.0524
2031.538330 97.455 39.9444
2046.259644 97.541 39.8280
2061.087646 97.628 39.7015
2076.023193 97.716 39.5705
2091.066895 97.805 39.4161
2106.219727 97.895 39.2567
2121.482178 97.986 39.0733
2136.855225 98.078 38.8901
2152.339844 98.171 38.6902
2167.936523 98.265 38.4826
2183.646240 98.359 38.2349
2199.469727 98.454 37.9829
2215.407959 98.550 37.7082
2231.461670 98.646 37.4158
2247.631836 98.742 37.1086
2263.919189 98.838 36.7840
2280.324463 98.934 36.4449
2296.848633 99.030 36.0776
2313.492432 99.126 35.6868
2330.256836 99.221 35.2763
2347.142822 99.316 34.8486
2364.151123 99.410 34.4053
2381.282715 99.504 33.9450
2398.538574 99.597 33.4543
2415.919434 99.689 32.9470
2433.426270 99.780 32.4236
2451.059814 99.870 31.8776
2468.821289 99.959 31.3026
2486.711426 100.046 30.7142
2504.731201 100.132 30.0819
2522.881592 100.215 29.4339
2541.163330 100.297 28.7712
2559.577637 100.376 28.0910
2578.125488 100.453 27.4047
2596.807617 100.527 26.6476
2615.625244 100.599 25.8930
2634.579102 100.667 25.1137
2653.670410 100.732 24.3288
2672.899902 100.793 23.5275
2692.268799 100.851 22.7022
2711.778076 100.905 21.8429
2731.428711 100.955 20.9760
2751.221680 101.000 20.1016
2771.158203 101.042 19.2128
2791.239258 101.078 18.3018
2811.465820 101.110 17.3906
2831.838867 101.137 16.4737
2852.359619 101.160 15.5362
2873.029053 101.177 14.6043
2893.848145 101.189 13.6648
2914.818115 101.197 12.7082
2935.940186 101.199 11.7886
2957.215332 101.196 10.8382
2978.644531 101.188 9.8997
3000.229004 101.175 8.9622
3021.969971 101.156 8.0500
3043.868408 101.133 7.1336
3065.925537 101.105 6.2136
3088.142578 101.072 5.3231
3110.520508 101.035 4.4541
3133.060547 100.993 3.5820
3155.763916 100.947 2.7266
3178.631836 100.896 1.9077
3201.665527 100.842 1.1031
3224.866211 100.783 0.3154
3248.234863 100.721 -0.4530
3271.772949 100.656 -1.1947
3295.481445 100.587 -1.9104
3319.361816 100.515 -2.5986
3343.415283 100.440 -3.2618
3367.643066 100.363 -3.8960
3392.046387 100.283 -4.4859
3416.626465 100.202 -5.0528
3441.384766 100.120 -5.5936
3466.322510 100.037 -6.0796
3491.440918 99.954 -6.5481
3516.741455 99.871 -6.9841
3542.225098 99.791 -7.3783
3567.893555 99.712 -7.7458
3593.748047 99.635 -8.1148
3619.789795 99.562 -8.4361
3646.020264 99.490 -8.7552
3672.440918 99.421 -9.0914
3699.052979 99.353 -9.4128
3725.857910 99.286 -9.7240
3752.856934 99.220 -10.0467
3780.051758 99.153 -10.3483
3807.443604 99.085 -10.6563
3835.033936 99.017 -10.9546
3862.824219 98.948 -11.2352
3890.815918 98.878 -11.5168
3919.010254 98.808 -11.7850
3947.408936 98.738 -12.0247
3976.013428 98.669 -12.2774
4004.825195 98.599 -12.4927
4033.845703 98.530 -12.7049
4063.076660 98.462 -12.9175
4092.519287 98.394 -13.1006
4122.175293 98.327 -13.2777
4152.046387 98.260 -13.4434
4182.133789 98.194 -13.6169
4212.439453 98.128 -13.7793
4242.964355 98.062 -13.9311
4273.710449 97.995 -14.0630
4304.679688 97.929 -14.1849
4335.873047 97.863 -14.3048
4367.292480 97.799 -14.3858
4398.939453 97.736 -14.4630
4430.815918 97.675 -14.5248
4462.923340 97.618 -14.5747
4495.263672 97.564 -14.6399
4527.838379 97.512 -14.7026
4560.648926 97.461 -14.7832
4593.697266 97.411 -14.8763
4626.984863 97.360 -14.9814
4660.513672 97.308 -15.0786
4694.285645 97.255 -15.2085
4728.302246 97.200 -15.2996
4762.565430 97.143 -15.4077
4797.077148 97.085 -15.5010
4831.838867 97.026 -15.5902
4866.852539 96.966 -15.6549
4902.119629 96.906 -15.7232
4937.642578 96.845 -15.7643
4973.422852 96.785 -15.8079
5009.462402 96.726 -15.8333
5045.763184 96.666 -15.8621
5082.326660 96.607 -15.8776
5119.155273 96.548 -15.8833
5156.250977 96.490 -15.8907
5193.615234 96.430 -15.8909
5231.250488 96.371 -15.8721
5269.158203 96.311 -15.8407
5307.340820 96.251 -15.8157
5345.799805 96.191 -15.7586
5384.537598 96.131 -15.7003
5423.556152 96.072 -15.6309
5462.857422 96.013 -15.5421
5502.443359 95.955 -15.4510
5542.316406 95.898 -15.3510
5582.478516 95.842 -15.2246
5622.931641 95.786 -15.1159
5663.677734 95.731 -14.9851
5704.719238 95.677 -14.8416
5746.058105 95.623 -14.6823
5787.696289 95.570 -14.5004
5829.636230 95.517 -14.3292
5871.880371 95.466 -14.1296
5914.430664 95.416 -13.9199
5957.289062 95.368 -13.7023
6000.458008 95.321 -13.4696
6043.939941 95.276 -13.1981
6087.736816 95.233 -12.9548
6131.851074 95.192 -12.6624
6176.285156 95.153 -12.3791
6221.041016 95.117 -12.0655
6266.121094 95.084 -11.7415
6311.527832 95.054 -11.3985
6357.263672 95.028 -11.0383
6403.331055 95.007 -10.6708
6449.732422 94.992 -10.2885
6496.469727 94.982 -9.8949
6543.545898 94.979 -9.4720
6590.962891 94.984 -9.0834
6638.723633 94.995 -8.6846
6686.830566 95.014 -8.2880
6735.286133 95.042 -7.9283
6784.092773 95.077 -7.5863
6833.252930 95.121 -7.2470
6882.769531 95.173 -6.9480
6932.645020 95.234 -6.6915
6982.881836 95.302 -6.4991
7033.482910 95.379 -6.3456
7084.450195 95.463 -6.2624
7135.787109 95.554 -6.2507
7187.496094 95.653 -6.3033
7239.579590 95.758 -6.4491
7292.040527 95.868 -6.6913
7344.881836 95.984 -7.0460
7398.105957 96.103 -7.4962
7451.715820 96.225 -8.0719
7505.713867 96.348 -8.7930
7560.103516 96.470 -9.6384
7614.887207 96.589 -10.6543
7670.067871 96.701 -11.8485
7725.648438 96.804 -13.1978
7781.631836 96.892 -14.7102
7838.020508 96.962 -16.3932
7894.817871 97.010 -18.2242
7952.026855 97.031 -20.2097
8009.650391 97.021 -22.3031
8067.691406 96.976 -24.5161
8126.153320 96.895 -26.7688
8185.038574 96.775 -29.0457
8244.350586 96.616 -31.3340
8304.092773 96.417 -33.5606
8364.267578 96.181 -35.7242
8424.878906 95.908 -37.7826
8485.928711 95.602 -39.6931
8547.420898 95.266 -41.4541
8609.359375 94.904 -43.0284
8671.746094 94.520 -44.4170
8734.584961 94.117 -45.5956
8797.878906 93.700 -46.5655
8861.631836 93.274 -47.3243
8925.846680 92.840 -47.8865
8990.527344 92.404 -48.2402
9055.676758 91.968 -48.4132
9121.297852 91.535 -48.3977
9187.394531 91.106 -48.1988
9253.969727 90.684 -47.8550
9321.027344 90.270 -47.3485
9388.571289 89.865 -46.7066
9456.604492 89.470 -45.9399
9525.130859 89.085 -45.0487
9594.154297 88.711 -44.0671
9663.677734 88.348 -42.9656
9733.705078 87.995 -41.7557
9804.239258 87.654 -40.4655
9875.285156 87.325 -39.0636
9946.845703 87.007 -37.5802
10018.924805 86.702 -36.0176
10091.526367 86.409 -34.3625
10164.653320 86.130 -32.6213
10238.310547 85.864 -30.7937
10312.501953 85.611 -28.8908
10387.230469 85.374 -26.8952
10462.500977 85.151 -24.8086
10538.316406 84.945 -22.6445
10614.681641 84.756 -20.3970
10691.599609 84.585 -18.0541
10769.075195 84.435 -15.6367
10847.112305 84.305 -13.1687
10925.714844 84.197 -10.6192
11004.886719 84.113 -8.0110
11084.632812 84.052 -5.3405
11164.957031 84.017 -2.6067
11245.863281 84.007 0.1483
11327.355469 84.026 2.9523
11409.438477 84.076 5.8186
11492.116211 84.158 8.6786
11575.392578 84.275 11.5570
11659.272461 84.427 14.4085
11743.760742 84.614 17.2248
11828.861328 84.835 19.9954
11914.578125 85.094 22.7267
12000.916016 85.394 25.4293
12087.879883 85.743 28.0872
12175.473633 86.147 30.6772
12263.702148 86.614 33.1655
12352.570312 87.152 35.4853
12442.082031 87.770 37.5667
12532.242188 88.472 39.3312
12623.055664 89.260 40.6044
12714.527344 90.129 41.2963
12806.662109 91.063 41.1861
12899.464844 92.040 40.1504
12992.939453 93.027 38.0366
13087.091797 93.981 34.7252
13181.925781 94.857 30.1998
13277.447266 95.605 24.4800
13373.661133 96.174 17.7094
13470.572266 96.522 10.1432
13568.185547 96.617 2.1324
13666.505859 96.448 -5.8913
13765.539062 96.026 -13.5008
13865.290039 95.380 -20.3540
13965.763672 94.552 -26.1781
14066.965820 93.590 -30.8496
14168.900391 92.541 -34.3351
14271.574219 91.451 -36.6470
14374.992188 90.361 -37.8986
14479.159180 89.305 -38.1862
14584.081055 88.310 -37.7267
14689.763672 87.394 -36.6524
14796.211914 86.567 -35.1183
14903.431641 85.833 -33.2507
15011.427734 85.189 -31.1928
15120.207031 84.632 -29.0252
15229.774414 84.157 -26.8195
15340.135742 83.757 -24.6545
15451.296875 83.427 -22.5491
15563.263672 83.162 -20.6144
15676.041016 82.958 -18.8641
15789.635742 82.810 -17.3811
15904.053711 82.713 -16.1657
16019.300781 82.660 -15.3249
16135.382812 82.644 -14.8796
16252.306641 82.655 -14.8816
16370.077148 82.681 -15.3589
16488.701172 82.707 -16.3033
16608.185547 82.719 -17.7596
16728.535156 82.699 -19.6724
16849.757812 82.632 -21.9753
16971.857422 82.502 -24.5945
17094.841797 82.298 -27.3967
17218.718750 82.012 -30.2929
17343.492188 81.642 -33.1069
17469.169922 81.189 -35.7315
17595.757812 80.660 -38.0303
17723.263672 80.066 -39.9258
17851.693359 79.418 -41.3038
17981.054688 78.732 -42.1423
18111.353516 78.021 -42.4007
18242.595703 77.301 -42.0783
18374.789062 76.584 -41.2054
18507.939453 75.880 -39.8083
18642.054688 75.198 -37.9143
18777.142578 74.545 -35.6193
18913.208984 73.924 -32.9314
19050.261719 73.339 -29.9547
19188.308594 72.791 -26.7189
19327.355469 72.284 -23.3519
19467.410156 71.823 -19.9080
19608.478516 71.418 -16.5738
19750.570312 71.086 -13.5882
19893.691406 70.848 -11.2870
20037.849609 0.000 349.9293
