* Measurement data measured by REW V5.30.4
* Source: EXCL: Headset (CX31993 HIFI AUDIO), MICROPHONE (Master Volume), 0, volume: 0.350
* Format: 256k Log Swept Sine, 1 sweep at -12.0 dBFS with no timing reference
* Dated: 01 19, 24 2:26:14 PM
* REW Settings:
*  C-weighting compensation: Off
*  Target level: 75.0 dB
* Note: ; 
* Measurement: Thieaudio Hype4 L
* Smoothing: 1/12 octave
* Frequency Step: 96 ppo
* Start Frequency: 20.141602 Hz
*
* Freq(Hz) SPL(dB) Phase(degrees)
20.141602 98.002 20.7568
20.287556 98.003 20.6162
20.434568 98.006 20.4094
20.582645 98.009 20.1545
20.731796 98.012 19.8668
20.882027 98.015 19.5574
21.033346 98.019 19.2337
21.185762 98.022 18.9003
21.339283 98.025 18.5604
21.493916 98.029 18.2163
21.649670 98.032 17.8698
21.806553 98.035 17.5225
21.964573 98.038 17.1760
22.123737 98.041 16.8313
22.284056 98.045 16.4895
22.445536 98.048 16.1509
22.608185 98.051 15.8158
22.772013 98.054 15.4838
22.937029 98.058 15.1542
23.103241 98.061 14.8263
23.270657 98.064 14.4990
23.439285 98.067 14.1716
23.609137 98.070 13.8436
23.780218 98.072 13.5147
23.952539 98.073 13.1850
24.126110 98.074 12.8550
24.300938 98.074 12.5252
24.477032 98.074 12.1964
24.654402 98.073 11.8692
24.833057 98.072 11.5438
25.013008 98.070 11.2203
25.194263 98.069 10.8983
25.376831 98.068 10.5771
25.560722 98.067 10.2558
25.745945 98.066 9.9336
25.932510 98.065 9.6097
26.120428 98.064 9.2837
26.309708 98.063 8.9555
26.500359 98.061 8.6256
26.692390 98.059 8.2949
26.885815 98.056 7.9644
27.080641 98.053 7.6352
27.276878 98.049 7.3081
27.474539 98.045 6.9837
27.673630 98.042 6.6619
27.874165 98.038 6.3423
28.076153 98.035 6.0239
28.279604 98.032 5.7056
28.484529 98.030 5.3865
28.690941 98.028 5.0658
28.898848 98.025 4.7433
29.108261 98.022 4.4194
29.319191 98.018 4.0948
29.531651 98.014 3.7709
29.745649 98.009 3.4491
29.961199 98.003 3.1305
30.178310 97.997 2.8160
30.396996 97.991 2.5058
30.617264 97.985 2.1995
30.839128 97.980 1.8961
31.062601 97.975 1.5943
31.287693 97.971 1.2927
31.514416 97.967 0.9899
31.742783 97.963 0.6853
31.972803 97.958 0.3784
32.204491 97.953 0.0693
32.437859 97.947 -0.2415
32.672916 97.940 -0.5535
32.909679 97.932 -0.8668
33.148155 97.923 -1.1815
33.388359 97.914 -1.4985
33.630306 97.904 -1.8192
33.874004 97.895 -2.1450
34.119469 97.887 -2.4770
34.366711 97.878 -2.8155
34.615746 97.870 -3.1592
34.866585 97.861 -3.5055
35.119244 97.852 -3.8507
35.373734 97.843 -4.1901
35.630066 97.833 -4.5192
35.888256 97.822 -4.8347
36.148315 97.812 -5.1353
36.410259 97.801 -5.4218
36.674103 97.790 -5.6975
36.939857 97.779 -5.9667
37.207539 97.768 -6.2346
37.477161 97.757 -6.5056
37.748737 97.745 -6.7826
38.022282 97.733 -7.0668
38.297806 97.720 -7.3580
38.575329 97.706 -7.6550
38.854862 97.692 -7.9565
39.136421 97.678 -8.2612
39.420021 97.664 -8.5686
39.705673 97.650 -8.8780
39.993397 97.636 -9.1886
40.283207 97.623 -9.4992
40.575115 97.608 -9.8084
40.869141 97.593 -10.1148
41.165295 97.577 -10.4176
41.463596 97.561 -10.7170
41.764057 97.544 -11.0142
42.066696 97.528 -11.3108
42.371529 97.511 -11.6081
42.678570 97.495 -11.9071
42.987835 97.478 -12.2075
43.299343 97.462 -12.5087
43.613110 97.445 -12.8099
43.929150 97.428 -13.1107
44.247478 97.411 -13.4111
44.568115 97.393 -13.7117
44.891075 97.375 -14.0129
45.216373 97.357 -14.3153
45.544029 97.338 -14.6190
45.874062 97.318 -14.9242
46.206486 97.298 -15.2308
46.541317 97.278 -15.5388
46.878574 97.258 -15.8474
47.218277 97.238 -16.1555
47.560440 97.217 -16.4612
47.905083 97.196 -16.7630
48.252224 97.175 -17.0599
48.601879 97.154 -17.3519
48.954067 97.132 -17.6399
49.308807 97.110 -17.9252
49.666119 97.087 -18.2083
50.026020 97.064 -18.4892
50.388531 97.040 -18.7675
50.753666 97.015 -19.0435
51.121449 96.990 -19.3184
51.491894 96.966 -19.5938
51.865025 96.942 -19.8709
52.240860 96.918 -20.1495
52.619419 96.893 -20.4276
53.000721 96.868 -20.7028
53.384785 96.843 -20.9736
53.771633 96.819 -21.2408
54.161285 96.795 -21.5072
54.553761 96.770 -21.7763
54.949081 96.746 -22.0511
55.347263 96.720 -22.3331
55.748333 96.693 -22.6222
56.152309 96.665 -22.9177
56.559212 96.637 -23.2183
56.969063 96.609 -23.5224
57.381886 96.581 -23.8280
57.797699 96.554 -24.1327
58.216526 96.529 -24.4342
58.638386 96.504 -24.7304
59.063305 96.480 -25.0202
59.491302 96.456 -25.3030
59.922401 96.430 -25.5796
60.356625 96.402 -25.8512
60.793995 96.372 -26.1200
61.234531 96.341 -26.3883
61.678261 96.307 -26.6581
62.125206 96.273 -26.9300
62.575390 96.238 -27.2037
63.028835 96.204 -27.4777
63.485569 96.170 -27.7504
63.945610 96.137 -28.0203
64.408989 96.104 -28.2869
64.875725 96.071 -28.5501
65.345840 96.038 -28.8106
65.819366 96.004 -29.0699
66.296318 95.969 -29.3295
66.776726 95.933 -29.5912
67.260620 95.896 -29.8562
67.748016 95.858 -30.1242
68.238945 95.820 -30.3935
68.733429 95.781 -30.6616
69.231499 95.742 -30.9264
69.733177 95.703 -31.1868
70.238495 95.664 -31.4432
70.747475 95.625 -31.6972
71.260139 95.585 -31.9510
71.776520 95.545 -32.2063
72.296638 95.504 -32.4627
72.820526 95.463 -32.7183
73.348213 95.421 -32.9703
73.879723 95.378 -33.2169
74.415085 95.335 -33.4573
74.954330 95.292 -33.6922
75.497482 95.247 -33.9235
76.044571 95.203 -34.1540
76.595619 95.158 -34.3862
77.150665 95.112 -34.6211
77.709732 95.066 -34.8575
78.272850 95.021 -35.0933
78.840050 94.975 -35.3263
79.411354 94.929 -35.5553
79.986801 94.883 -35.7801
80.566422 94.838 -36.0019
81.150238 94.792 -36.2215
81.738289 94.746 -36.4393
82.330597 94.698 -36.6556
82.927200 94.650 -36.8711
83.528122 94.602 -37.0866
84.133400 94.552 -37.3025
84.743065 94.503 -37.5180
85.357147 94.452 -37.7323
85.975677 94.402 -37.9438
86.598694 94.351 -38.1511
87.226227 94.300 -38.3536
87.858307 94.249 -38.5518
88.494965 94.198 -38.7469
89.136238 94.147 -38.9402
89.782158 94.095 -39.1313
90.432755 94.043 -39.3189
91.088066 93.991 -39.5009
91.748131 93.938 -39.6764
92.412979 93.884 -39.8468
93.082642 93.830 -40.0150
93.757156 93.775 -40.1836
94.436562 93.719 -40.3535
95.120888 93.664 -40.5236
95.810173 93.608 -40.6916
96.504456 93.552 -40.8557
97.203766 93.497 -41.0155
97.908142 93.441 -41.1708
98.617622 93.384 -41.3218
99.332245 93.327 -41.4683
100.052048 93.270 -41.6104
100.777069 93.212 -41.7487
101.507339 93.153 -41.8850
102.242905 93.094 -42.0206
102.983795 93.035 -42.1558
103.730057 92.975 -42.2892
104.481728 92.916 -42.4183
105.238846 92.855 -42.5413
106.001450 92.795 -42.6577
106.769577 92.735 -42.7675
107.543274 92.674 -42.8706
108.322578 92.613 -42.9670
109.107529 92.552 -43.0575
109.898170 92.490 -43.1441
110.694534 92.428 -43.2287
111.496674 92.366 -43.3123
112.304626 92.304 -43.3949
113.118431 92.243 -43.4747
113.938133 92.182 -43.5503
114.763779 92.122 -43.6212
115.595406 92.062 -43.6879
116.433060 92.002 -43.7514
117.276779 91.941 -43.8128
118.126617 91.880 -43.8716
118.982613 91.819 -43.9249
119.844810 91.757 -43.9699
120.713257 91.693 -44.0062
121.587997 91.628 -44.0362
122.469070 91.563 -44.0618
123.356529 91.497 -44.0837
124.250420 91.432 -44.1023
125.150787 91.367 -44.1180
126.057678 91.303 -44.1306
126.971146 91.240 -44.1392
127.891228 91.176 -44.1428
128.817978 91.113 -44.1419
129.751450 91.050 -44.1382
130.691681 90.987 -44.1331
131.638733 90.923 -44.1267
132.592636 90.860 -44.1181
133.553452 90.796 -44.1059
134.521240 90.732 -44.0891
135.496033 90.668 -44.0674
136.477890 90.604 -44.0402
137.466858 90.540 -44.0071
138.462997 90.476 -43.9679
139.466354 90.412 -43.9229
140.476990 90.347 -43.8721
141.494949 90.283 -43.8152
142.520279 90.220 -43.7511
143.553040 90.156 -43.6798
144.593277 90.092 -43.6022
145.641052 90.029 -43.5194
146.696426 89.965 -43.4320
147.759445 89.901 -43.3402
148.830170 89.838 -43.2437
149.908661 89.775 -43.1429
150.994965 89.712 -43.0385
152.089142 89.649 -42.9308
153.191238 89.586 -42.8191
154.301331 89.523 -42.7022
155.419464 89.460 -42.5788
156.545700 89.398 -42.4479
157.680099 89.336 -42.3093
158.822708 89.275 -42.1636
159.973602 89.214 -42.0124
161.132843 89.153 -41.8578
162.300476 89.093 -41.7010
163.476578 89.034 -41.5427
164.661194 88.974 -41.3829
165.854401 88.915 -41.2218
167.056244 88.856 -41.0581
168.266800 88.797 -40.8899
169.486130 88.739 -40.7152
170.714294 88.681 -40.5328
171.951355 88.623 -40.3426
173.197388 88.566 -40.1451
174.452454 88.509 -39.9418
175.716614 88.453 -39.7348
176.989929 88.397 -39.5261
178.272476 88.342 -39.3166
179.564316 88.288 -39.1047
180.865509 88.235 -38.8881
182.176132 88.182 -38.6655
183.496262 88.131 -38.4369
184.825958 88.080 -38.2031
186.165283 88.030 -37.9655
187.514313 87.980 -37.7252
188.873123 87.931 -37.4830
190.241776 87.882 -37.2396
191.620346 87.833 -36.9954
193.008911 87.785 -36.7502
194.407532 87.736 -36.5033
195.816284 87.687 -36.2550
197.235245 87.639 -36.0068
198.664490 87.591 -35.7595
200.104095 87.544 -35.5114
201.554138 87.498 -35.2579
203.014679 87.453 -34.9939
204.485809 87.408 -34.7174
205.967590 87.363 -34.4307
207.460114 87.318 -34.1379
208.963455 87.274 -33.8412
210.477692 87.230 -33.5396
212.002899 87.187 -33.2318
213.539154 87.144 -32.9168
215.086548 87.103 -32.5939
216.645157 87.061 -32.2633
218.215057 87.019 -31.9253
219.796341 86.977 -31.5800
221.389069 86.935 -31.2263
222.993347 86.893 -30.8616
224.609253 86.852 -30.4832
226.236862 86.812 -30.0882
227.876266 86.775 -29.6736
229.527557 86.741 -29.2384
231.190811 86.710 -28.7820
232.866119 86.683 -28.3039
234.553558 86.661 -27.8058
236.253235 86.645 -27.2907
237.965225 86.635 -26.7662
239.689621 86.634 -26.2444
241.426514 86.640 -25.7376
243.175995 86.655 -25.2609
244.938141 86.678 -24.8293
246.713058 86.705 -24.4530
248.500839 86.735 -24.1393
250.301575 86.765 -23.8906
252.115356 86.794 -23.7032
253.942291 86.818 -23.5685
255.782455 86.838 -23.4741
257.635956 86.852 -23.4076
259.502899 86.860 -23.3572
261.383362 86.862 -23.3102
263.277466 86.859 -23.2575
265.185272 86.852 -23.1923
267.106903 86.841 -23.1113
269.042480 86.828 -23.0144
270.992065 86.813 -22.9033
272.955780 86.797 -22.7807
274.933716 86.780 -22.6489
276.925995 86.762 -22.5082
278.932709 86.744 -22.3586
280.953979 86.727 -22.2003
282.989899 86.710 -22.0339
285.040558 86.693 -21.8612
287.106079 86.677 -21.6836
289.186554 86.661 -21.5022
291.282104 86.646 -21.3175
293.392853 86.631 -21.1298
295.518890 86.616 -20.9400
297.660339 86.602 -20.7491
299.817322 86.589 -20.5562
301.989929 86.576 -20.3609
304.178284 86.563 -20.1633
306.382477 86.551 -19.9641
308.602661 86.539 -19.7650
310.838928 86.527 -19.5676
313.091400 86.517 -19.3726
315.360199 86.507 -19.1795
317.645416 86.497 -18.9881
319.947205 86.489 -18.7984
322.265686 86.480 -18.6097
324.600952 86.472 -18.4216
326.953156 86.464 -18.2341
329.322388 86.455 -18.0475
331.708801 86.447 -17.8618
334.112488 86.439 -17.6774
336.533600 86.432 -17.4956
338.972260 86.425 -17.3177
341.428589 86.419 -17.1426
343.902710 86.414 -16.9673
346.394775 86.411 -16.7896
348.904907 86.408 -16.6094
351.433228 86.406 -16.4264
353.979858 86.404 -16.2404
356.544952 86.400 -16.0535
359.128632 86.396 -15.8701
361.731018 86.390 -15.6934
364.352264 86.384 -15.5225
366.992523 86.380 -15.3546
369.651917 86.376 -15.1870
372.330566 86.373 -15.0189
375.028625 86.371 -14.8509
377.746246 86.368 -14.6847
380.483551 86.363 -14.5231
383.240692 86.357 -14.3698
386.017822 86.352 -14.2264
388.815063 86.348 -14.0897
391.632568 86.347 -13.9524
394.470490 86.348 -13.8041
397.328979 86.351 -13.6364
400.208191 86.354 -13.4499
403.108276 86.354 -13.2562
406.029358 86.352 -13.0697
408.971619 86.349 -12.8984
411.935181 86.345 -12.7418
414.920227 86.341 -12.5948
417.926910 86.338 -12.4534
420.955383 86.336 -12.3174
424.005798 86.334 -12.1893
427.078308 86.331 -12.0717
430.173096 86.327 -11.9657
433.290314 86.323 -11.8704
436.430115 86.318 -11.7833
439.592682 86.313 -11.7000
442.778137 86.306 -11.6134
445.986694 86.299 -11.5148
449.218506 86.292 -11.3951
452.473724 86.286 -11.2460
455.752533 86.282 -11.0633
459.055115 86.280 -10.8525
462.381622 86.278 -10.6305
465.732239 86.276 -10.4233
469.107117 86.274 -10.2535
472.506470 86.271 -10.1254
475.930450 86.266 -10.0227
479.379242 86.259 -9.9170
482.853027 86.249 -9.7808
486.351990 86.238 -9.5947
489.876282 86.232 -9.3515
493.426117 86.234 -9.0619
497.001678 86.247 -8.7557
500.603149 86.269 -8.4707
504.230713 86.296 -8.2355
507.884583 86.322 -8.0606
511.564911 86.343 -7.9421
515.271912 86.358 -7.8665
519.005798 86.367 -7.8144
522.766724 86.371 -7.7686
526.554932 86.372 -7.7188
530.370544 86.371 -7.6600
534.213806 86.369 -7.5916
538.084961 86.365 -7.5166
541.984131 86.361 -7.4407
545.911560 86.355 -7.3683
549.867432 86.348 -7.2999
553.851990 86.338 -7.2324
557.865417 86.326 -7.1608
561.907959 86.310 -7.0795
565.979797 86.291 -6.9814
570.081116 86.267 -6.8553
574.212158 86.241 -6.6858
578.373108 86.213 -6.4581
582.564209 86.186 -6.1624
586.785706 86.165 -5.7993
591.037781 86.155 -5.3853
595.320679 86.157 -4.9521
599.634644 86.172 -4.5387
603.979858 86.197 -4.1773
608.356567 86.227 -3.8820
612.764954 86.259 -3.6484
617.205322 86.289 -3.4600
621.677856 86.316 -3.2984
626.182800 86.340 -3.1508
630.720398 86.361 -3.0111
635.290833 86.379 -2.8776
639.894409 86.395 -2.7498
644.531372 86.408 -2.6256
649.201904 86.421 -2.5019
653.906311 86.432 -2.3760
658.644775 86.442 -2.2463
663.417603 86.452 -2.1123
668.224976 86.462 -1.9748
673.067200 86.472 -1.8354
677.944519 86.482 -1.6944
682.857178 86.492 -1.5509
687.805420 86.502 -1.4041
692.789551 86.512 -1.2536
697.809814 86.522 -1.0999
702.866455 86.532 -0.9434
707.959717 86.543 -0.7839
713.089905 86.555 -0.6213
718.257263 86.566 -0.4554
723.462036 86.578 -0.2861
728.704529 86.591 -0.1136
733.985046 86.604 0.0618
739.303833 86.617 0.2394
744.661133 86.631 0.4186
750.057251 86.646 0.5988
755.492493 86.661 0.7801
760.967102 86.676 0.9631
766.481384 86.692 1.1480
772.035645 86.707 1.3342
777.630127 86.724 1.5209
783.265137 86.741 1.7080
788.940979 86.759 1.8968
794.657959 86.779 2.0886
800.416382 86.799 2.2834
806.216553 86.820 2.4803
812.058716 86.842 2.6783
817.943237 86.864 2.8772
823.870361 86.888 3.0768
829.840454 86.912 3.2773
835.853821 86.937 3.4785
841.910767 86.963 3.6801
848.011597 86.990 3.8814
854.156616 87.018 4.0817
860.346191 87.048 4.2809
866.580627 87.078 4.4799
872.860229 87.110 4.6793
879.185364 87.142 4.8777
885.556274 87.177 5.0737
891.973389 87.212 5.2665
898.437012 87.248 5.4561
904.947449 87.286 5.6428
911.505066 87.325 5.8271
918.110229 87.365 6.0083
924.763245 87.407 6.1853
931.464478 87.450 6.3566
938.214233 87.495 6.5222
945.012939 87.541 6.6829
951.860901 87.589 6.8395
958.758484 87.638 6.9918
965.706055 87.688 7.1391
972.703979 87.738 7.2805
979.752563 87.790 7.4152
986.852234 87.843 7.5421
994.003357 87.897 7.6601
1001.206299 87.952 7.7683
1008.461426 88.008 7.8660
1015.769165 88.065 7.9533
1023.129822 88.122 8.0302
1030.543823 88.181 8.0968
1038.011597 88.240 8.1531
1045.533447 88.300 8.1993
1053.109863 88.360 8.2355
1060.741089 88.421 8.2615
1068.427612 88.482 8.2771
1076.169922 88.543 8.2818
1083.968262 88.604 8.2756
1091.823120 88.665 8.2583
1099.734863 88.727 8.2306
1107.703979 88.788 8.1928
1115.730835 88.849 8.1450
1123.815918 88.911 8.0873
1131.959595 88.972 8.0195
1140.162231 89.032 7.9416
1148.424316 89.093 7.8538
1156.746216 89.153 7.7564
1165.128418 89.212 7.6500
1173.571411 89.271 7.5351
1182.075562 89.329 7.4122
1190.641357 89.386 7.2818
1199.269287 89.443 7.1445
1207.959717 89.499 7.0007
1216.713135 89.555 6.8511
1225.529907 89.610 6.6962
1234.410645 89.663 6.5366
1243.355713 89.717 6.3723
1252.365601 89.769 6.2035
1261.440796 89.821 6.0302
1270.581665 89.873 5.8529
1279.788818 89.923 5.6723
1289.062744 89.973 5.4889
1298.403809 90.022 5.3033
1307.812622 90.071 5.1159
1317.289551 90.119 4.9270
1326.835205 90.167 4.7367
1336.449951 90.214 4.5454
1346.134399 90.261 4.3530
1355.889038 90.307 4.1595
1365.714355 90.354 3.9651
1375.610840 90.399 3.7698
1385.579102 90.445 3.5738
1395.619629 90.490 3.3771
1405.732910 90.535 3.1800
1415.919434 90.579 2.9828
1426.179810 90.624 2.7861
1436.514526 90.668 2.5902
1446.924072 90.712 2.3954
1457.409058 90.756 2.2017
1467.970093 90.800 2.0091
1478.607666 90.844 1.8174
1489.322266 90.888 1.6265
1500.114502 90.933 1.4362
1510.984985 90.978 1.2465
1521.934204 91.024 1.0570
1532.962769 91.069 0.8678
1544.071289 91.116 0.6786
1555.260254 91.163 0.4891
1566.530273 91.210 0.2991
1577.881958 91.258 0.1084
1589.315918 91.307 -0.0832
1600.832764 91.356 -0.2756
1612.433105 91.406 -0.4690
1624.117432 91.457 -0.6633
1635.886475 91.508 -0.8585
1647.740723 91.560 -1.0549
1659.680908 91.613 -1.2528
1671.707642 91.667 -1.4522
1683.821533 91.721 -1.6533
1696.023193 91.777 -1.8565
1708.313232 91.833 -2.0619
1720.692383 91.891 -2.2700
1733.161255 91.950 -2.4815
1745.720459 92.010 -2.6972
1758.370728 92.071 -2.9178
1771.112549 92.134 -3.1441
1783.946777 92.197 -3.3767
1796.874023 92.262 -3.6157
1809.894897 92.327 -3.8611
1823.010132 92.394 -4.1128
1836.220459 92.461 -4.3709
1849.526489 92.530 -4.6357
1862.928955 92.600 -4.9079
1876.428467 92.671 -5.1880
1890.025879 92.744 -5.4768
1903.721802 92.817 -5.7748
1917.516968 92.892 -6.0825
1931.412109 92.968 -6.4004
1945.407959 93.045 -6.7288
1959.505127 93.123 -7.0679
1973.704468 93.202 -7.4179
1988.006714 93.282 -7.7788
2002.412598 93.363 -8.1510
2016.922852 93.446 -8.5347
2031.538330 93.529 -8.9305
2046.259644 93.614 -9.3390
2061.087646 93.699 -9.7610
2076.023193 93.786 -10.1971
2091.066895 93.874 -10.6480
2106.219727 93.963 -11.1142
2121.482178 94.053 -11.5963
2136.855225 94.144 -12.0948
2152.339844 94.236 -12.6106
2167.936523 94.329 -13.1447
2183.646240 94.423 -13.6980
2199.469727 94.517 -14.2717
2215.407959 94.613 -14.8671
2231.461670 94.710 -15.4855
2247.631836 94.807 -16.1280
2263.919189 94.905 -16.7956
2280.324463 95.003 -17.4896
2296.848633 95.101 -18.2105
2313.492432 95.199 -18.9592
2330.256836 95.297 -19.7359
2347.142822 95.393 -20.5409
2364.151123 95.489 -21.3743
2381.282715 95.584 -22.2363
2398.538574 95.677 -23.1270
2415.919434 95.769 -24.0465
2433.426270 95.860 -24.9951
2451.059814 95.948 -25.9733
2468.821289 96.035 -26.9815
2486.711426 96.119 -28.0204
2504.731201 96.201 -29.0904
2522.881592 96.280 -30.1923
2541.163330 96.357 -31.3265
2559.577637 96.429 -32.4932
2578.125488 96.498 -33.6925
2596.807617 96.563 -34.9242
2615.625244 96.623 -36.1874
2634.579102 96.677 -37.4804
2653.670410 96.724 -38.8011
2672.899902 96.765 -40.1461
2692.268799 96.799 -41.5116
2711.778076 96.824 -42.8932
2731.428711 96.841 -44.2854
2751.221680 96.849 -45.6825
2771.158203 96.848 -47.0780
2791.239258 96.839 -48.4655
2811.465820 96.822 -49.8390
2831.838867 96.797 -51.1931
2852.359619 96.765 -52.5233
2873.029053 96.727 -53.8262
2893.848145 96.684 -55.0992
2914.818115 96.635 -56.3407
2935.940186 96.583 -57.5499
2957.215332 96.527 -58.7265
2978.644531 96.469 -59.8709
3000.229004 96.408 -60.9840
3021.969971 96.345 -62.0673
3043.868408 96.280 -63.1221
3065.925537 96.215 -64.1499
3088.142578 96.148 -65.1521
3110.520508 96.081 -66.1298
3133.060547 96.014 -67.0838
3155.763916 95.945 -68.0149
3178.631836 95.877 -68.9235
3201.665527 95.808 -69.8102
3224.866211 95.740 -70.6754
3248.234863 95.671 -71.5195
3271.772949 95.603 -72.3430
3295.481445 95.535 -73.1462
3319.361816 95.467 -73.9294
3343.415283 95.400 -74.6930
3367.643066 95.334 -75.4374
3392.046387 95.269 -76.1632
3416.626465 95.205 -76.8707
3441.384766 95.142 -77.5606
3466.322510 95.080 -78.2336
3491.440918 95.020 -78.8906
3516.741455 94.962 -79.5324
3542.225098 94.906 -80.1599
3567.893555 94.852 -80.7740
3593.748047 94.800 -81.3760
3619.789795 94.750 -81.9668
3646.020264 94.703 -82.5476
3672.440918 94.658 -83.1196
3699.052979 94.616 -83.6838
3725.857910 94.577 -84.2416
3752.856934 94.540 -84.7941
3780.051758 94.507 -85.3428
3807.443604 94.476 -85.8890
3835.033936 94.448 -86.4342
3862.824219 94.423 -86.9799
3890.815918 94.402 -87.5274
3919.010254 94.383 -88.0782
3947.408936 94.367 -88.6339
3976.013428 94.355 -89.1962
4004.825195 94.345 -89.7665
4033.845703 94.338 -90.3467
4063.076660 94.334 -90.9383
4092.519287 94.333 -91.5431
4122.175293 94.335 -92.1626
4152.046387 94.339 -92.7987
4182.133789 94.346 -93.4529
4212.439453 94.355 -94.1269
4242.964355 94.367 -94.8222
4273.710449 94.380 -95.5402
4304.679688 94.395 -96.2824
4335.873047 94.412 -97.0501
4367.292480 94.430 -97.8447
4398.939453 94.448 -98.6673
4430.815918 94.467 -99.5188
4462.923340 94.486 -100.3998
4495.263672 94.505 -101.3109
4527.838379 94.523 -102.2524
4560.648926 94.539 -103.2244
4593.697266 94.555 -104.2268
4626.984863 94.568 -105.2588
4660.513672 94.579 -106.3194
4694.285645 94.587 -107.4072
4728.302246 94.591 -108.5205
4762.565430 94.592 -109.6571
4797.077148 94.589 -110.8145
4831.838867 94.581 -111.9901
4866.852539 94.568 -113.1806
4902.119629 94.551 -114.3827
4937.642578 94.528 -115.5929
4973.422852 94.500 -116.8073
5009.462402 94.467 -118.0220
5045.763184 94.429 -119.2330
5082.326660 94.385 -120.4364
5119.155273 94.337 -121.6284
5156.250977 94.284 -122.8051
5193.615234 94.227 -123.9630
5231.250488 94.165 -125.0987
5269.158203 94.101 -126.2096
5307.340820 94.034 -127.2929
5345.799805 93.964 -128.3466
5384.537598 93.893 -129.3690
5423.556152 93.821 -130.3589
5462.857422 93.748 -131.3155
5502.443359 93.676 -132.2387
5542.316406 93.605 -133.1287
5582.478516 93.536 -133.9865
5622.931641 93.469 -134.8136
5663.677734 93.406 -135.6120
5704.719238 93.346 -136.3848
5746.058105 93.290 -137.1351
5787.696289 93.240 -137.8667
5829.636230 93.194 -138.5837
5871.880371 93.155 -139.2904
5914.430664 93.121 -139.9914
5957.289062 93.093 -140.6913
6000.458008 93.072 -141.3951
6043.939941 93.056 -142.1079
6087.736816 93.047 -142.8350
6131.851074 93.044 -143.5816
6176.285156 93.047 -144.3528
6221.041016 93.055 -145.1532
6266.121094 93.067 -145.9871
6311.527832 93.084 -146.8584
6357.263672 93.104 -147.7708
6403.331055 93.128 -148.7268
6449.732422 93.154 -149.7287
6496.469727 93.181 -150.7775
6543.545898 93.208 -151.8737
6590.962891 93.236 -153.0166
6638.723633 93.263 -154.2055
6686.830566 93.288 -155.4389
6735.286133 93.312 -156.7150
6784.092773 93.333 -158.0310
6833.252930 93.350 -159.3836
6882.769531 93.365 -160.7691
6932.645020 93.376 -162.1842
6982.881836 93.384 -163.6266
7033.482910 93.388 -165.0945
7084.450195 93.389 -166.5863
7135.787109 93.387 -168.0995
7187.496094 93.382 -169.6328
7239.579590 93.375 -171.1868
7292.040527 93.365 -172.7646
7344.881836 93.353 -174.3703
7398.105957 93.339 -176.0061
7451.715820 93.321 -177.6719
7505.713867 93.299 -179.3660
7560.103516 93.272 178.9130
7614.887207 93.242 177.1661
7670.067871 93.207 175.3936
7725.648438 93.169 173.5954
7781.631836 93.126 171.7711
7838.020508 93.079 169.9169
7894.817871 93.030 168.0226
7952.026855 92.978 166.0707
8009.650391 92.919 164.0419
8067.691406 92.849 161.9279
8126.153320 92.761 159.7419
8185.038574 92.652 157.5157
8244.350586 92.518 155.2889
8304.092773 92.361 153.0981
8364.267578 92.181 150.9731
8424.878906 91.981 148.9377
8485.928711 91.764 147.0124
8547.420898 91.531 145.2150
8609.359375 91.287 143.5601
8671.746094 91.035 142.0579
8734.584961 90.778 140.7139
8797.878906 90.521 139.5289
8861.631836 90.267 138.4990
8925.846680 90.018 137.6174
8990.527344 89.779 136.8748
9055.676758 89.551 136.2602
9121.297852 89.337 135.7617
9187.394531 89.138 135.3668
9253.969727 88.956 135.0631
9321.027344 88.793 134.8377
9388.571289 88.650 134.6776
9456.604492 88.528 134.5690
9525.130859 88.429 134.4971
9594.154297 88.353 134.4454
9663.677734 88.303 134.3958
9733.705078 88.278 134.3276
9804.239258 88.280 134.2173
9875.285156 88.308 134.0385
9946.845703 88.363 133.7618
10018.924805 88.444 133.3554
10091.526367 88.547 132.7852
10164.653320 88.672 132.0167
10238.310547 88.811 131.0163
10312.501953 88.961 129.7547
10387.230469 89.113 128.2097
10462.500977 89.258 126.3700
10538.316406 89.386 124.2388
10614.681641 89.489 121.8364
10691.599609 89.555 119.2020
10769.075195 89.577 116.3940
10847.112305 89.548 113.4878
10925.714844 89.465 110.5717
11004.886719 89.329 107.7407
11084.632812 89.145 105.0891
11164.957031 88.920 102.7005
11245.863281 88.668 100.6393
11327.355469 88.404 98.9418
11409.438477 88.144 97.6100
11492.116211 87.905 96.6087
11575.392578 87.700 95.8680
11659.272461 87.538 95.2915
11743.760742 87.425 94.7697
11828.861328 87.357 94.1956
11914.578125 87.329 93.4800
12000.916016 87.329 92.5616
12087.879883 87.346 91.4117
12175.473633 87.366 90.0338
12263.702148 87.379 88.4579
12352.570312 87.377 86.7330
12442.082031 87.356 84.9190
12532.242188 87.314 83.0786
12623.055664 87.252 81.2711
12714.527344 87.174 79.5466
12806.662109 87.088 77.9428
12899.464844 86.999 76.4828
12992.939453 86.917 75.1740
13087.091797 86.850 74.0083
13181.925781 86.805 72.9635
13277.447266 86.790 72.0037
13373.661133 86.810 71.0814
13470.572266 86.870 70.1391
13568.185547 86.973 69.1117
13666.505859 87.117 67.9286
13765.539062 87.302 66.5174
13865.290039 87.520 64.8075
13965.763672 87.765 62.7351
14066.965820 88.024 60.2484
14168.900391 88.285 57.3131
14271.574219 88.532 53.9174
14374.992188 88.750 50.0760
14479.159180 88.922 45.8334
14584.081055 89.036 41.2645
14689.763672 89.080 36.4709
14796.211914 89.047 31.5749
14903.431641 88.939 26.7084
15011.427734 88.759 22.0027
15120.207031 88.519 17.5750
15229.774414 88.235 13.5200
15340.135742 87.929 9.9000
15451.296875 87.624 6.7388
15563.263672 87.346 4.0151
15676.041016 87.123 1.6592
15789.635742 86.981 -0.4509
15904.053711 86.941 -2.4868
16019.300781 87.016 -4.6600
16135.382812 87.213 -7.2020
16252.306641 87.522 -10.3354
16370.077148 87.929 -14.2491
16488.701172 88.412 -19.0861
16608.185547 88.946 -24.9611
16728.535156 89.496 -31.9948
16849.757812 90.012 -40.3159
16971.857422 90.422 -49.9802
17094.841797 90.651 -60.8779
17218.718750 90.633 -72.7072
17343.492188 90.325 -85.0117
17469.169922 89.714 -97.2695
17595.757812 88.817 -109.0105
17723.263672 87.667 -119.9005
17851.693359 86.310 -129.7626
17981.054688 84.792 -138.5570
18111.353516 83.154 -146.3462
18242.595703 81.429 -153.2532
18374.789062 79.645 -159.4209
18507.939453 77.815 -164.9728
18642.054688 75.948 -169.9851
18777.142578 74.039 -174.4721
18913.208984 72.083 -178.3826
19050.261719 70.069 178.4057
19188.308594 67.987 176.1141
19327.355469 65.832 175.1470
19467.410156 63.610 176.3108
19608.478516 61.355 -178.6810
19750.570312 59.162 -166.6215
19893.691406 57.257 -146.5468
20037.849609 0.000 -131.3875
