* Measurement data measured by REW V5.30.4
* Source: Headset (2- CX31993 HIFI AUDIO), MICROPHONE (Master Volume), L, volume: 0.500
* Format: 256k Log Swept Sine, 1 sweep at -12.0 dBFS with no timing reference
* Dated: 09 12, 24 1:31:39 PM
* REW Settings:
*  C-weighting compensation: Off
*  Target level: 75.0 dB
* Note: ; 
* Measurement: Thieaudio Oracle R
* Smoothing: 1/12 octave
* Frequency Step: 96 ppo
* Start Frequency: 20.141602 Hz
*
* Freq(Hz) SPL(dB) Phase(degrees)
20.141602 96.961 -157.1786
20.287556 96.968 -157.3343
20.434568 96.977 -157.5592
20.582645 96.987 -157.8334
20.731796 96.997 -158.1391
20.882027 97.007 -158.4625
21.033346 97.016 -158.7934
21.185762 97.023 -159.1248
21.339283 97.030 -159.4525
21.493916 97.035 -159.7740
21.649670 97.041 -160.0887
21.806553 97.047 -160.3977
21.964573 97.053 -160.7030
22.123737 97.060 -161.0077
22.284056 97.068 -161.3147
22.445536 97.076 -161.6267
22.608185 97.083 -161.9454
22.772013 97.090 -162.2710
22.937029 97.095 -162.6019
23.103241 97.097 -162.9349
23.270657 97.097 -163.2651
23.439285 97.094 -163.5872
23.609137 97.089 -163.8956
23.780218 97.082 -164.1857
23.952539 97.075 -164.4544
24.126110 97.068 -164.7013
24.300938 97.063 -164.9286
24.477032 97.062 -165.1413
24.654402 97.064 -165.3466
24.833057 97.070 -165.5530
25.013008 97.080 -165.7691
25.194263 97.093 -166.0024
25.376831 97.107 -166.2579
25.560722 97.122 -166.5380
25.745945 97.136 -166.8418
25.932510 97.147 -167.1657
26.120428 97.156 -167.5036
26.309708 97.160 -167.8487
26.500359 97.161 -168.1938
26.692390 97.158 -168.5328
26.885815 97.153 -168.8613
27.080641 97.146 -169.1770
27.276878 97.139 -169.4804
27.474539 97.132 -169.7735
27.673630 97.127 -170.0600
27.874165 97.123 -170.3442
28.076153 97.121 -170.6301
28.279604 97.121 -170.9208
28.484529 97.122 -171.2179
28.690941 97.124 -171.5215
28.898848 97.126 -171.8299
29.108261 97.127 -172.1404
29.319191 97.129 -172.4494
29.531651 97.129 -172.7531
29.745649 97.128 -173.0484
29.961199 97.126 -173.3331
30.178310 97.124 -173.6067
30.396996 97.120 -173.8698
30.617264 97.117 -174.1251
30.839128 97.113 -174.3762
31.062601 97.110 -174.6272
31.287693 97.106 -174.8825
31.514416 97.102 -175.1456
31.742783 97.099 -175.4187
31.972803 97.094 -175.7023
32.204491 97.090 -175.9957
32.437859 97.084 -176.2965
32.672916 97.078 -176.6019
32.909679 97.072 -176.9090
33.148155 97.066 -177.2150
33.388359 97.060 -177.5182
33.630306 97.053 -177.8179
33.874004 97.047 -178.1140
34.119469 97.041 -178.4069
34.366711 97.035 -178.6973
34.615746 97.029 -178.9853
34.866585 97.022 -179.2709
35.119244 97.016 -179.5536
35.373734 97.009 -179.8325
35.630066 97.002 179.8932
35.888256 96.995 179.6239
36.148315 96.989 179.3596
36.410259 96.983 179.0995
36.674103 96.976 178.8423
36.939857 96.969 178.5862
37.207539 96.962 178.3293
37.477161 96.953 178.0695
37.748737 96.944 177.8055
38.022282 96.933 177.5360
38.297806 96.921 177.2607
38.575329 96.910 176.9797
38.854862 96.899 176.6935
39.136421 96.890 176.4034
39.420021 96.883 176.1109
39.705673 96.878 175.8182
39.993397 96.875 175.5275
40.283207 96.873 175.2411
40.575115 96.870 174.9607
40.869141 96.867 174.6870
41.165295 96.861 174.4194
41.463596 96.851 174.1564
41.764057 96.837 173.8958
42.066696 96.819 173.6354
42.371529 96.798 173.3738
42.678570 96.774 173.1104
42.987835 96.749 172.8450
43.299343 96.727 172.5781
43.613110 96.708 172.3094
43.929150 96.693 172.0383
44.247478 96.684 171.7643
44.568115 96.679 171.4870
44.891075 96.676 171.2075
45.216373 96.674 170.9279
45.544029 96.670 170.6510
45.874062 96.664 170.3802
46.206486 96.654 170.1175
46.541317 96.640 169.8637
46.878574 96.624 169.6177
47.218277 96.605 169.3771
47.560440 96.586 169.1386
47.905083 96.568 168.8991
48.252224 96.550 168.6562
48.601879 96.533 168.4088
48.954067 96.517 168.1569
49.308807 96.501 167.9015
49.666119 96.485 167.6441
50.026020 96.468 167.3860
50.388531 96.450 167.1279
50.753666 96.431 166.8699
51.121449 96.412 166.6117
51.491894 96.394 166.3529
51.865025 96.375 166.0933
52.240860 96.356 165.8337
52.619419 96.338 165.5751
53.000721 96.319 165.3192
53.384785 96.300 165.0673
53.771633 96.280 164.8203
54.161285 96.260 164.5780
54.553761 96.239 164.3393
54.949081 96.219 164.1018
55.347263 96.199 163.8630
55.748333 96.179 163.6210
56.152309 96.158 163.3756
56.559212 96.138 163.1284
56.969063 96.118 162.8820
57.381886 96.097 162.6381
57.797699 96.077 162.3962
58.216526 96.058 162.1532
58.638386 96.038 161.9055
59.063305 96.018 161.6516
59.491302 95.996 161.3932
59.922401 95.973 161.1348
60.356625 95.948 160.8809
60.793995 95.923 160.6337
61.234531 95.898 160.3925
61.678261 95.873 160.1552
62.125206 95.849 159.9196
62.575390 95.825 159.6848
63.028835 95.800 159.4498
63.485569 95.775 159.2136
63.945610 95.749 158.9750
64.408989 95.722 158.7337
64.875725 95.696 158.4915
65.345840 95.668 158.2527
65.819366 95.640 158.0223
66.296318 95.610 157.8029
66.776726 95.577 157.5918
67.260620 95.539 157.3831
67.748016 95.497 157.1721
68.238945 95.453 156.9583
68.733429 95.409 156.7447
69.231499 95.372 156.5315
69.733177 95.344 156.3142
70.238495 95.325 156.0871
70.747475 95.313 155.8500
71.260139 95.302 155.6100
71.776520 95.289 155.3762
72.296638 95.270 155.1523
72.820526 95.247 154.9359
73.348213 95.220 154.7216
73.879723 95.190 154.5070
74.415085 95.160 154.2925
74.954330 95.129 154.0804
75.497482 95.098 153.8720
76.044571 95.067 153.6669
76.595619 95.036 153.4637
77.150665 95.004 153.2605
77.709732 94.972 153.0567
78.272850 94.939 152.8528
78.840050 94.907 152.6505
79.411354 94.874 152.4508
79.986801 94.841 152.2541
80.566422 94.807 152.0599
81.150238 94.774 151.8674
81.738289 94.740 151.6757
82.330597 94.706 151.4845
82.927200 94.672 151.2936
83.528122 94.637 151.1032
84.133400 94.602 150.9138
84.743065 94.567 150.7260
85.357147 94.532 150.5405
85.975677 94.496 150.3580
86.598694 94.460 150.1784
87.226227 94.424 150.0012
87.858307 94.388 149.8255
88.494965 94.350 149.6508
89.136238 94.312 149.4767
89.782158 94.274 149.3029
90.432755 94.234 149.1295
91.088066 94.193 148.9575
91.748131 94.153 148.7886
92.412979 94.114 148.6247
93.082642 94.076 148.4658
93.757156 94.041 148.3106
94.436562 94.006 148.1581
95.120888 93.971 148.0079
95.810173 93.935 147.8594
96.504456 93.898 147.7123
97.203766 93.859 147.5662
97.908142 93.820 147.4215
98.617622 93.781 147.2789
99.332245 93.742 147.1395
100.052048 93.704 147.0035
100.777069 93.665 146.8704
101.507339 93.627 146.7392
102.242905 93.587 146.6096
102.983795 93.546 146.4811
103.730057 93.504 146.3528
104.481728 93.462 146.2239
105.238846 93.419 146.0940
106.001450 93.378 145.9630
106.769577 93.338 145.8306
107.543274 93.298 145.6970
108.322578 93.258 145.5643
109.107529 93.219 145.4376
109.898170 93.180 145.3240
110.694534 93.141 145.2283
111.496674 93.102 145.1481
112.304626 93.062 145.0725
113.118431 93.021 144.9855
113.938133 92.980 144.8723
114.763779 92.938 144.7239
115.595406 92.898 144.5368
116.433060 92.862 144.3103
117.276779 92.830 144.0502
118.126617 92.803 143.7784
118.982613 92.776 143.5374
119.844810 92.742 143.3776
120.713257 92.698 143.3248
121.587997 92.645 143.3573
122.469070 92.586 143.4225
123.356529 92.526 143.4771
124.250420 92.468 143.5027
125.150787 92.414 143.4966
126.057678 92.364 143.4628
126.971146 92.318 143.4106
127.891228 92.275 143.3535
128.817978 92.234 143.3033
129.751450 92.191 143.2655
130.691681 92.146 143.2381
131.638733 92.098 143.2150
132.592636 92.048 143.1910
133.553452 91.998 143.1620
134.521240 91.949 143.1236
135.496033 91.903 143.0748
136.477890 91.858 143.0247
137.466858 91.816 142.9897
138.462997 91.775 142.9865
139.466354 91.732 143.0297
140.476990 91.685 143.1234
141.494949 91.635 143.2426
142.520279 91.582 143.3327
143.553040 91.529 143.3461
144.593277 91.477 143.2832
145.641052 91.425 143.1902
146.696426 91.376 143.1174
147.759445 91.328 143.0912
148.830170 91.280 143.1146
149.908661 91.231 143.1798
150.994965 91.181 143.2751
152.089142 91.129 143.3874
153.191238 91.077 143.5043
154.301331 91.026 143.6206
155.419464 90.976 143.7441
156.545700 90.927 143.8926
157.680099 90.880 144.0824
158.822708 90.835 144.3202
159.973602 90.795 144.6052
161.132843 90.760 144.9322
162.300476 90.730 145.2892
163.476578 90.706 145.6537
164.661194 90.691 145.9935
165.854401 90.686 146.2728
167.056244 90.690 146.4679
168.266800 90.702 146.5826
169.486130 90.719 146.6387
170.714294 90.738 146.6553
171.951355 90.757 146.6403
173.197388 90.772 146.5919
174.452454 90.784 146.5065
175.716614 90.790 146.3883
176.989929 90.790 146.2515
178.272476 90.785 146.1092
179.564316 90.775 145.9653
180.865509 90.759 145.8187
182.176132 90.739 145.6693
183.496262 90.716 145.5198
184.825958 90.689 145.3725
186.165283 90.659 145.2303
187.514313 90.627 145.1003
188.873123 90.594 144.9935
190.241776 90.561 144.9172
191.620346 90.528 144.8691
193.008911 90.496 144.8391
194.407532 90.465 144.8160
195.816284 90.433 144.7943
197.235245 90.400 144.7721
198.664490 90.366 144.7489
200.104095 90.332 144.7266
201.554138 90.299 144.7087
203.014679 90.266 144.6982
204.485809 90.234 144.6968
205.967590 90.203 144.7037
207.460114 90.172 144.7159
208.963455 90.143 144.7312
210.477692 90.113 144.7495
212.002899 90.085 144.7711
213.539154 90.056 144.7953
215.086548 90.029 144.8200
216.645157 90.003 144.8419
218.215057 89.977 144.8591
219.796341 89.951 144.8730
221.389069 89.926 144.8881
222.993347 89.900 144.9076
224.609253 89.875 144.9326
226.236862 89.850 144.9618
227.876266 89.826 144.9934
229.527557 89.802 145.0248
231.190811 89.779 145.0534
232.866119 89.755 145.0782
234.553558 89.732 145.0997
236.253235 89.708 145.1202
237.965225 89.685 145.1439
239.689621 89.662 145.1764
241.426514 89.640 145.2200
243.175995 89.618 145.2704
244.938141 89.597 145.3213
246.713058 89.576 145.3674
248.500839 89.555 145.4062
250.301575 89.534 145.4371
252.115356 89.513 145.4610
253.942291 89.493 145.4803
255.782455 89.474 145.4969
257.635956 89.455 145.5121
259.502899 89.437 145.5271
261.383362 89.419 145.5450
263.277466 89.401 145.5703
265.185272 89.381 145.6047
267.106903 89.362 145.6457
269.042480 89.342 145.6904
270.992065 89.321 145.7383
272.955780 89.302 145.7899
274.933716 89.282 145.8445
276.925995 89.264 145.9007
278.932709 89.246 145.9570
280.953979 89.228 146.0131
282.989899 89.209 146.0683
285.040558 89.190 146.1202
287.106079 89.171 146.1658
289.186554 89.150 146.2063
291.282104 89.129 146.2495
293.392853 89.109 146.3050
295.518890 89.090 146.3773
297.660339 89.073 146.4655
299.817322 89.057 146.5657
301.989929 89.042 146.6733
304.178284 89.031 146.7840
306.382477 89.025 146.8960
308.602661 89.023 147.0113
310.838928 89.024 147.1297
313.091400 89.028 147.2423
315.360199 89.034 147.3379
317.645416 89.041 147.4114
319.947205 89.050 147.4639
322.265686 89.060 147.4987
324.600952 89.073 147.5199
326.953156 89.088 147.5301
329.322388 89.104 147.5280
331.708801 89.122 147.5068
334.112488 89.140 147.4551
336.533600 89.156 147.3646
338.972260 89.169 147.2370
341.428589 89.178 147.0815
343.902710 89.184 146.9116
346.394775 89.186 146.7406
348.904907 89.184 146.5780
351.433228 89.178 146.4266
353.979858 89.169 146.2850
356.544952 89.159 146.1505
359.128632 89.147 146.0218
361.731018 89.134 145.8987
364.352264 89.121 145.7826
366.992523 89.108 145.6754
369.651917 89.095 145.5773
372.330566 89.082 145.4876
375.028625 89.069 145.4048
377.746246 89.056 145.3268
380.483551 89.043 145.2521
383.240692 89.031 145.1793
386.017822 89.018 145.1071
388.815063 89.006 145.0345
391.632568 88.995 144.9609
394.470490 88.983 144.8871
397.328979 88.972 144.8140
400.208191 88.962 144.7420
403.108276 88.951 144.6705
406.029358 88.940 144.5986
408.971619 88.930 144.5254
411.935181 88.919 144.4505
414.920227 88.910 144.3747
417.926910 88.901 144.2986
420.955383 88.893 144.2225
424.005798 88.885 144.1459
427.078308 88.877 144.0692
430.173096 88.870 143.9932
433.290314 88.862 143.9179
436.430115 88.854 143.8430
439.592682 88.846 143.7679
442.778137 88.838 143.6918
445.986694 88.830 143.6142
449.218506 88.822 143.5348
452.473724 88.814 143.4538
455.752533 88.807 143.3714
459.055115 88.800 143.2880
462.381622 88.793 143.2033
465.732239 88.786 143.1167
469.107117 88.779 143.0276
472.506470 88.772 142.9355
475.930450 88.765 142.8404
479.379242 88.757 142.7429
482.853027 88.750 142.6447
486.351990 88.743 142.5475
489.876282 88.735 142.4516
493.426117 88.729 142.3556
497.001678 88.722 142.2584
500.603149 88.715 142.1599
504.230713 88.707 142.0605
507.884583 88.700 141.9608
511.564911 88.693 141.8603
515.271912 88.686 141.7590
519.005798 88.678 141.6570
522.766724 88.671 141.5546
526.554932 88.664 141.4519
530.370544 88.656 141.3495
534.213806 88.648 141.2474
538.084961 88.640 141.1456
541.984131 88.631 141.0439
545.911560 88.623 140.9426
549.867432 88.614 140.8423
553.851990 88.606 140.7442
557.865417 88.597 140.6494
561.907959 88.588 140.5585
565.979797 88.580 140.4713
570.081116 88.572 140.3865
574.212158 88.565 140.3024
578.373108 88.558 140.2177
582.564209 88.553 140.1322
586.785706 88.548 140.0465
591.037781 88.543 139.9619
595.320679 88.539 139.8796
599.634644 88.535 139.8014
603.979858 88.532 139.7281
608.356567 88.531 139.6596
612.764954 88.530 139.5941
617.205322 88.530 139.5288
621.677856 88.530 139.4613
626.182800 88.531 139.3901
630.720398 88.532 139.3151
635.290833 88.533 139.2371
639.894409 88.535 139.1573
644.531372 88.538 139.0770
649.201904 88.541 138.9962
653.906311 88.545 138.9136
658.644775 88.550 138.8272
663.417603 88.554 138.7356
668.224976 88.560 138.6385
673.067200 88.566 138.5368
677.944519 88.572 138.4319
682.857178 88.579 138.3251
687.805420 88.587 138.2173
692.789551 88.595 138.1088
697.809814 88.603 137.9998
702.866455 88.613 137.8902
707.959717 88.623 137.7795
713.089905 88.633 137.6670
718.257263 88.645 137.5518
723.462036 88.657 137.4335
728.704529 88.669 137.3123
733.985046 88.682 137.1894
739.303833 88.696 137.0659
744.661133 88.709 136.9429
750.057251 88.724 136.8210
755.492493 88.738 136.6999
760.967102 88.753 136.5793
766.481384 88.768 136.4587
772.035645 88.783 136.3378
777.630127 88.799 136.2162
783.265137 88.816 136.0935
788.940979 88.833 135.9691
794.657959 88.852 135.8423
800.416382 88.872 135.7127
806.216553 88.893 135.5807
812.058716 88.915 135.4471
817.943237 88.938 135.3122
823.870361 88.962 135.1756
829.840454 88.987 135.0367
835.853821 89.013 134.8947
841.910767 89.040 134.7489
848.011597 89.069 134.5989
854.156616 89.099 134.4443
860.346191 89.130 134.2848
866.580627 89.162 134.1205
872.860229 89.195 133.9515
879.185364 89.229 133.7775
885.556274 89.264 133.5980
891.973389 89.300 133.4126
898.437012 89.338 133.2208
904.947449 89.377 133.0219
911.505066 89.418 132.8155
918.110229 89.459 132.6013
924.763245 89.502 132.3790
931.464478 89.546 132.1484
938.214233 89.591 131.9092
945.012939 89.637 131.6608
951.860901 89.684 131.4027
958.758484 89.733 131.1342
965.706055 89.782 130.8547
972.703979 89.833 130.5632
979.752563 89.885 130.2594
986.852234 89.938 129.9429
994.003357 89.991 129.6137
1001.206299 90.045 129.2715
1008.461426 90.100 128.9160
1015.769165 90.156 128.5473
1023.129822 90.212 128.1653
1030.543823 90.269 127.7698
1038.011597 90.326 127.3605
1045.533447 90.384 126.9368
1053.109863 90.442 126.4984
1060.741089 90.501 126.0448
1068.427612 90.559 125.5759
1076.169922 90.618 125.0913
1083.968262 90.677 124.5914
1091.823120 90.735 124.0767
1099.734863 90.793 123.5479
1107.703979 90.851 123.0050
1115.730835 90.909 122.4484
1123.815918 90.966 121.8783
1131.959595 91.022 121.2947
1140.162231 91.078 120.6976
1148.424316 91.134 120.0872
1156.746216 91.188 119.4640
1165.128418 91.242 118.8282
1173.571411 91.295 118.1803
1182.075562 91.347 117.5202
1190.641357 91.398 116.8479
1199.269287 91.448 116.1636
1207.959717 91.498 115.4677
1216.713135 91.546 114.7612
1225.529907 91.593 114.0448
1234.410645 91.640 113.3194
1243.355713 91.685 112.5856
1252.365601 91.729 111.8438
1261.440796 91.772 111.0944
1270.581665 91.814 110.3377
1279.788818 91.855 109.5740
1289.062744 91.895 108.8039
1298.403809 91.934 108.0277
1307.812622 91.972 107.2460
1317.289551 92.009 106.4589
1326.835205 92.046 105.6664
1336.449951 92.081 104.8684
1346.134399 92.115 104.0653
1355.889038 92.149 103.2573
1365.714355 92.181 102.4449
1375.610840 92.213 101.6286
1385.579102 92.245 100.8088
1395.619629 92.275 99.9859
1405.732910 92.305 99.1599
1415.919434 92.334 98.3308
1426.179810 92.363 97.4984
1436.514526 92.391 96.6624
1446.924072 92.419 95.8230
1457.409058 92.446 94.9800
1467.970093 92.473 94.1339
1478.607666 92.499 93.2847
1489.322266 92.525 92.4324
1500.114502 92.551 91.5772
1510.984985 92.576 90.7189
1521.934204 92.602 89.8577
1532.962769 92.627 88.9933
1544.071289 92.652 88.1255
1555.260254 92.677 87.2547
1566.530273 92.702 86.3806
1577.881958 92.727 85.5032
1589.315918 92.752 84.6224
1600.832764 92.778 83.7380
1612.433105 92.803 82.8499
1624.117432 92.828 81.9579
1635.886475 92.854 81.0622
1647.740723 92.879 80.1627
1659.680908 92.904 79.2591
1671.707642 92.930 78.3513
1683.821533 92.956 77.4391
1696.023193 92.982 76.5219
1708.313232 93.009 75.5997
1720.692383 93.036 74.6722
1733.161255 93.063 73.7393
1745.720459 93.090 72.8008
1758.370728 93.118 71.8565
1771.112549 93.147 70.9063
1783.946777 93.176 69.9500
1796.874023 93.205 68.9873
1809.894897 93.234 68.0182
1823.010132 93.264 67.0421
1836.220459 93.295 66.0591
1849.526489 93.326 65.0691
1862.928955 93.357 64.0717
1876.428467 93.390 63.0670
1890.025879 93.422 62.0549
1903.721802 93.455 61.0350
1917.516968 93.489 60.0071
1931.412109 93.523 58.9710
1945.407959 93.557 57.9263
1959.505127 93.593 56.8724
1973.704468 93.628 55.8091
1988.006714 93.665 54.7362
2002.412598 93.702 53.6535
2016.922852 93.739 52.5607
2031.538330 93.777 51.4575
2046.259644 93.816 50.3434
2061.087646 93.855 49.2183
2076.023193 93.895 48.0816
2091.066895 93.935 46.9332
2106.219727 93.976 45.7729
2121.482178 94.018 44.6003
2136.855225 94.060 43.4153
2152.339844 94.102 42.2174
2167.936523 94.145 41.0063
2183.646240 94.188 39.7817
2199.469727 94.232 38.5429
2215.407959 94.277 37.2899
2231.461670 94.321 36.0224
2247.631836 94.366 34.7404
2263.919189 94.412 33.4436
2280.324463 94.457 32.1318
2296.848633 94.503 30.8045
2313.492432 94.550 29.4612
2330.256836 94.596 28.1014
2347.142822 94.643 26.7246
2364.151123 94.690 25.3306
2381.282715 94.737 23.9191
2398.538574 94.784 22.4897
2415.919434 94.831 21.0427
2433.426270 94.878 19.5781
2451.059814 94.924 18.0959
2468.821289 94.971 16.5965
2486.711426 95.017 15.0796
2504.731201 95.064 13.5452
2522.881592 95.110 11.9928
2541.163330 95.156 10.4221
2559.577637 95.201 8.8322
2578.125488 95.247 7.2223
2596.807617 95.292 5.5916
2615.625244 95.337 3.9396
2634.579102 95.382 2.2657
2653.670410 95.425 0.5701
2672.899902 95.469 -1.1478
2692.268799 95.511 -2.8878
2711.778076 95.552 -4.6501
2731.428711 95.593 -6.4347
2751.221680 95.632 -8.2416
2771.158203 95.670 -10.0709
2791.239258 95.706 -11.9222
2811.465820 95.741 -13.7953
2831.838867 95.775 -15.6898
2852.359619 95.806 -17.6051
2873.029053 95.836 -19.5405
2893.848145 95.863 -21.4954
2914.818115 95.888 -23.4687
2935.940186 95.912 -25.4591
2957.215332 95.932 -27.4651
2978.644531 95.951 -29.4846
3000.229004 95.967 -31.5157
3021.969971 95.981 -33.5562
3043.868408 95.994 -35.6039
3065.925537 96.005 -37.6572
3088.142578 96.016 -39.7151
3110.520508 96.027 -41.7777
3133.060547 96.038 -43.8467
3155.763916 96.052 -45.9258
3178.631836 96.067 -48.0205
3201.665527 96.086 -50.1389
3224.866211 96.107 -52.2899
3248.234863 96.131 -54.4830
3271.772949 96.155 -56.7266
3295.481445 96.180 -59.0264
3319.361816 96.202 -61.3849
3343.415283 96.222 -63.8012
3367.643066 96.236 -66.2712
3392.046387 96.245 -68.7889
3416.626465 96.248 -71.3478
3441.384766 96.244 -73.9417
3466.322510 96.234 -76.5651
3491.440918 96.217 -79.2144
3516.741455 96.194 -81.8873
3542.225098 96.164 -84.5826
3567.893555 96.129 -87.2997
3593.748047 96.086 -90.0386
3619.789795 96.037 -92.7989
3646.020264 95.979 -95.5798
3672.440918 95.914 -98.3794
3699.052979 95.839 -101.1943
3725.857910 95.753 -104.0189
3752.856934 95.656 -106.8451
3780.051758 95.547 -109.6622
3807.443604 95.425 -112.4565
3835.033936 95.290 -115.2115
3862.824219 95.142 -117.9090
3890.815918 94.982 -120.5295
3919.010254 94.813 -123.0541
3947.408936 94.636 -125.4661
3976.013428 94.455 -127.7528
4004.825195 94.274 -129.9075
4033.845703 94.099 -131.9305
4063.076660 93.932 -133.8297
4092.519287 93.778 -135.6202
4122.175293 93.641 -137.3231
4152.046387 93.522 -138.9630
4182.133789 93.422 -140.5663
4212.439453 93.343 -142.1580
4242.964355 93.283 -143.7607
4273.710449 93.241 -145.3937
4304.679688 93.216 -147.0716
4335.873047 93.206 -148.8058
4367.292480 93.208 -150.6039
4398.939453 93.222 -152.4709
4430.815918 93.246 -154.4096
4462.923340 93.278 -156.4213
4495.263672 93.318 -158.5064
4527.838379 93.364 -160.6652
4560.648926 93.417 -162.8973
4593.697266 93.475 -165.2036
4626.984863 93.537 -167.5850
4660.513672 93.605 -170.0433
4694.285645 93.676 -172.5809
4728.302246 93.751 -175.2008
4762.565430 93.829 -177.9059
4797.077148 93.909 179.3008
4831.838867 93.990 176.4171
4866.852539 94.070 173.4419
4902.119629 94.150 170.3749
4937.642578 94.226 167.2172
4973.422852 94.299 163.9716
5009.462402 94.366 160.6424
5045.763184 94.427 157.2353
5082.326660 94.481 153.7571
5119.155273 94.528 150.2155
5156.250977 94.567 146.6180
5193.615234 94.597 142.9724
5231.250488 94.619 139.2855
5269.158203 94.633 135.5631
5307.340820 94.640 131.8104
5345.799805 94.639 128.0313
5384.537598 94.630 124.2296
5423.556152 94.614 120.4088
5462.857422 94.591 116.5726
5502.443359 94.561 112.7250
5542.316406 94.524 108.8705
5582.478516 94.480 105.0134
5622.931641 94.430 101.1579
5663.677734 94.373 97.3077
5704.719238 94.311 93.4662
5746.058105 94.244 89.6368
5787.696289 94.172 85.8221
5829.636230 94.096 82.0254
5871.880371 94.016 78.2491
5914.430664 93.932 74.4960
5957.289062 93.846 70.7686
6000.458008 93.758 67.0687
6043.939941 93.669 63.3976
6087.736816 93.580 59.7562
6131.851074 93.491 56.1447
6176.285156 93.403 52.5624
6221.041016 93.318 49.0082
6266.121094 93.236 45.4805
6311.527832 93.157 41.9766
6357.263672 93.083 38.4937
6403.331055 93.015 35.0282
6449.732422 92.952 31.5765
6496.469727 92.895 28.1347
6543.545898 92.845 24.6984
6590.962891 92.803 21.2633
6638.723633 92.769 17.8248
6686.830566 92.743 14.3781
6735.286133 92.726 10.9188
6784.092773 92.719 7.4417
6833.252930 92.721 3.9406
6882.769531 92.734 0.4084
6932.645020 92.759 -3.1638
6982.881836 92.795 -6.7862
7033.482910 92.843 -10.4704
7084.450195 92.903 -14.2292
7135.787109 92.974 -18.0765
7187.496094 93.058 -22.0272
7239.579590 93.151 -26.0963
7292.040527 93.254 -30.2983
7344.881836 93.363 -34.6467
7398.105957 93.478 -39.1536
7451.715820 93.596 -43.8299
7505.713867 93.714 -48.6843
7560.103516 93.830 -53.7247
7614.887207 93.940 -58.9568
7670.067871 94.042 -64.3842
7725.648438 94.132 -70.0080
7781.631836 94.205 -75.8257
7838.020508 94.259 -81.8307
7894.817871 94.290 -88.0116
7952.026855 94.292 -94.3522
8009.650391 94.262 -100.8307
8067.691406 94.198 -107.4197
8126.153320 94.096 -114.0859
8185.038574 93.955 -120.7909
8244.350586 93.774 -127.4939
8304.092773 93.554 -134.1533
8364.267578 93.298 -140.7297
8424.878906 93.010 -147.1873
8485.928711 92.693 -153.4967
8547.420898 92.354 -159.6354
8609.359375 91.997 -165.5884
8671.746094 91.630 -171.3490
8734.584961 91.257 -176.9172
8797.878906 90.885 177.7004
8861.631836 90.518 172.4924
8925.846680 90.160 167.4441
8990.527344 89.816 162.5388
9055.676758 89.488 157.7581
9121.297852 89.178 153.0835
9187.394531 88.889 148.4972
9253.969727 88.621 143.9812
9321.027344 88.375 139.5187
9388.571289 88.153 135.0944
9456.604492 87.954 130.6937
9525.130859 87.779 126.3027
9594.154297 87.628 121.9080
9663.677734 87.502 117.4976
9733.705078 87.401 113.0598
9804.239258 87.323 108.5831
9875.285156 87.270 104.0564
9946.845703 87.239 99.4683
10018.924805 87.230 94.8079
10091.526367 87.242 90.0637
10164.653320 87.275 85.2244
10238.310547 87.326 80.2783
10312.501953 87.394 75.2141
10387.230469 87.477 70.0205
10462.500977 87.573 64.6865
10538.316406 87.678 59.2004
10614.681641 87.791 53.5514
10691.599609 87.907 47.7290
10769.075195 88.022 41.7255
10847.112305 88.131 35.5370
10925.714844 88.229 29.1653
11004.886719 88.309 22.6187
11084.632812 88.366 15.9135
11164.957031 88.394 9.0747
11245.863281 88.386 2.1354
11327.355469 88.340 -4.8640
11409.438477 88.251 -11.8752
11492.116211 88.120 -18.8459
11575.392578 87.947 -25.7218
11659.272461 87.735 -32.4498
11743.760742 87.488 -38.9817
11828.861328 87.213 -45.2765
11914.578125 86.915 -51.3029
12000.916016 86.603 -57.0410
12087.879883 86.283 -62.4821
12175.473633 85.963 -67.6272
12263.702148 85.651 -72.4874
12352.570312 85.352 -77.0820
12442.082031 85.072 -81.4371
12532.242188 84.815 -85.5833
12623.055664 84.586 -89.5536
12714.527344 84.388 -93.3817
12806.662109 84.222 -97.1003
12899.464844 84.090 -100.7404
12992.939453 83.995 -104.3304
13087.091797 83.937 -107.8988
13181.925781 83.920 -111.4725
13277.447266 83.945 -115.0796
13373.661133 84.016 -118.7505
13470.572266 84.137 -122.5197
13568.185547 84.311 -126.4290
13666.505859 84.544 -130.5298
13765.539062 84.841 -134.8862
13865.290039 85.205 -139.5773
13965.763672 85.639 -144.7002
14066.965820 86.142 -150.3693
14168.900391 86.710 -156.7125
14271.574219 87.329 -163.8636
14374.992188 87.981 -171.9492
14479.159180 88.639 178.9298
14584.081055 89.268 168.7158
14689.763672 89.829 157.4115
14796.211914 90.284 145.0931
14903.431641 90.594 131.9180
15011.427734 90.730 118.1244
15120.207031 90.672 104.0142
15229.774414 90.415 89.9218
15340.135742 89.972 76.1705
15451.296875 89.366 63.0353
15563.263672 88.628 50.7212
15676.041016 87.796 39.3585
15789.635742 86.909 29.0055
15904.053711 86.004 19.6604
16019.300781 85.115 11.2722
16135.382812 84.268 3.7545
16252.306641 83.487 -2.9984
16370.077148 82.786 -9.0980
16488.701172 82.173 -14.6520
16608.185547 81.654 -19.7573
16728.535156 81.230 -24.5005
16849.757812 80.900 -28.9620
16971.857422 80.663 -33.2234
17094.841797 80.517 -37.3746
17218.718750 80.459 -41.5182
17343.492188 80.481 -45.7662
17469.169922 80.575 -50.2302
17595.757812 80.727 -55.0048
17723.263672 80.922 -60.1523
17851.693359 81.143 -65.6954
17981.054688 81.379 -71.6212
18111.353516 81.619 -77.8948
18242.595703 81.857 -84.4799
18374.789062 82.093 -91.3596
18507.939453 82.327 -98.5519
18642.054688 82.556 -106.1138
18777.142578 82.776 -114.1343
18913.208984 82.977 -122.7158
19050.261719 83.142 -131.9480
19188.308594 83.251 -141.8798
19327.355469 83.285 -152.4980
19467.410156 83.229 -163.7151
19608.478516 83.089 -175.3688
19750.570312 82.894 172.7634
19893.691406 82.702 160.9344
20037.849609 0.000 149.3746
