* Measurement data measured by REW V5.30.4
* Source: Headset (2- CX31993 HIFI AUDIO), MICROPHONE (Master Volume), L, volume: 0.500
* Format: 256k Log Swept Sine, 1 sweep at -12.0 dBFS with no timing reference
* Dated: 06 8, 24 6:11:15 PM
* REW Settings:
*  C-weighting compensation: Off
*  Target level: 75.0 dB
* Note: ; 
* Measurement: Tinhifi T2 DLC L
* Smoothing: 1/12 octave
* Frequency Step: 96 ppo
* Start Frequency: 20.141602 Hz
*
* Freq(Hz) SPL(dB) Phase(degrees)
20.141602 92.891 -129.1989
20.287556 92.902 -129.3656
20.434568 92.918 -129.6092
20.582645 92.938 -129.9079
20.731796 92.961 -130.2434
20.882027 92.984 -130.6026
21.033346 93.008 -130.9772
21.185762 93.033 -131.3624
21.339283 93.058 -131.7556
21.493916 93.083 -132.1553
21.649670 93.109 -132.5601
21.806553 93.134 -132.9692
21.964573 93.159 -133.3810
22.123737 93.185 -133.7942
22.284056 93.209 -134.2070
22.445536 93.234 -134.6174
22.608185 93.258 -135.0237
22.772013 93.281 -135.4241
22.937029 93.304 -135.8175
23.103241 93.327 -136.2029
23.270657 93.349 -136.5800
23.439285 93.371 -136.9492
23.609137 93.393 -137.3113
23.780218 93.415 -137.6677
23.952539 93.437 -138.0202
24.126110 93.459 -138.3709
24.300938 93.482 -138.7220
24.477032 93.505 -139.0753
24.654402 93.528 -139.4326
24.833057 93.551 -139.7950
25.013008 93.574 -140.1632
25.194263 93.597 -140.5370
25.376831 93.619 -140.9157
25.560722 93.642 -141.2984
25.745945 93.663 -141.6834
25.932510 93.684 -142.0692
26.120428 93.705 -142.4545
26.309708 93.726 -142.8381
26.500359 93.747 -143.2194
26.692390 93.768 -143.5983
26.885815 93.788 -143.9749
27.080641 93.809 -144.3500
27.276878 93.829 -144.7240
27.474539 93.849 -145.0974
27.673630 93.868 -145.4700
27.874165 93.886 -145.8414
28.076153 93.903 -146.2104
28.279604 93.917 -146.5757
28.484529 93.930 -146.9359
28.690941 93.942 -147.2900
28.898848 93.952 -147.6376
29.108261 93.961 -147.9795
29.319191 93.970 -148.3172
29.531651 93.979 -148.6534
29.745649 93.989 -148.9912
29.961199 93.999 -149.3336
30.178310 94.011 -149.6833
30.396996 94.022 -150.0417
30.617264 94.035 -150.4088
30.839128 94.048 -150.7832
31.062601 94.061 -151.1624
31.287693 94.074 -151.5431
31.514416 94.087 -151.9220
31.742783 94.101 -152.2960
31.972803 94.114 -152.6633
32.204491 94.127 -153.0230
32.437859 94.139 -153.3753
32.672916 94.151 -153.7213
32.909679 94.163 -154.0624
33.148155 94.173 -154.4001
33.388359 94.182 -154.7358
33.630306 94.190 -155.0705
33.874004 94.197 -155.4047
34.119469 94.203 -155.7389
34.366711 94.209 -156.0738
34.615746 94.215 -156.4098
34.866585 94.221 -156.7477
35.119244 94.228 -157.0881
35.373734 94.235 -157.4316
35.630066 94.242 -157.7784
35.888256 94.250 -158.1282
36.148315 94.258 -158.4802
36.410259 94.265 -158.8334
36.674103 94.272 -159.1860
36.939857 94.278 -159.5365
37.207539 94.283 -159.8829
37.477161 94.288 -160.2241
37.748737 94.292 -160.5592
38.022282 94.295 -160.8884
38.297806 94.298 -161.2127
38.575329 94.301 -161.5337
38.854862 94.303 -161.8535
39.136421 94.304 -162.1738
39.420021 94.306 -162.4964
39.705673 94.307 -162.8223
39.993397 94.308 -163.1524
40.283207 94.309 -163.4873
40.575115 94.310 -163.8267
40.869141 94.312 -164.1695
41.165295 94.314 -164.5131
41.463596 94.315 -164.8536
41.764057 94.315 -165.1869
42.066696 94.314 -165.5101
42.371529 94.311 -165.8232
42.678570 94.308 -166.1297
42.987835 94.305 -166.4354
43.299343 94.301 -166.7458
43.613110 94.298 -167.0634
43.929150 94.296 -167.3859
44.247478 94.294 -167.7072
44.568115 94.294 -168.0199
44.891075 94.296 -168.3184
45.216373 94.298 -168.5996
45.544029 94.298 -168.8613
45.874062 94.291 -169.0993
46.206486 94.277 -169.3057
46.541317 94.253 -169.4724
46.878574 94.223 -169.5982
47.218277 94.191 -169.6979
47.560440 94.166 -169.8051
47.905083 94.151 -169.9654
48.252224 94.148 -170.2205
48.601879 94.156 -170.5897
48.954067 94.168 -171.0600
49.308807 94.180 -171.5903
49.666119 94.190 -172.1276
50.026020 94.196 -172.6260
50.388531 94.199 -173.0608
50.753666 94.201 -173.4315
51.121449 94.200 -173.7542
51.491894 94.197 -174.0500
51.865025 94.190 -174.3363
52.240860 94.181 -174.6232
52.619419 94.171 -174.9145
53.000721 94.161 -175.2106
53.384785 94.151 -175.5099
53.771633 94.143 -175.8089
54.161285 94.135 -176.1033
54.553761 94.127 -176.3904
54.949081 94.118 -176.6701
55.347263 94.109 -176.9453
55.748333 94.098 -177.2202
56.152309 94.087 -177.4971
56.559212 94.076 -177.7764
56.969063 94.064 -178.0561
57.381886 94.053 -178.3341
57.797699 94.041 -178.6091
58.216526 94.030 -178.8810
58.638386 94.018 -179.1504
59.063305 94.006 -179.4180
59.491302 93.992 -179.6846
59.922401 93.977 -179.9507
60.356625 93.962 179.7832
60.793995 93.946 179.5172
61.234531 93.931 179.2514
61.678261 93.915 178.9863
62.125206 93.900 178.7223
62.575390 93.886 178.4602
63.028835 93.872 178.2007
63.485569 93.858 177.9442
63.945610 93.844 177.6901
64.408989 93.830 177.4368
64.875725 93.815 177.1823
65.345840 93.800 176.9250
65.819366 93.785 176.6654
66.296318 93.770 176.4056
66.776726 93.755 176.1487
67.260620 93.740 175.8961
67.748016 93.724 175.6460
68.238945 93.709 175.3933
68.733429 93.693 175.1309
69.231499 93.676 174.8517
69.733177 93.660 174.5511
70.238495 93.645 174.2302
70.747475 93.630 173.9001
71.260139 93.613 173.5822
71.776520 93.595 173.3011
72.296638 93.575 173.0714
72.820526 93.554 172.8894
73.348213 93.533 172.7352
73.879723 93.511 172.5850
74.415085 93.489 172.4222
74.954330 93.467 172.2409
75.497482 93.445 172.0433
76.044571 93.423 171.8348
76.595619 93.402 171.6213
77.150665 93.380 171.4074
77.709732 93.358 171.1952
78.272850 93.335 170.9840
78.840050 93.313 170.7711
79.411354 93.290 170.5539
79.986801 93.268 170.3304
80.566422 93.247 170.1015
81.150238 93.226 169.8707
81.738289 93.206 169.6436
82.330597 93.185 169.4255
82.927200 93.163 169.2183
83.528122 93.142 169.0202
84.133400 93.119 168.8268
84.743065 93.096 168.6337
85.357147 93.072 168.4379
85.975677 93.048 168.2384
86.598694 93.024 168.0363
87.226227 93.000 167.8335
87.858307 92.976 167.6314
88.494965 92.951 167.4308
89.136238 92.926 167.2317
89.782158 92.901 167.0341
90.432755 92.876 166.8387
91.088066 92.850 166.6459
91.748131 92.825 166.4561
92.412979 92.799 166.2688
93.082642 92.773 166.0838
93.757156 92.747 165.9007
94.436562 92.721 165.7196
95.120888 92.694 165.5406
95.810173 92.667 165.3637
96.504456 92.639 165.1889
97.203766 92.611 165.0165
97.908142 92.583 164.8471
98.617622 92.554 164.6807
99.332245 92.526 164.5171
100.052048 92.496 164.3555
100.777069 92.467 164.1952
101.507339 92.436 164.0350
102.242905 92.406 163.8744
102.983795 92.376 163.7135
103.730057 92.346 163.5540
104.481728 92.317 163.3985
105.238846 92.287 163.2501
106.001450 92.258 163.1117
106.769577 92.228 162.9835
107.543274 92.197 162.8623
108.322578 92.167 162.7421
109.107529 92.136 162.6173
109.898170 92.106 162.4856
110.694534 92.078 162.3483
111.496674 92.052 162.2097
112.304626 92.027 162.0758
113.118431 92.002 161.9512
113.938133 91.975 161.8376
114.763779 91.945 161.7328
115.595406 91.911 161.6350
116.433060 91.870 161.5463
117.276779 91.824 161.4712
118.126617 91.774 161.4068
118.982613 91.726 161.3360
119.844810 91.686 161.2297
120.713257 91.659 161.0646
121.587997 91.644 160.8471
122.469070 91.633 160.6121
123.356529 91.618 160.3937
124.250420 91.597 160.2042
125.150787 91.569 160.0394
126.057678 91.535 159.8930
126.971146 91.498 159.7632
127.891228 91.459 159.6487
128.817978 91.421 159.5463
129.751450 91.383 159.4527
130.691681 91.346 159.3643
131.638733 91.309 159.2773
132.592636 91.272 159.1896
133.553452 91.233 159.1017
134.521240 91.193 159.0145
135.496033 91.152 158.9289
136.477890 91.109 158.8460
137.466858 91.064 158.7662
138.462997 91.017 158.6910
139.466354 90.968 158.6263
140.476990 90.918 158.5815
141.494949 90.867 158.5612
142.520279 90.817 158.5607
143.553040 90.768 158.5706
144.593277 90.722 158.5846
145.641052 90.678 158.6059
146.696426 90.636 158.6449
147.759445 90.595 158.7124
148.830170 90.554 158.8143
149.908661 90.513 158.9498
150.994965 90.473 159.1122
152.089142 90.436 159.2940
153.191238 90.403 159.4900
154.301331 90.377 159.6953
155.419464 90.356 159.9035
156.545700 90.340 160.1071
157.680099 90.330 160.2990
158.822708 90.326 160.4724
159.973602 90.326 160.6218
161.132843 90.331 160.7430
162.300476 90.338 160.8328
163.476578 90.347 160.8882
164.661194 90.357 160.9083
165.854401 90.367 160.8941
167.056244 90.375 160.8492
168.266800 90.382 160.7780
169.486130 90.387 160.6855
170.714294 90.388 160.5759
171.951355 90.387 160.4520
173.197388 90.383 160.3156
174.452454 90.377 160.1694
175.716614 90.367 160.0181
176.989929 90.355 159.8673
178.272476 90.341 159.7202
179.564316 90.324 159.5778
180.865509 90.306 159.4408
182.176132 90.286 159.3112
183.496262 90.264 159.1912
184.825958 90.241 159.0815
186.165283 90.217 158.9799
187.514313 90.193 158.8817
188.873123 90.167 158.7840
190.241776 90.141 158.6868
191.620346 90.115 158.5918
193.008911 90.087 158.5002
194.407532 90.059 158.4121
195.816284 90.031 158.3275
197.235245 90.002 158.2463
198.664490 89.973 158.1697
200.104095 89.943 158.0981
201.554138 89.914 158.0319
203.014679 89.885 157.9713
204.485809 89.855 157.9160
205.967590 89.826 157.8655
207.460114 89.796 157.8193
208.963455 89.766 157.7771
210.477692 89.735 157.7389
212.002899 89.705 157.7051
213.539154 89.674 157.6765
215.086548 89.643 157.6528
216.645157 89.613 157.6338
218.215057 89.582 157.6198
219.796341 89.552 157.6115
221.389069 89.522 157.6083
222.993347 89.492 157.6092
224.609253 89.462 157.6125
226.236862 89.431 157.6174
227.876266 89.401 157.6238
229.527557 89.372 157.6331
231.190811 89.343 157.6475
232.866119 89.315 157.6710
234.553558 89.288 157.7081
236.253235 89.263 157.7603
237.965225 89.238 157.8221
239.689621 89.214 157.8835
241.426514 89.191 157.9362
243.175995 89.169 157.9774
244.938141 89.148 158.0088
246.713058 89.129 158.0359
248.500839 89.111 158.0660
250.301575 89.093 158.1047
252.115356 89.077 158.1513
253.942291 89.060 158.1997
255.782455 89.044 158.2420
257.635956 89.029 158.2725
259.502899 89.013 158.2878
261.383362 88.996 158.2883
263.277466 88.979 158.2773
265.185272 88.961 158.2592
267.106903 88.943 158.2374
269.042480 88.924 158.2141
270.992065 88.904 158.1909
272.955780 88.884 158.1690
274.933716 88.863 158.1498
276.925995 88.841 158.1339
278.932709 88.818 158.1216
280.953979 88.795 158.1129
282.989899 88.771 158.1065
285.040558 88.747 158.1005
287.106079 88.723 158.0935
289.186554 88.699 158.0866
291.282104 88.675 158.0827
293.392853 88.650 158.0840
295.518890 88.626 158.0907
297.660339 88.601 158.1021
299.817322 88.577 158.1175
301.989929 88.553 158.1378
304.178284 88.528 158.1639
306.382477 88.504 158.1957
308.602661 88.480 158.2321
310.838928 88.456 158.2711
313.091400 88.432 158.3120
315.360199 88.409 158.3542
317.645416 88.385 158.3969
319.947205 88.362 158.4388
322.265686 88.338 158.4788
324.600952 88.315 158.5172
326.953156 88.292 158.5558
329.322388 88.270 158.5970
331.708801 88.249 158.6423
334.112488 88.228 158.6925
336.533600 88.207 158.7471
338.972260 88.186 158.8039
341.428589 88.166 158.8597
343.902710 88.145 158.9118
346.394775 88.124 158.9594
348.904907 88.104 159.0038
351.433228 88.082 159.0478
353.979858 88.060 159.0943
356.544952 88.038 159.1448
359.128632 88.017 159.1998
361.731018 87.998 159.2591
364.352264 87.979 159.3218
366.992523 87.960 159.3870
369.651917 87.942 159.4536
372.330566 87.923 159.5212
375.028625 87.903 159.5895
377.746246 87.883 159.6582
380.483551 87.863 159.7261
383.240692 87.844 159.7919
386.017822 87.825 159.8557
388.815063 87.808 159.9181
391.632568 87.790 159.9805
394.470490 87.773 160.0443
397.328979 87.756 160.1105
400.208191 87.739 160.1792
403.108276 87.722 160.2501
406.029358 87.704 160.3231
408.971619 87.686 160.3982
411.935181 87.669 160.4758
414.920227 87.652 160.5562
417.926910 87.636 160.6387
420.955383 87.622 160.7220
424.005798 87.607 160.8037
427.078308 87.592 160.8811
430.173096 87.577 160.9533
433.290314 87.562 161.0218
436.430115 87.547 161.0900
439.592682 87.532 161.1617
442.778137 87.518 161.2397
445.986694 87.505 161.3246
449.218506 87.492 161.4149
452.473724 87.479 161.5075
455.752533 87.466 161.5995
459.055115 87.453 161.6892
462.381622 87.441 161.7754
465.732239 87.429 161.8573
469.107117 87.418 161.9345
472.506470 87.407 162.0079
475.930450 87.396 162.0802
479.379242 87.386 162.1549
482.853027 87.375 162.2346
486.351990 87.364 162.3203
489.876282 87.352 162.4113
493.426117 87.340 162.5065
497.001678 87.327 162.6047
500.603149 87.314 162.7046
504.230713 87.301 162.8048
507.884583 87.289 162.9046
511.564911 87.277 163.0034
515.271912 87.265 163.1007
519.005798 87.254 163.1962
522.766724 87.244 163.2901
526.554932 87.234 163.3832
530.370544 87.225 163.4767
534.213806 87.217 163.5714
538.084961 87.209 163.6679
541.984131 87.201 163.7667
545.911560 87.194 163.8678
549.867432 87.187 163.9707
553.851990 87.181 164.0740
557.865417 87.175 164.1764
561.907959 87.170 164.2766
565.979797 87.166 164.3743
570.081116 87.161 164.4703
574.212158 87.156 164.5663
578.373108 87.152 164.6644
582.564209 87.147 164.7668
586.785706 87.142 164.8752
591.037781 87.137 164.9899
595.320679 87.133 165.1092
599.634644 87.129 165.2300
603.979858 87.126 165.3486
608.356567 87.122 165.4627
612.764954 87.119 165.5717
617.205322 87.115 165.6774
621.677856 87.113 165.7835
626.182800 87.110 165.8940
630.720398 87.109 166.0111
635.290833 87.107 166.1346
639.894409 87.105 166.2626
644.531372 87.104 166.3926
649.201904 87.102 166.5220
653.906311 87.101 166.6492
658.644775 87.100 166.7743
663.417603 87.100 166.8991
668.224976 87.102 167.0263
673.067200 87.104 167.1572
677.944519 87.108 167.2904
682.857178 87.112 167.4232
687.805420 87.117 167.5543
692.789551 87.123 167.6841
697.809814 87.129 167.8149
702.866455 87.135 167.9484
707.959717 87.142 168.0850
713.089905 87.150 168.2241
718.257263 87.158 168.3654
723.462036 87.166 168.5087
728.704529 87.174 168.6537
733.985046 87.183 168.7999
739.303833 87.191 168.9473
744.661133 87.200 169.0965
750.057251 87.209 169.2484
755.492493 87.220 169.4035
760.967102 87.231 169.5613
766.481384 87.243 169.7198
772.035645 87.256 169.8773
777.630127 87.270 170.0325
783.265137 87.287 170.1851
788.940979 87.305 170.3351
794.657959 87.325 170.4830
800.416382 87.345 170.6300
806.216553 87.366 170.7782
812.058716 87.388 170.9296
817.943237 87.410 171.0859
823.870361 87.433 171.2477
829.840454 87.457 171.4135
835.853821 87.482 171.5803
841.910767 87.508 171.7438
848.011597 87.536 171.9010
854.156616 87.565 172.0511
860.346191 87.597 172.1955
866.580627 87.629 172.3371
872.860229 87.664 172.4781
879.185364 87.700 172.6190
885.556274 87.736 172.7589
891.973389 87.773 172.8969
898.437012 87.811 173.0325
904.947449 87.849 173.1664
911.505066 87.888 173.2990
918.110229 87.928 173.4300
924.763245 87.970 173.5580
931.464478 88.014 173.6801
938.214233 88.059 173.7933
945.012939 88.106 173.8963
951.860901 88.155 173.9895
958.758484 88.206 174.0749
965.706055 88.258 174.1549
972.703979 88.312 174.2311
979.752563 88.367 174.3035
986.852234 88.422 174.3708
994.003357 88.478 174.4314
1001.206299 88.535 174.4839
1008.461426 88.592 174.5276
1015.769165 88.651 174.5624
1023.129822 88.710 174.5885
1030.543823 88.771 174.6059
1038.011597 88.832 174.6148
1045.533447 88.894 174.6153
1053.109863 88.957 174.6077
1060.741089 89.021 174.5922
1068.427612 89.086 174.5689
1076.169922 89.152 174.5378
1083.968262 89.219 174.4985
1091.823120 89.286 174.4507
1099.734863 89.355 174.3945
1107.703979 89.426 174.3297
1115.730835 89.497 174.2556
1123.815918 89.569 174.1718
1131.959595 89.643 174.0773
1140.162231 89.718 173.9715
1148.424316 89.795 173.8537
1156.746216 89.873 173.7227
1165.128418 89.953 173.5766
1173.571411 90.034 173.4134
1182.075562 90.117 173.2305
1190.641357 90.202 173.0254
1199.269287 90.287 172.7953
1207.959717 90.373 172.5373
1216.713135 90.460 172.2483
1225.529907 90.545 171.9257
1234.410645 90.630 171.5675
1243.355713 90.712 171.1736
1252.365601 90.790 170.7462
1261.440796 90.863 170.2910
1270.581665 90.930 169.8175
1279.788818 90.991 169.3389
1289.062744 91.045 168.8698
1298.403809 91.095 168.4230
1307.812622 91.142 168.0065
1317.289551 91.188 167.6205
1326.835205 91.236 167.2587
1336.449951 91.286 166.9108
1346.134399 91.339 166.5669
1355.889038 91.394 166.2189
1365.714355 91.451 165.8617
1375.610840 91.509 165.4928
1385.579102 91.567 165.1113
1395.619629 91.625 164.7179
1405.732910 91.683 164.3139
1415.919434 91.740 163.9010
1426.179810 91.796 163.4812
1436.514526 91.851 163.0562
1446.924072 91.906 162.6273
1457.409058 91.960 162.1956
1467.970093 92.013 161.7620
1478.607666 92.066 161.3270
1489.322266 92.118 160.8909
1500.114502 92.170 160.4538
1510.984985 92.222 160.0156
1521.934204 92.274 159.5762
1532.962769 92.327 159.1356
1544.071289 92.379 158.6934
1555.260254 92.432 158.2495
1566.530273 92.484 157.8038
1577.881958 92.537 157.3557
1589.315918 92.591 156.9051
1600.832764 92.645 156.4516
1612.433105 92.699 155.9948
1624.117432 92.754 155.5342
1635.886475 92.810 155.0697
1647.740723 92.866 154.6010
1659.680908 92.923 154.1276
1671.707642 92.980 153.6490
1683.821533 93.038 153.1650
1696.023193 93.096 152.6752
1708.313232 93.155 152.1795
1720.692383 93.215 151.6776
1733.161255 93.275 151.1692
1745.720459 93.335 150.6543
1758.370728 93.396 150.1326
1771.112549 93.458 149.6039
1783.946777 93.520 149.0676
1796.874023 93.583 148.5234
1809.894897 93.646 147.9707
1823.010132 93.710 147.4092
1836.220459 93.774 146.8387
1849.526489 93.839 146.2587
1862.928955 93.905 145.6691
1876.428467 93.971 145.0697
1890.025879 94.038 144.4602
1903.721802 94.105 143.8402
1917.516968 94.172 143.2094
1931.412109 94.240 142.5674
1945.407959 94.308 141.9140
1959.505127 94.377 141.2490
1973.704468 94.446 140.5721
1988.006714 94.515 139.8829
2002.412598 94.584 139.1812
2016.922852 94.654 138.4666
2031.538330 94.723 137.7389
2046.259644 94.793 136.9978
2061.087646 94.863 136.2430
2076.023193 94.932 135.4744
2091.066895 95.002 134.6917
2106.219727 95.072 133.8946
2121.482178 95.141 133.0829
2136.855225 95.210 132.2564
2152.339844 95.279 131.4149
2167.936523 95.348 130.5583
2183.646240 95.416 129.6866
2199.469727 95.483 128.7995
2215.407959 95.550 127.8969
2231.461670 95.616 126.9788
2247.631836 95.681 126.0451
2263.919189 95.745 125.0959
2280.324463 95.808 124.1312
2296.848633 95.870 123.1509
2313.492432 95.931 122.1552
2330.256836 95.990 121.1445
2347.142822 96.048 120.1189
2364.151123 96.104 119.0789
2381.282715 96.158 118.0248
2398.538574 96.210 116.9573
2415.919434 96.260 115.8770
2433.426270 96.308 114.7846
2451.059814 96.353 113.6814
2468.821289 96.396 112.5683
2486.711426 96.436 111.4470
2504.731201 96.474 110.3194
2522.881592 96.508 109.1876
2541.163330 96.539 108.0541
2559.577637 96.568 106.9221
2578.125488 96.593 105.7951
2596.807617 96.615 104.6773
2615.625244 96.635 103.5732
2634.579102 96.653 102.4871
2653.670410 96.670 101.4233
2672.899902 96.687 100.3849
2692.268799 96.705 99.3731
2711.778076 96.728 98.3860
2731.428711 96.755 97.4173
2751.221680 96.789 96.4561
2771.158203 96.830 95.4871
2791.239258 96.880 94.4915
2811.465820 96.936 93.4508
2831.838867 96.997 92.3492
2852.359619 97.059 91.1775
2873.029053 97.120 89.9337
2893.848145 97.177 88.6228
2914.818115 97.228 87.2558
2935.940186 97.271 85.8465
2957.215332 97.306 84.4095
2978.644531 97.332 82.9579
3000.229004 97.351 81.5025
3021.969971 97.363 80.0515
3043.868408 97.368 78.6107
3065.925537 97.369 77.1835
3088.142578 97.366 75.7720
3110.520508 97.359 74.3769
3133.060547 97.350 72.9981
3155.763916 97.339 71.6349
3178.631836 97.326 70.2863
3201.665527 97.312 68.9508
3224.866211 97.297 67.6274
3248.234863 97.281 66.3148
3271.772949 97.265 65.0119
3295.481445 97.249 63.7178
3319.361816 97.232 62.4312
3343.415283 97.216 61.1512
3367.643066 97.200 59.8764
3392.046387 97.183 58.6060
3416.626465 97.168 57.3389
3441.384766 97.152 56.0741
3466.322510 97.136 54.8109
3491.440918 97.121 53.5489
3516.741455 97.106 52.2881
3542.225098 97.091 51.0288
3567.893555 97.076 49.7717
3593.748047 97.062 48.5174
3619.789795 97.048 47.2664
3646.020264 97.035 46.0186
3672.440918 97.023 44.7735
3699.052979 97.012 43.5297
3725.857910 97.003 42.2853
3752.856934 96.995 41.0387
3780.051758 96.990 39.7878
3807.443604 96.985 38.5316
3835.033936 96.982 37.2691
3862.824219 96.981 36.0001
3890.815918 96.982 34.7242
3919.010254 96.984 33.4410
3947.408936 96.988 32.1494
3976.013428 96.995 30.8477
4004.825195 97.004 29.5335
4033.845703 97.015 28.2040
4063.076660 97.030 26.8558
4092.519287 97.046 25.4852
4122.175293 97.066 24.0889
4152.046387 97.087 22.6632
4182.133789 97.110 21.2056
4212.439453 97.134 19.7134
4242.964355 97.160 18.1841
4273.710449 97.186 16.6157
4304.679688 97.212 15.0065
4335.873047 97.237 13.3547
4367.292480 97.261 11.6597
4398.939453 97.282 9.9211
4430.815918 97.301 8.1398
4462.923340 97.316 6.3175
4495.263672 97.326 4.4579
4527.838379 97.331 2.5653
4560.648926 97.330 0.6458
4593.697266 97.324 -1.2944
4626.984863 97.311 -3.2482
4660.513672 97.294 -5.2097
4694.285645 97.271 -7.1744
4728.302246 97.245 -9.1404
4762.565430 97.217 -11.1082
4797.077148 97.186 -13.0809
4831.838867 97.153 -15.0632
4866.852539 97.119 -17.0601
4902.119629 97.084 -19.0763
4937.642578 97.045 -21.1152
4973.422852 97.004 -23.1783
5009.462402 96.958 -25.2656
5045.763184 96.907 -27.3752
5082.326660 96.851 -29.5042
5119.155273 96.789 -31.6481
5156.250977 96.720 -33.8022
5193.615234 96.644 -35.9608
5231.250488 96.561 -38.1180
5269.158203 96.471 -40.2678
5307.340820 96.373 -42.4039
5345.799805 96.270 -44.5204
5384.537598 96.159 -46.6116
5423.556152 96.044 -48.6726
5462.857422 95.923 -50.6991
5502.443359 95.798 -52.6871
5542.316406 95.670 -54.6337
5582.478516 95.539 -56.5363
5622.931641 95.407 -58.3936
5663.677734 95.275 -60.2051
5704.719238 95.143 -61.9716
5746.058105 95.012 -63.6948
5787.696289 94.884 -65.3777
5829.636230 94.759 -67.0237
5871.880371 94.638 -68.6366
5914.430664 94.520 -70.2196
5957.289062 94.407 -71.7759
6000.458008 94.298 -73.3079
6043.939941 94.194 -74.8177
6087.736816 94.095 -76.3074
6131.851074 94.002 -77.7786
6176.285156 93.915 -79.2333
6221.041016 93.835 -80.6738
6266.121094 93.762 -82.1030
6311.527832 93.696 -83.5238
6357.263672 93.639 -84.9399
6403.331055 93.591 -86.3558
6449.732422 93.552 -87.7771
6496.469727 93.524 -89.2112
6543.545898 93.506 -90.6666
6590.962891 93.499 -92.1530
6638.723633 93.503 -93.6798
6686.830566 93.517 -95.2555
6735.286133 93.541 -96.8862
6784.092773 93.574 -98.5763
6833.252930 93.616 -100.3297
6882.769531 93.667 -102.1508
6932.645020 93.727 -104.0459
6982.881836 93.796 -106.0234
7033.482910 93.874 -108.0934
7084.450195 93.960 -110.2673
7135.787109 94.055 -112.5579
7187.496094 94.157 -114.9783
7239.579590 94.264 -117.5421
7292.040527 94.374 -120.2617
7344.881836 94.485 -123.1484
7398.105957 94.595 -126.2120
7451.715820 94.700 -129.4600
7505.713867 94.797 -132.8972
7560.103516 94.883 -136.5264
7614.887207 94.952 -140.3469
7670.067871 95.003 -144.3545
7725.648438 95.030 -148.5414
7781.631836 95.030 -152.8960
7838.020508 94.998 -157.4031
7894.817871 94.931 -162.0437
7952.026855 94.826 -166.7949
8009.650391 94.678 -171.6295
8067.691406 94.485 -176.5150
8126.153320 94.244 178.5857
8185.038574 93.953 173.7150
8244.350586 93.611 168.9193
8304.092773 93.219 164.2473
8364.267578 92.778 159.7495
8424.878906 92.291 155.4759
8485.928711 91.763 151.4733
8547.420898 91.200 147.7822
8609.359375 90.608 144.4332
8671.746094 89.998 141.4443
8734.584961 89.376 138.8192
8797.878906 88.754 136.5473
8861.631836 88.137 134.6061
8925.846680 87.533 132.9643
8990.527344 86.947 131.5862
9055.676758 86.382 130.4344
9121.297852 85.842 129.4730
9187.394531 85.326 128.6695
9253.969727 84.835 127.9959
9321.027344 84.368 127.4291
9388.571289 83.923 126.9509
9456.604492 83.500 126.5473
9525.130859 83.097 126.2083
9594.154297 82.711 125.9261
9663.677734 82.343 125.6957
9733.705078 81.990 125.5125
9804.239258 81.652 125.3739
9875.285156 81.328 125.2777
9946.845703 81.017 125.2234
10018.924805 80.720 125.2111
10091.526367 80.435 125.2421
10164.653320 80.161 125.3181
10238.310547 79.900 125.4415
10312.501953 79.650 125.6155
10387.230469 79.412 125.8461
10462.500977 79.184 126.1417
10538.316406 78.968 126.5142
10614.681641 78.763 126.9777
10691.599609 78.572 127.5491
10769.075195 78.396 128.2489
10847.112305 78.238 129.1010
10925.714844 78.102 130.1331
11004.886719 77.995 131.3757
11084.632812 77.925 132.8575
11164.957031 77.903 134.5990
11245.863281 77.945 136.5989
11327.355469 78.064 138.8205
11409.438477 78.277 141.1744
11492.116211 78.595 143.5110
11575.392578 79.018 145.6282
11659.272461 79.540 147.3028
11743.760742 80.140 148.3336
11828.861328 80.794 148.5846
11914.578125 81.472 148.0062
12000.916016 82.146 146.6345
12087.879883 82.797 144.5712
12175.473633 83.411 141.9580
12263.702148 83.983 138.9497
12352.570312 84.517 135.6919
12442.082031 85.023 132.3045
12532.242188 85.514 128.8708
12623.055664 86.007 125.4324
12714.527344 86.518 121.9869
12806.662109 87.064 118.4903
12899.464844 87.656 114.8612
12992.939453 88.299 110.9869
13087.091797 88.995 106.7319
13181.925781 89.734 101.9503
13277.447266 90.500 96.4999
13373.661133 91.269 90.2597
13470.572266 92.010 83.1470
13568.185547 92.688 75.1326
13666.505859 93.263 66.2552
13765.539062 93.702 56.6304
13865.290039 93.972 46.4525
13965.763672 94.054 35.9838
14066.965820 93.940 25.5267
14168.900391 93.638 15.3843
14271.574219 93.169 5.8220
14374.992188 92.562 -2.9583
14479.159180 91.854 -10.8268
14584.081055 91.083 -17.7245
14689.763672 90.285 -23.6544
14796.211914 89.495 -28.6699
14903.431641 88.741 -32.8622
15011.427734 88.045 -36.3447
15120.207031 87.424 -39.2422
15229.774414 86.890 -41.6797
15340.135742 86.448 -43.7771
15451.296875 86.101 -45.6475
15563.263672 85.851 -47.3992
15676.041016 85.696 -49.1393
15789.635742 85.633 -50.9786
15904.053711 85.655 -53.0347
16019.300781 85.751 -55.4294
16135.382812 85.907 -58.2783
16252.306641 86.099 -61.6697
16370.077148 86.299 -65.6364
16488.701172 86.477 -70.1199
16608.185547 86.611 -74.9393
16728.535156 86.695 -79.7855
16849.757812 86.762 -84.2807
16971.857422 86.884 -88.1575
17094.841797 87.155 -91.5305
17218.718750 87.628 -95.0350
17343.492188 88.271 -99.5696
17469.169922 88.981 -105.8132
17595.757812 89.632 -113.9656
17723.263672 90.117 -123.8103
17851.693359 90.365 -134.8779
17981.054688 90.336 -146.5822
18111.353516 90.029 -158.3320
18242.595703 89.468 -169.6263
18374.789062 88.696 179.8933
18507.939453 87.766 170.4363
18642.054688 86.731 162.0795
18777.142578 85.644 154.7920
18913.208984 84.550 148.4583
19050.261719 83.489 142.9023
19188.308594 82.491 137.9164
19327.355469 81.575 133.2874
19467.410156 80.754 128.8191
19608.478516 80.042 124.3447
19750.570312 79.460 119.7300
19893.691406 79.039 114.8701
20037.849609 0.000 109.6887
