* Measurement data measured by REW V5.30.4
* Source: Headset (2- CX31993 HIFI AUDIO), MICROPHONE (Master Volume), L, volume: 0.500
* Format: 256k Log Swept Sine, 1 sweep at -12.0 dBFS with no timing reference
* Dated: 06 8, 24 6:12:06 PM
* REW Settings:
*  C-weighting compensation: Off
*  Target level: 75.0 dB
* Note: ; 
* Measurement: Tinhifi T2 DLC R
* Smoothing: 1/12 octave
* Frequency Step: 96 ppo
* Start Frequency: 20.141602 Hz
*
* Freq(Hz) SPL(dB) Phase(degrees)
20.141602 93.690 -132.7738
20.287556 93.700 -132.9343
20.434568 93.715 -133.1696
20.582645 93.732 -133.4590
20.731796 93.752 -133.7848
20.882027 93.772 -134.1344
21.033346 93.793 -134.4993
21.185762 93.814 -134.8747
21.339283 93.835 -135.2575
21.493916 93.856 -135.6458
21.649670 93.877 -136.0383
21.806553 93.897 -136.4340
21.964573 93.918 -136.8318
22.123737 93.939 -137.2308
22.284056 93.960 -137.6299
22.445536 93.981 -138.0283
22.608185 94.002 -138.4250
22.772013 94.024 -138.8192
22.937029 94.046 -139.2103
23.103241 94.067 -139.5978
23.270657 94.089 -139.9817
23.439285 94.111 -140.3619
23.609137 94.133 -140.7389
23.780218 94.155 -141.1131
23.952539 94.177 -141.4853
24.126110 94.199 -141.8565
24.300938 94.221 -142.2274
24.477032 94.242 -142.5989
24.654402 94.262 -142.9716
24.833057 94.282 -143.3459
25.013008 94.301 -143.7218
25.194263 94.319 -144.0991
25.376831 94.335 -144.4770
25.560722 94.351 -144.8548
25.745945 94.365 -145.2316
25.932510 94.379 -145.6062
26.120428 94.391 -145.9780
26.309708 94.404 -146.3463
26.500359 94.416 -146.7109
26.692390 94.428 -147.0718
26.885815 94.440 -147.4295
27.080641 94.453 -147.7846
27.276878 94.466 -148.1378
27.474539 94.479 -148.4897
27.673630 94.492 -148.8411
27.874165 94.506 -149.1920
28.076153 94.519 -149.5427
28.279604 94.532 -149.8928
28.484529 94.544 -150.2419
28.690941 94.555 -150.5895
28.898848 94.566 -150.9352
29.108261 94.577 -151.2790
29.319191 94.586 -151.6210
29.531651 94.595 -151.9616
29.745649 94.604 -152.3017
29.961199 94.613 -152.6422
30.178310 94.621 -152.9840
30.396996 94.629 -153.3276
30.617264 94.637 -153.6734
30.839128 94.645 -154.0213
31.062601 94.652 -154.3707
31.287693 94.660 -154.7209
31.514416 94.667 -155.0713
31.742783 94.674 -155.4213
31.972803 94.681 -155.7708
32.204491 94.688 -156.1198
32.437859 94.695 -156.4687
32.672916 94.703 -156.8179
32.909679 94.710 -157.1672
33.148155 94.717 -157.5163
33.388359 94.723 -157.8641
33.630306 94.729 -158.2091
33.874004 94.735 -158.5498
34.119469 94.740 -158.8846
34.366711 94.744 -159.2127
34.615746 94.748 -159.5340
34.866585 94.752 -159.8490
35.119244 94.756 -160.1593
35.373734 94.759 -160.4667
35.630066 94.762 -160.7735
35.888256 94.765 -161.0815
36.148315 94.766 -161.3923
36.410259 94.768 -161.7067
36.674103 94.768 -162.0248
36.939857 94.768 -162.3458
37.207539 94.767 -162.6682
37.477161 94.766 -162.9903
37.748737 94.766 -163.3105
38.022282 94.766 -163.6278
38.297806 94.766 -163.9418
38.575329 94.767 -164.2533
38.854862 94.767 -164.5631
39.136421 94.768 -164.8725
39.420021 94.768 -165.1819
39.705673 94.767 -165.4916
39.993397 94.766 -165.8008
40.283207 94.763 -166.1082
40.575115 94.760 -166.4120
40.869141 94.757 -166.7101
41.165295 94.755 -167.0004
41.463596 94.752 -167.2812
41.764057 94.751 -167.5524
42.066696 94.750 -167.8162
42.371529 94.750 -168.0772
42.678570 94.749 -168.3418
42.987835 94.748 -168.6161
43.299343 94.746 -168.9037
43.613110 94.742 -169.2034
43.929150 94.736 -169.5100
44.247478 94.729 -169.8153
44.568115 94.722 -170.1112
44.891075 94.715 -170.3918
45.216373 94.707 -170.6525
45.544029 94.698 -170.8877
45.874062 94.683 -171.0893
46.206486 94.663 -171.2477
46.541317 94.637 -171.3576
46.878574 94.609 -171.4272
47.218277 94.583 -171.4847
47.560440 94.565 -171.5770
47.905083 94.557 -171.7564
48.252224 94.558 -172.0615
48.601879 94.564 -172.4997
48.954067 94.571 -173.0425
49.308807 94.576 -173.6350
49.666119 94.578 -174.2157
50.026020 94.579 -174.7368
50.388531 94.580 -175.1767
50.753666 94.583 -175.5401
51.121449 94.585 -175.8483
51.491894 94.586 -176.1271
51.865025 94.584 -176.3965
52.240860 94.578 -176.6682
52.619419 94.570 -176.9462
53.000721 94.561 -177.2296
53.384785 94.553 -177.5148
53.771633 94.543 -177.7974
54.161285 94.532 -178.0737
54.553761 94.518 -178.3418
54.949081 94.499 -178.6009
55.347263 94.475 -178.8499
55.748333 94.447 -179.0860
56.152309 94.419 -179.3047
56.559212 94.394 -179.5037
56.969063 94.377 -179.6861
57.381886 94.368 -179.8622
57.797699 94.368 179.9517
58.216526 94.373 179.7386
58.638386 94.378 179.4853
59.063305 94.379 179.1868
59.491302 94.373 178.8491
59.922401 94.360 178.4896
60.356625 94.341 178.1326
60.793995 94.319 177.8006
61.234531 94.298 177.5052
61.678261 94.280 177.2435
62.125206 94.262 177.0037
62.575390 94.243 176.7763
63.028835 94.221 176.5595
63.485569 94.197 176.3542
63.945610 94.175 176.1546
64.408989 94.157 175.9457
64.875725 94.143 175.7144
65.345840 94.132 175.4622
65.819366 94.119 175.2067
66.296318 94.104 174.9672
66.776726 94.087 174.7493
67.260620 94.071 174.5422
67.748016 94.055 174.3316
68.238945 94.038 174.1123
68.733429 94.017 173.8896
69.231499 93.994 173.6710
69.733177 93.967 173.4592
70.238495 93.937 173.2529
70.747475 93.906 173.0499
71.260139 93.875 172.8470
71.776520 93.849 172.6386
72.296638 93.828 172.4185
72.820526 93.812 172.1864
73.348213 93.800 171.9495
73.879723 93.788 171.7168
74.415085 93.777 171.4911
74.954330 93.765 171.2682
75.497482 93.752 171.0424
76.044571 93.738 170.8137
76.595619 93.722 170.5881
77.150665 93.704 170.3724
77.709732 93.683 170.1692
78.272850 93.660 169.9758
78.840050 93.635 169.7858
79.411354 93.609 169.5938
79.986801 93.582 169.3989
80.566422 93.556 169.2050
81.150238 93.532 169.0170
81.738289 93.508 168.8367
82.330597 93.485 168.6619
82.927200 93.462 168.4886
83.528122 93.439 168.3141
84.133400 93.415 168.1372
84.743065 93.392 167.9585
85.357147 93.369 167.7799
85.975677 93.346 167.6037
86.598694 93.322 167.4301
87.226227 93.299 167.2568
87.858307 93.275 167.0817
88.494965 93.250 166.9050
89.136238 93.225 166.7285
89.782158 93.200 166.5534
90.432755 93.175 166.3802
91.088066 93.149 166.2091
91.748131 93.122 166.0410
92.412979 93.095 165.8757
93.082642 93.068 165.7124
93.757156 93.040 165.5501
94.436562 93.013 165.3891
95.120888 92.986 165.2302
95.810173 92.959 165.0740
96.504456 92.931 164.9203
97.203766 92.904 164.7679
97.908142 92.876 164.6155
98.617622 92.847 164.4625
99.332245 92.819 164.3096
100.052048 92.790 164.1584
100.777069 92.762 164.0107
101.507339 92.734 163.8674
102.242905 92.705 163.7285
102.983795 92.676 163.5920
103.730057 92.645 163.4551
104.481728 92.614 163.3149
105.238846 92.583 163.1710
106.001450 92.553 163.0260
106.769577 92.523 162.8859
107.543274 92.493 162.7556
108.322578 92.465 162.6369
109.107529 92.437 162.5282
109.898170 92.409 162.4252
110.694534 92.380 162.3212
111.496674 92.349 162.2078
112.304626 92.317 162.0809
113.118431 92.283 161.9468
113.938133 92.248 161.8182
114.763779 92.209 161.7054
115.595406 92.167 161.6105
116.433060 92.126 161.5349
117.276779 92.091 161.4886
118.126617 92.069 161.4865
118.982613 92.061 161.5248
119.844810 92.063 161.5615
120.713257 92.064 161.5264
121.587997 92.051 161.3674
122.469070 92.021 161.0868
123.356529 91.977 160.7348
124.250420 91.928 160.3768
125.150787 91.878 160.0581
126.057678 91.826 159.7867
126.971146 91.767 159.5427
127.891228 91.697 159.3046
128.817978 91.615 159.0695
129.751450 91.525 158.8581
130.691681 91.435 158.7067
131.638733 91.359 158.6423
132.592636 91.306 158.6518
133.553452 91.278 158.6754
134.521240 91.273 158.6429
135.496033 91.282 158.5222
136.477890 91.299 158.3358
137.466858 91.319 158.1392
138.462997 91.337 157.9935
139.466354 91.352 157.9460
140.476990 91.358 158.0176
141.494949 91.351 158.1938
142.520279 91.330 158.4258
143.553040 91.293 158.6519
144.593277 91.246 158.8244
145.641052 91.193 158.9239
146.696426 91.139 158.9561
147.759445 91.086 158.9407
148.830170 91.036 158.9009
149.908661 90.989 158.8560
150.994965 90.945 158.8183
152.089142 90.902 158.7940
153.191238 90.860 158.7849
154.301331 90.817 158.7892
155.419464 90.774 158.8042
156.545700 90.730 158.8300
157.680099 90.687 158.8705
158.822708 90.643 158.9305
159.973602 90.600 159.0116
161.132843 90.556 159.1153
162.300476 90.513 159.2443
163.476578 90.470 159.3997
164.661194 90.429 159.5785
165.854401 90.390 159.7779
167.056244 90.355 159.9952
168.266800 90.325 160.2258
169.486130 90.301 160.4634
170.714294 90.285 160.7025
171.951355 90.277 160.9362
173.197388 90.277 161.1552
174.452454 90.285 161.3492
175.716614 90.298 161.5092
176.989929 90.315 161.6270
178.272476 90.332 161.6973
179.564316 90.349 161.7182
180.865509 90.363 161.6916
182.176132 90.373 161.6230
183.496262 90.380 161.5201
184.825958 90.382 161.3911
186.165283 90.380 161.2440
187.514313 90.374 161.0865
188.873123 90.363 160.9254
190.241776 90.348 160.7659
191.620346 90.329 160.6127
193.008911 90.308 160.4698
194.407532 90.285 160.3384
195.816284 90.261 160.2181
197.235245 90.236 160.1102
198.664490 90.210 160.0178
200.104095 90.182 159.9404
201.554138 90.153 159.8745
203.014679 90.123 159.8166
204.485809 90.093 159.7661
205.967590 90.063 159.7238
207.460114 90.032 159.6912
208.963455 90.002 159.6693
210.477692 89.970 159.6583
212.002899 89.939 159.6569
213.539154 89.908 159.6627
215.086548 89.877 159.6729
216.645157 89.846 159.6857
218.215057 89.816 159.7004
219.796341 89.786 159.7156
221.389069 89.757 159.7303
222.993347 89.728 159.7456
224.609253 89.698 159.7644
226.236862 89.669 159.7888
227.876266 89.638 159.8168
229.527557 89.608 159.8443
231.190811 89.578 159.8699
232.866119 89.550 159.8965
234.553558 89.524 159.9306
236.253235 89.501 159.9792
237.965225 89.480 160.0475
239.689621 89.459 160.1360
241.426514 89.437 160.2415
243.175995 89.414 160.3612
244.938141 89.391 160.4927
246.713058 89.368 160.6278
248.500839 89.345 160.7496
250.301575 89.322 160.8422
252.115356 89.301 160.9044
253.942291 89.284 160.9452
255.782455 89.271 160.9757
257.635956 89.261 161.0048
259.502899 89.252 161.0369
261.383362 89.244 161.0728
263.277466 89.234 161.1088
265.185272 89.223 161.1387
267.106903 89.210 161.1583
269.042480 89.194 161.1689
270.992065 89.177 161.1755
272.955780 89.159 161.1839
274.933716 89.140 161.1969
276.925995 89.120 161.2148
278.932709 89.099 161.2357
280.953979 89.078 161.2580
282.989899 89.057 161.2813
285.040558 89.035 161.3032
287.106079 89.012 161.3201
289.186554 88.990 161.3311
291.282104 88.969 161.3405
293.392853 88.948 161.3534
295.518890 88.927 161.3719
297.660339 88.907 161.3960
299.817322 88.886 161.4249
301.989929 88.866 161.4571
304.178284 88.845 161.4918
306.382477 88.824 161.5295
308.602661 88.802 161.5714
310.838928 88.780 161.6174
313.091400 88.757 161.6660
315.360199 88.734 161.7155
317.645416 88.710 161.7662
319.947205 88.686 161.8200
322.265686 88.663 161.8784
324.600952 88.640 161.9419
326.953156 88.618 162.0092
329.322388 88.596 162.0789
331.708801 88.574 162.1494
334.112488 88.553 162.2204
336.533600 88.531 162.2920
338.972260 88.509 162.3646
341.428589 88.488 162.4388
343.902710 88.466 162.5156
346.394775 88.445 162.5958
348.904907 88.424 162.6793
351.433228 88.404 162.7646
353.979858 88.384 162.8504
356.544952 88.365 162.9357
359.128632 88.346 163.0200
361.731018 88.327 163.1032
364.352264 88.308 163.1858
366.992523 88.288 163.2687
369.651917 88.269 163.3541
372.330566 88.250 163.4439
375.028625 88.231 163.5396
377.746246 88.213 163.6405
380.483551 88.196 163.7439
383.240692 88.180 163.8467
386.017822 88.163 163.9468
388.815063 88.147 164.0435
391.632568 88.130 164.1367
394.470490 88.112 164.2271
397.328979 88.094 164.3160
400.208191 88.077 164.4055
403.108276 88.062 164.4976
406.029358 88.047 164.5938
408.971619 88.033 164.6943
411.935181 88.019 164.7980
414.920227 88.006 164.9033
417.926910 87.992 165.0086
420.955383 87.979 165.1128
424.005798 87.965 165.2151
427.078308 87.951 165.3156
430.173096 87.938 165.4161
433.290314 87.925 165.5187
436.430115 87.914 165.6248
439.592682 87.902 165.7344
442.778137 87.890 165.8464
445.986694 87.877 165.9585
449.218506 87.864 166.0693
452.473724 87.850 166.1790
455.752533 87.837 166.2886
459.055115 87.823 166.3999
462.381622 87.810 166.5140
465.732239 87.796 166.6313
469.107117 87.783 166.7521
472.506470 87.769 166.8763
475.930450 87.756 167.0029
479.379242 87.744 167.1304
482.853027 87.732 167.2560
486.351990 87.721 167.3776
489.876282 87.711 167.4941
493.426117 87.701 167.6062
497.001678 87.692 167.7158
500.603149 87.684 167.8259
504.230713 87.675 167.9397
507.884583 87.667 168.0594
511.564911 87.658 168.1857
515.271912 87.650 168.3174
519.005798 87.642 168.4521
522.766724 87.634 168.5872
526.554932 87.627 168.7201
530.370544 87.619 168.8498
534.213806 87.611 168.9769
538.084961 87.603 169.1030
541.984131 87.595 169.2305
545.911560 87.588 169.3611
549.867432 87.583 169.4956
553.851990 87.578 169.6331
557.865417 87.573 169.7716
561.907959 87.567 169.9098
565.979797 87.561 170.0474
570.081116 87.555 170.1851
574.212158 87.549 170.3239
578.373108 87.544 170.4652
582.564209 87.540 170.6101
586.785706 87.537 170.7587
591.037781 87.535 170.9092
595.320679 87.532 171.0593
599.634644 87.529 171.2068
603.979858 87.526 171.3523
608.356567 87.524 171.4971
612.764954 87.522 171.6436
617.205322 87.520 171.7934
621.677856 87.520 171.9466
626.182800 87.519 172.1027
630.720398 87.518 172.2606
635.290833 87.517 172.4199
639.894409 87.516 172.5807
644.531372 87.515 172.7438
649.201904 87.514 172.9094
653.906311 87.515 173.0770
658.644775 87.517 173.2452
663.417603 87.518 173.4131
668.224976 87.520 173.5799
673.067200 87.523 173.7465
677.944519 87.525 173.9144
682.857178 87.528 174.0857
687.805420 87.532 174.2619
692.789551 87.538 174.4431
697.809814 87.544 174.6276
702.866455 87.550 174.8124
707.959717 87.557 174.9954
713.089905 87.565 175.1756
718.257263 87.573 175.3539
723.462036 87.583 175.5322
728.704529 87.593 175.7133
733.985046 87.603 175.8994
739.303833 87.614 176.0917
744.661133 87.625 176.2893
750.057251 87.636 176.4905
755.492493 87.647 176.6933
760.967102 87.660 176.8959
766.481384 87.674 177.0976
772.035645 87.689 177.2979
777.630127 87.705 177.4966
783.265137 87.722 177.6941
788.940979 87.741 177.8914
794.657959 87.760 178.0904
800.416382 87.780 178.2924
806.216553 87.800 178.4975
812.058716 87.822 178.7047
817.943237 87.845 178.9125
823.870361 87.868 179.1197
829.840454 87.893 179.3261
835.853821 87.918 179.5319
841.910767 87.945 179.7369
848.011597 87.974 179.9409
854.156616 88.003 -179.8562
860.346191 88.034 -179.6546
866.580627 88.065 -179.4547
872.860229 88.098 -179.2571
879.185364 88.132 -179.0617
885.556274 88.167 -178.8678
891.973389 88.204 -178.6747
898.437012 88.241 -178.4830
904.947449 88.280 -178.2943
911.505066 88.320 -178.1105
918.110229 88.362 -177.9331
924.763245 88.406 -177.7627
931.464478 88.450 -177.5990
938.214233 88.497 -177.4411
945.012939 88.544 -177.2875
951.860901 88.593 -177.1379
958.758484 88.643 -176.9924
965.706055 88.694 -176.8524
972.703979 88.746 -176.7196
979.752563 88.800 -176.5951
986.852234 88.854 -176.4788
994.003357 88.909 -176.3702
1001.206299 88.966 -176.2692
1008.461426 89.023 -176.1758
1015.769165 89.081 -176.0905
1023.129822 89.140 -176.0136
1030.543823 89.199 -175.9454
1038.011597 89.260 -175.8858
1045.533447 89.320 -175.8346
1053.109863 89.382 -175.7919
1060.741089 89.444 -175.7578
1068.427612 89.506 -175.7318
1076.169922 89.569 -175.7140
1083.968262 89.632 -175.7042
1091.823120 89.696 -175.7022
1099.734863 89.761 -175.7078
1107.703979 89.826 -175.7207
1115.730835 89.891 -175.7405
1123.815918 89.956 -175.7672
1131.959595 90.022 -175.8006
1140.162231 90.089 -175.8405
1148.424316 90.156 -175.8866
1156.746216 90.224 -175.9385
1165.128418 90.292 -175.9960
1173.571411 90.361 -176.0588
1182.075562 90.431 -176.1269
1190.641357 90.502 -176.2003
1199.269287 90.574 -176.2794
1207.959717 90.648 -176.3648
1216.713135 90.724 -176.4578
1225.529907 90.801 -176.5607
1234.410645 90.881 -176.6763
1243.355713 90.963 -176.8089
1252.365601 91.047 -176.9635
1261.440796 91.133 -177.1458
1270.581665 91.221 -177.3607
1279.788818 91.308 -177.6117
1289.062744 91.394 -177.8997
1298.403809 91.477 -178.2229
1307.812622 91.557 -178.5774
1317.289551 91.633 -178.9568
1326.835205 91.704 -179.3534
1336.449951 91.770 -179.7579
1346.134399 91.831 179.8389
1355.889038 91.887 179.4453
1365.714355 91.941 179.0668
1375.610840 91.993 178.7054
1385.579102 92.045 178.3598
1395.619629 92.097 178.0263
1405.732910 92.149 177.7001
1415.919434 92.202 177.3768
1426.179810 92.256 177.0529
1436.514526 92.310 176.7261
1446.924072 92.364 176.3955
1457.409058 92.419 176.0610
1467.970093 92.473 175.7230
1478.607666 92.527 175.3825
1489.322266 92.580 175.0400
1500.114502 92.634 174.6962
1510.984985 92.687 174.3514
1521.934204 92.740 174.0058
1532.962769 92.793 173.6595
1544.071289 92.846 173.3127
1555.260254 92.899 172.9652
1566.530273 92.953 172.6172
1577.881958 93.006 172.2684
1589.315918 93.061 171.9186
1600.832764 93.115 171.5675
1612.433105 93.170 171.2146
1624.117432 93.226 170.8594
1635.886475 93.282 170.5015
1647.740723 93.339 170.1404
1659.680908 93.397 169.7757
1671.707642 93.455 169.4069
1683.821533 93.514 169.0336
1696.023193 93.573 168.6553
1708.313232 93.633 168.2719
1720.692383 93.693 167.8830
1733.161255 93.754 167.4886
1745.720459 93.816 167.0886
1758.370728 93.878 166.6829
1771.112549 93.941 166.2711
1783.946777 94.005 165.8527
1796.874023 94.069 165.4276
1809.894897 94.134 164.9951
1823.010132 94.199 164.5551
1836.220459 94.266 164.1072
1849.526489 94.333 163.6509
1862.928955 94.400 163.1859
1876.428467 94.468 162.7117
1890.025879 94.537 162.2277
1903.721802 94.607 161.7335
1917.516968 94.677 161.2285
1931.412109 94.747 160.7126
1945.407959 94.818 160.1857
1959.505127 94.889 159.6475
1973.704468 94.960 159.0980
1988.006714 95.032 158.5368
2002.412598 95.104 157.9639
2016.922852 95.176 157.3787
2031.538330 95.249 156.7809
2046.259644 95.321 156.1703
2061.087646 95.394 155.5466
2076.023193 95.466 154.9094
2091.066895 95.539 154.2588
2106.219727 95.611 153.5945
2121.482178 95.684 152.9161
2136.855225 95.755 152.2235
2152.339844 95.827 151.5164
2167.936523 95.898 150.7946
2183.646240 95.969 150.0580
2199.469727 96.038 149.3065
2215.407959 96.108 148.5400
2231.461670 96.176 147.7585
2247.631836 96.243 146.9623
2263.919189 96.309 146.1516
2280.324463 96.374 145.3264
2296.848633 96.437 144.4874
2313.492432 96.498 143.6348
2330.256836 96.558 142.7694
2347.142822 96.616 141.8921
2364.151123 96.672 141.0038
2381.282715 96.725 140.1061
2398.538574 96.776 139.2006
2415.919434 96.825 138.2895
2433.426270 96.870 137.3754
2451.059814 96.913 136.4614
2468.821289 96.953 135.5510
2486.711426 96.991 134.6485
2504.731201 97.027 133.7585
2522.881592 97.061 132.8857
2541.163330 97.095 132.0341
2559.577637 97.130 131.2062
2578.125488 97.167 130.4027
2596.807617 97.209 129.6206
2615.625244 97.256 128.8522
2634.579102 97.312 128.0847
2653.670410 97.375 127.3008
2672.899902 97.447 126.4806
2692.268799 97.525 125.6047
2711.778076 97.607 124.6573
2731.428711 97.691 123.6295
2751.221680 97.772 122.5206
2771.158203 97.849 121.3373
2791.239258 97.917 120.0919
2811.465820 97.977 118.7995
2831.838867 98.027 117.4756
2852.359619 98.067 116.1342
2873.029053 98.099 114.7874
2893.848145 98.122 113.4439
2914.818115 98.139 112.1102
2935.940186 98.149 110.7904
2957.215332 98.154 109.4868
2978.644531 98.155 108.2007
3000.229004 98.152 106.9324
3021.969971 98.146 105.6816
3043.868408 98.137 104.4481
3065.925537 98.126 103.2312
3088.142578 98.114 102.0300
3110.520508 98.100 100.8437
3133.060547 98.084 99.6711
3155.763916 98.068 98.5110
3178.631836 98.051 97.3620
3201.665527 98.034 96.2229
3224.866211 98.016 95.0922
3248.234863 97.998 93.9688
3271.772949 97.979 92.8521
3295.481445 97.960 91.7414
3319.361816 97.940 90.6365
3343.415283 97.920 89.5371
3367.643066 97.900 88.4433
3392.046387 97.879 87.3551
3416.626465 97.858 86.2727
3441.384766 97.837 85.1962
3466.322510 97.816 84.1259
3491.440918 97.794 83.0620
3516.741455 97.773 82.0049
3542.225098 97.752 80.9546
3567.893555 97.732 79.9103
3593.748047 97.713 78.8710
3619.789795 97.695 77.8351
3646.020264 97.678 76.8012
3672.440918 97.662 75.7677
3699.052979 97.647 74.7335
3725.857910 97.632 73.6980
3752.856934 97.619 72.6617
3780.051758 97.606 71.6254
3807.443604 97.594 70.5906
3835.033936 97.582 69.5584
3862.824219 97.573 68.5296
3890.815918 97.565 67.5038
3919.010254 97.559 66.4794
3947.408936 97.556 65.4535
3976.013428 97.557 64.4221
4004.825195 97.561 63.3806
4033.845703 97.568 62.3241
4063.076660 97.579 61.2481
4092.519287 97.592 60.1484
4122.175293 97.609 59.0216
4152.046387 97.627 57.8650
4182.133789 97.647 56.6762
4212.439453 97.668 55.4536
4242.964355 97.689 54.1957
4273.710449 97.710 52.9014
4304.679688 97.731 51.5701
4335.873047 97.751 50.2017
4367.292480 97.768 48.7970
4398.939453 97.784 47.3575
4430.815918 97.796 45.8853
4462.923340 97.805 44.3837
4495.263672 97.810 42.8566
4527.838379 97.812 41.3081
4560.648926 97.809 39.7420
4593.697266 97.804 38.1613
4626.984863 97.795 36.5677
4660.513672 97.784 34.9615
4694.285645 97.770 33.3413
4728.302246 97.755 31.7047
4762.565430 97.738 30.0482
4797.077148 97.718 28.3690
4831.838867 97.696 26.6643
4866.852539 97.671 24.9325
4902.119629 97.641 23.1732
4937.642578 97.608 21.3873
4973.422852 97.569 19.5768
5009.462402 97.524 17.7447
5045.763184 97.472 15.8949
5082.326660 97.414 14.0317
5119.155273 97.348 12.1601
5156.250977 97.275 10.2853
5193.615234 97.194 8.4132
5231.250488 97.106 6.5494
5269.158203 97.010 4.7000
5307.340820 96.906 2.8712
5345.799805 96.796 1.0689
5384.537598 96.679 -0.7010
5423.556152 96.556 -2.4335
5462.857422 96.429 -4.1239
5502.443359 96.297 -5.7687
5542.316406 96.162 -7.3651
5582.478516 96.025 -8.9116
5622.931641 95.887 -10.4081
5663.677734 95.749 -11.8555
5704.719238 95.613 -13.2556
5746.058105 95.478 -14.6115
5787.696289 95.345 -15.9266
5829.636230 95.216 -17.2050
5871.880371 95.090 -18.4502
5914.430664 94.968 -19.6654
5957.289062 94.850 -20.8531
6000.458008 94.736 -22.0153
6043.939941 94.626 -23.1534
6087.736816 94.521 -24.2684
6131.851074 94.420 -25.3615
6176.285156 94.325 -26.4335
6221.041016 94.235 -27.4861
6266.121094 94.152 -28.5210
6311.527832 94.076 -29.5409
6357.263672 94.007 -30.5490
6403.331055 93.947 -31.5496
6449.732422 93.896 -32.5479
6496.469727 93.854 -33.5499
6543.545898 93.822 -34.5629
6590.962891 93.800 -35.5939
6638.723633 93.788 -36.6503
6686.830566 93.786 -37.7385
6735.286133 93.794 -38.8643
6784.092773 93.812 -40.0331
6833.252930 93.839 -41.2504
6882.769531 93.877 -42.5225
6932.645020 93.925 -43.8569
6982.881836 93.982 -45.2625
7033.482910 94.050 -46.7488
7084.450195 94.127 -48.3274
7135.787109 94.214 -50.0108
7187.496094 94.308 -51.8123
7239.579590 94.410 -53.7454
7292.040527 94.516 -55.8234
7344.881836 94.625 -58.0582
7398.105957 94.734 -60.4601
7451.715820 94.840 -63.0374
7505.713867 94.939 -65.7949
7560.103516 95.028 -68.7347
7614.887207 95.103 -71.8545
7670.067871 95.160 -75.1476
7725.648438 95.195 -78.6025
7781.631836 95.204 -82.2039
7838.020508 95.184 -85.9325
7894.817871 95.133 -89.7660
7952.026855 95.050 -93.6805
8009.650391 94.932 -97.6522
8067.691406 94.779 -101.6576
8126.153320 94.591 -105.6754
8185.038574 94.367 -109.6862
8244.350586 94.109 -113.6713
8304.092773 93.814 -117.6116
8364.267578 93.483 -121.4856
8424.878906 93.116 -125.2684
8485.928711 92.711 -128.9308
8547.420898 92.269 -132.4386
8609.359375 91.792 -135.7546
8671.746094 91.281 -138.8403
8734.584961 90.741 -141.6592
8797.878906 90.176 -144.1797
8861.631836 89.593 -146.3793
8925.846680 89.000 -148.2461
8990.527344 88.403 -149.7805
9055.676758 87.810 -150.9950
9121.297852 87.228 -151.9119
9187.394531 86.662 -152.5620
9253.969727 86.117 -152.9798
9321.027344 85.595 -153.2006
9388.571289 85.099 -153.2577
9456.604492 84.628 -153.1804
9525.130859 84.182 -152.9935
9594.154297 83.759 -152.7166
9663.677734 83.359 -152.3652
9733.705078 82.979 -151.9512
9804.239258 82.619 -151.4829
9875.285156 82.276 -150.9667
9946.845703 81.951 -150.4066
10018.924805 81.641 -149.8048
10091.526367 81.345 -149.1619
10164.653320 81.064 -148.4763
10238.310547 80.795 -147.7454
10312.501953 80.539 -146.9642
10387.230469 80.295 -146.1266
10462.500977 80.063 -145.2241
10538.316406 79.843 -144.2461
10614.681641 79.635 -143.1804
10691.599609 79.441 -142.0115
10769.075195 79.263 -140.7211
10847.112305 79.102 -139.2870
10925.714844 78.963 -137.6840
11004.886719 78.851 -135.8848
11084.632812 78.774 -133.8641
11164.957031 78.742 -131.6045
11245.863281 78.769 -129.1050
11327.355469 78.866 -126.3943
11409.438477 79.050 -123.5449
11492.116211 79.330 -120.6817
11575.392578 79.710 -117.9771
11659.272461 80.185 -115.6295
11743.760742 80.741 -113.8264
11828.861328 81.356 -112.7072
11914.578125 82.004 -112.3387
12000.916016 82.661 -112.7117
12087.879883 83.307 -113.7532
12175.473633 83.927 -115.3490
12263.702148 84.517 -117.3669
12352.570312 85.076 -119.6783
12442.082031 85.613 -122.1750
12532.242188 86.139 -124.7803
12623.055664 86.668 -127.4562
12714.527344 87.215 -130.2066
12806.662109 87.794 -133.0761
12899.464844 88.414 -136.1456
12992.939453 89.079 -139.5259
13087.091797 89.785 -143.3459
13181.925781 90.521 -147.7402
13277.447266 91.268 -152.8338
13373.661133 91.999 -158.7245
13470.572266 92.684 -165.4669
13568.185547 93.285 -173.0567
13666.505859 93.770 178.5803
13765.539062 94.104 169.5945
13865.290039 94.262 160.2078
13965.763672 94.232 150.6957
14066.965820 94.014 141.3539
14168.900391 93.620 132.4595
14271.574219 93.077 124.2396
14374.992188 92.415 116.8553
14479.159180 91.671 110.3993
14584.081055 90.880 104.9003
14689.763672 90.077 100.3339
14796.211914 89.292 96.6328
14903.431641 88.550 93.6991
15011.427734 87.870 91.4171
15120.207031 87.265 89.6642
15229.774414 86.742 88.3231
15340.135742 86.304 87.2893
15451.296875 85.953 86.4730
15563.263672 85.688 85.7939
15676.041016 85.509 85.1735
15789.635742 85.415 84.5284
15904.053711 85.405 83.7646
16019.300781 85.473 82.7753
16135.382812 85.611 81.4455
16252.306641 85.804 79.6631
16370.077148 86.031 77.3397
16488.701172 86.266 74.4395
16608.185547 86.481 71.0120
16728.535156 86.652 67.2191
16849.757812 86.775 63.3400
16971.857422 86.875 59.7155
17094.841797 87.018 56.5872
17218.718750 87.285 53.8607
17343.492188 87.727 50.9847
17469.169922 88.318 47.1686
17595.757812 88.964 41.8028
17723.263672 89.551 34.7025
17851.693359 89.978 26.0710
17981.054688 90.180 16.3525
18111.353516 90.124 6.0963
18242.595703 89.810 -4.1552
18374.789062 89.264 -13.9523
18507.939453 88.527 -22.9797
18642.054688 87.648 -31.0609
18777.142578 86.679 -38.1403
18913.208984 85.666 -44.2615
19050.261719 84.650 -49.5437
19188.308594 83.665 -54.1544
19327.355469 82.737 -58.2830
19467.410156 81.887 -62.1173
19608.478516 81.137 -65.8257
19750.570312 80.515 -69.5486
19893.691406 80.061 -73.3958
20037.849609 0.000 -77.4449
