* Measurement data measured by REW V5.30.4
* Source: Headset (2- CX31993 HIFI AUDIO), MICROPHONE (Master Volume), L, volume: 1.000
* Format: 256k Log Swept Sine, 1 sweep at -12.0 dBFS with no timing reference
* Dated: 06 8, 24 6:08:00 PM
* REW Settings:
*  C-weighting compensation: Off
*  Target level: 75.0 dB
* Note: ; 
* Measurement: Truthear GATe L
* Smoothing: 1/12 octave
* Frequency Step: 96 ppo
* Start Frequency: 20.141602 Hz
*
* Freq(Hz) SPL(dB) Phase(degrees)
20.141602 94.450 -147.7802
20.287556 94.451 -147.9239
20.434568 94.452 -148.1334
20.582645 94.454 -148.3878
20.731796 94.457 -148.6696
20.882027 94.460 -148.9667
21.033346 94.464 -149.2723
21.185762 94.470 -149.5831
21.339283 94.476 -149.8979
21.493916 94.484 -150.2168
21.649670 94.492 -150.5401
21.806553 94.500 -150.8678
21.964573 94.509 -151.1998
22.123737 94.517 -151.5352
22.284056 94.525 -151.8731
22.445536 94.532 -152.2124
22.608185 94.539 -152.5524
22.772013 94.545 -152.8924
22.937029 94.552 -153.2328
23.103241 94.559 -153.5743
23.270657 94.567 -153.9182
23.439285 94.577 -154.2665
23.609137 94.588 -154.6212
23.780218 94.600 -154.9842
23.952539 94.615 -155.3569
24.126110 94.631 -155.7401
24.300938 94.648 -156.1335
24.477032 94.667 -156.5356
24.654402 94.685 -156.9442
24.833057 94.703 -157.3556
25.013008 94.719 -157.7657
25.194263 94.734 -158.1695
25.376831 94.745 -158.5618
25.560722 94.753 -158.9373
25.745945 94.757 -159.2910
25.932510 94.756 -159.6187
26.120428 94.752 -159.9172
26.309708 94.743 -160.1848
26.500359 94.732 -160.4216
26.692390 94.718 -160.6300
26.885815 94.703 -160.8146
27.080641 94.689 -160.9822
27.276878 94.676 -161.1415
27.474539 94.665 -161.3024
27.673630 94.658 -161.4747
27.874165 94.654 -161.6673
28.076153 94.654 -161.8869
28.279604 94.656 -162.1371
28.484529 94.661 -162.4181
28.690941 94.666 -162.7265
28.898848 94.671 -163.0561
29.108261 94.676 -163.3987
29.319191 94.679 -163.7457
29.531651 94.680 -164.0891
29.745649 94.679 -164.4229
29.961199 94.676 -164.7437
30.178310 94.672 -165.0511
30.396996 94.666 -165.3473
30.617264 94.660 -165.6365
30.839128 94.653 -165.9241
31.062601 94.645 -166.2153
31.287693 94.637 -166.5143
31.514416 94.629 -166.8233
31.742783 94.620 -167.1422
31.972803 94.611 -167.4682
32.204491 94.602 -167.7968
32.437859 94.593 -168.1215
32.672916 94.584 -168.4353
32.909679 94.577 -168.7318
33.148155 94.571 -169.0060
33.388359 94.567 -169.2556
33.630306 94.565 -169.4815
33.874004 94.566 -169.6880
34.119469 94.569 -169.8823
34.366711 94.573 -170.0731
34.615746 94.579 -170.2692
34.866585 94.584 -170.4777
35.119244 94.588 -170.7026
35.373734 94.589 -170.9437
35.630066 94.586 -171.1974
35.888256 94.578 -171.4572
36.148315 94.567 -171.7158
36.410259 94.552 -171.9672
36.674103 94.535 -172.2079
36.939857 94.518 -172.4383
37.207539 94.502 -172.6621
37.477161 94.488 -172.8851
37.748737 94.476 -173.1130
38.022282 94.466 -173.3497
38.297806 94.458 -173.5963
38.575329 94.452 -173.8513
38.854862 94.447 -174.1115
39.136421 94.442 -174.3743
39.420021 94.438 -174.6383
39.705673 94.433 -174.9032
39.993397 94.426 -175.1692
40.283207 94.417 -175.4347
40.575115 94.405 -175.6959
40.869141 94.392 -175.9475
41.165295 94.377 -176.1852
41.463596 94.365 -176.4081
41.764057 94.357 -176.6197
42.066696 94.353 -176.8261
42.371529 94.353 -177.0324
42.678570 94.353 -177.2388
42.987835 94.350 -177.4405
43.299343 94.341 -177.6323
43.613110 94.327 -177.8158
43.929150 94.310 -178.0044
44.247478 94.291 -178.2233
44.568115 94.273 -178.4985
44.891075 94.259 -178.8425
45.216373 94.254 -179.2434
45.544029 94.261 -179.6660
45.874062 94.289 179.9328
46.206486 94.344 179.5812
46.541317 94.428 179.2761
46.878574 94.532 178.9858
47.218277 94.639 178.6728
47.560440 94.726 178.3232
47.905083 94.769 177.9624
48.252224 94.758 177.6475
48.601879 94.691 177.4399
48.954067 94.582 177.3719
49.308807 94.451 177.4233
49.666119 94.320 177.5237
50.026020 94.208 177.5832
50.388531 94.119 177.5353
50.753666 94.055 177.3665
51.121449 94.011 177.1136
51.491894 93.981 176.8343
51.865025 93.962 176.5754
52.240860 93.951 176.3547
52.619419 93.942 176.1654
53.000721 93.931 175.9905
53.384785 93.916 175.8171
53.771633 93.896 175.6409
54.161285 93.874 175.4621
54.553761 93.852 175.2817
54.949081 93.832 175.0992
55.347263 93.814 174.9147
55.748333 93.796 174.7297
56.152309 93.777 174.5474
56.559212 93.756 174.3701
56.969063 93.735 174.1990
57.381886 93.715 174.0339
57.797699 93.696 173.8750
58.216526 93.681 173.7234
58.638386 93.667 173.5800
59.063305 93.656 173.4432
59.491302 93.644 173.3082
59.922401 93.630 173.1682
60.356625 93.613 173.0189
60.793995 93.593 172.8604
61.234531 93.570 172.6966
61.678261 93.548 172.5298
62.125206 93.527 172.3585
62.575390 93.507 172.1790
63.028835 93.488 171.9916
63.485569 93.467 171.8020
63.945610 93.445 171.6169
64.408989 93.424 171.4369
64.875725 93.402 171.2550
65.345840 93.381 171.0632
65.819366 93.359 170.8599
66.296318 93.336 170.6522
66.776726 93.310 170.4527
67.260620 93.285 170.2754
67.748016 93.263 170.1344
68.238945 93.242 170.0442
68.733429 93.223 170.0181
69.231499 93.203 170.0655
69.733177 93.179 170.1866
70.238495 93.150 170.3622
70.747475 93.120 170.5416
71.260139 93.092 170.6459
71.776520 93.069 170.5963
72.296638 93.050 170.3578
72.820526 93.030 169.9622
73.348213 93.009 169.4909
73.879723 92.987 169.0311
74.415085 92.965 168.6385
74.954330 92.945 168.3281
75.497482 92.925 168.0878
76.044571 92.906 167.8965
76.595619 92.887 167.7366
77.150665 92.870 167.5980
77.709732 92.853 167.4771
78.272850 92.835 167.3721
78.840050 92.814 167.2790
79.411354 92.789 167.1885
79.986801 92.760 167.0885
80.566422 92.730 166.9707
81.150238 92.699 166.8393
81.738289 92.670 166.7097
82.330597 92.643 166.5947
82.927200 92.619 166.4915
83.528122 92.598 166.3846
84.133400 92.577 166.2618
84.743065 92.554 166.1267
85.357147 92.530 165.9941
85.975677 92.506 165.8766
86.598694 92.480 165.7771
87.226227 92.452 165.6918
87.858307 92.423 165.6155
88.494965 92.393 165.5406
89.136238 92.366 165.4592
89.782158 92.341 165.3693
90.432755 92.316 165.2776
91.088066 92.290 165.1912
91.748131 92.261 165.1087
92.412979 92.229 165.0244
93.082642 92.195 164.9351
93.757156 92.163 164.8407
94.436562 92.134 164.7418
95.120888 92.110 164.6413
95.810173 92.088 164.5448
96.504456 92.068 164.4569
97.203766 92.047 164.3768
97.908142 92.025 164.2979
98.617622 92.002 164.2120
99.332245 91.979 164.1153
100.052048 91.956 164.0109
100.777069 91.932 163.9075
101.507339 91.908 163.8132
102.242905 91.883 163.7315
102.983795 91.858 163.6637
103.730057 91.832 163.6125
104.481728 91.806 163.5779
105.238846 91.780 163.5489
106.001450 91.754 163.5049
106.769577 91.724 163.4302
107.543274 91.691 163.3303
108.322578 91.655 163.2307
109.107529 91.618 163.1594
109.898170 91.584 163.1293
110.694534 91.555 163.1354
111.496674 91.532 163.1617
112.304626 91.514 163.1841
113.118431 91.500 163.1705
113.938133 91.489 163.0916
114.763779 91.480 162.9340
115.595406 91.470 162.7017
116.433060 91.450 162.4096
117.276779 91.410 162.0954
118.126617 91.344 161.8428
118.982613 91.248 161.7716
119.844810 91.120 161.9734
120.713257 90.969 162.4439
121.587997 90.816 163.0761
122.469070 90.688 163.7314
123.356529 90.605 164.3271
124.250420 90.563 164.8600
125.150787 90.542 165.3524
126.057678 90.524 165.8040
126.971146 90.506 166.2249
127.891228 90.493 166.6869
128.817978 90.481 167.2693
129.751450 90.457 167.9121
130.691681 90.414 168.3673
131.638733 90.367 168.3625
132.592636 90.334 167.8157
133.553452 90.322 166.8384
134.521240 90.322 165.5577
135.496033 90.335 164.0627
136.477890 90.373 162.5254
137.466858 90.445 161.2237
138.462997 90.540 160.3878
139.466354 90.632 160.0846
140.476990 90.697 160.2355
141.494949 90.716 160.6669
142.520279 90.692 161.1622
143.553040 90.639 161.5536
144.593277 90.579 161.7925
145.641052 90.526 161.9276
146.696426 90.486 162.0290
147.759445 90.453 162.1387
148.830170 90.423 162.2645
149.908661 90.391 162.3941
150.994965 90.354 162.5134
152.089142 90.314 162.6132
153.191238 90.270 162.6877
154.301331 90.227 162.7374
155.419464 90.187 162.7682
156.545700 90.151 162.7836
157.680099 90.118 162.7828
158.822708 90.087 162.7703
159.973602 90.058 162.7589
161.132843 90.030 162.7596
162.300476 90.002 162.7744
163.476578 89.971 162.7947
164.661194 89.936 162.8067
165.854401 89.895 162.7988
167.056244 89.847 162.7736
168.266800 89.795 162.7523
169.486130 89.743 162.7664
170.714294 89.695 162.8399
171.951355 89.647 162.9728
173.197388 89.592 163.1544
174.452454 89.523 163.3972
175.716614 89.441 163.7394
176.989929 89.353 164.1996
178.272476 89.272 164.7432
179.564316 89.212 165.2866
180.865509 89.181 165.7277
182.176132 89.180 165.9840
183.496262 89.209 166.0248
184.825958 89.265 165.8854
186.165283 89.346 165.6656
187.514313 89.443 165.5073
188.873123 89.544 165.5344
190.241776 89.638 165.7994
191.620346 89.713 166.2770
193.008911 89.766 166.8715
194.407532 89.795 167.4362
195.816284 89.796 167.8184
197.235245 89.774 167.9297
198.664490 89.736 167.7964
200.104095 89.693 167.5217
201.554138 89.652 167.2143
203.014679 89.616 166.9468
204.485809 89.586 166.7443
205.967590 89.561 166.6046
207.460114 89.541 166.5204
208.963455 89.524 166.4830
210.477692 89.508 166.4793
212.002899 89.492 166.4931
213.539154 89.475 166.5117
215.086548 89.457 166.5304
216.645157 89.438 166.5494
218.215057 89.419 166.5730
219.796341 89.400 166.6074
221.389069 89.381 166.6556
222.993347 89.361 166.7124
224.609253 89.339 166.7697
226.236862 89.318 166.8266
227.876266 89.298 166.8884
229.527557 89.281 166.9582
231.190811 89.268 167.0324
232.866119 89.260 167.1057
234.553558 89.256 167.1760
236.253235 89.257 167.2464
237.965225 89.262 167.3217
239.689621 89.266 167.3982
241.426514 89.264 167.4633
243.175995 89.255 167.5096
244.938141 89.236 167.5380
246.713058 89.211 167.5519
248.500839 89.181 167.5524
250.301575 89.148 167.5407
252.115356 89.112 167.5208
253.942291 89.075 167.5002
255.782455 89.040 167.4902
257.635956 89.008 167.5023
259.502899 88.980 167.5413
261.383362 88.956 167.6064
263.277466 88.936 167.6986
265.185272 88.919 167.8163
267.106903 88.903 167.9484
269.042480 88.888 168.0779
270.992065 88.874 168.1893
272.955780 88.860 168.2718
274.933716 88.847 168.3235
276.925995 88.834 168.3539
278.932709 88.820 168.3832
280.953979 88.802 168.4356
282.989899 88.781 168.5245
285.040558 88.757 168.6401
287.106079 88.730 168.7585
289.186554 88.702 168.8599
291.282104 88.673 168.9379
293.392853 88.648 169.0015
295.518890 88.625 169.0652
297.660339 88.606 169.1415
299.817322 88.588 169.2371
301.989929 88.571 169.3498
304.178284 88.555 169.4717
306.382477 88.541 169.5960
308.602661 88.530 169.7202
310.838928 88.521 169.8460
313.091400 88.514 169.9793
315.360199 88.505 170.1201
317.645416 88.493 170.2599
319.947205 88.477 170.3913
322.265686 88.459 170.5137
324.600952 88.439 170.6340
326.953156 88.418 170.7640
329.322388 88.396 170.9116
331.708801 88.372 171.0759
334.112488 88.347 171.2455
336.533600 88.321 171.4072
338.972260 88.295 171.5577
341.428589 88.270 171.7046
343.902710 88.246 171.8583
346.394775 88.222 172.0287
348.904907 88.198 172.2249
351.433228 88.177 172.4552
353.979858 88.157 172.7253
356.544952 88.142 173.0321
359.128632 88.133 173.3607
361.731018 88.130 173.6909
364.352264 88.134 174.0063
366.992523 88.143 174.2936
369.651917 88.157 174.5414
372.330566 88.176 174.7433
375.028625 88.199 174.8990
377.746246 88.225 175.0134
380.483551 88.251 175.0958
383.240692 88.276 175.1558
386.017822 88.297 175.1989
388.815063 88.312 175.2298
391.632568 88.322 175.2548
394.470490 88.327 175.2789
397.328979 88.328 175.3021
400.208191 88.325 175.3228
403.108276 88.319 175.3427
406.029358 88.311 175.3661
408.971619 88.301 175.3968
411.935181 88.289 175.4364
414.920227 88.276 175.4858
417.926910 88.262 175.5450
420.955383 88.249 175.6140
424.005798 88.236 175.6932
427.078308 88.224 175.7825
430.173096 88.211 175.8806
433.290314 88.199 175.9855
436.430115 88.187 176.0953
439.592682 88.176 176.2087
442.778137 88.165 176.3250
445.986694 88.155 176.4446
449.218506 88.145 176.5670
452.473724 88.135 176.6913
455.752533 88.126 176.8176
459.055115 88.117 176.9465
462.381622 88.109 177.0782
465.732239 88.100 177.2125
469.107117 88.091 177.3486
472.506470 88.083 177.4867
475.930450 88.074 177.6271
479.379242 88.065 177.7708
482.853027 88.056 177.9177
486.351990 88.048 178.0675
489.876282 88.040 178.2188
493.426117 88.032 178.3702
497.001678 88.025 178.5211
500.603149 88.018 178.6714
504.230713 88.012 178.8223
507.884583 88.006 178.9744
511.564911 88.001 179.1278
515.271912 87.996 179.2825
519.005798 87.991 179.4382
522.766724 87.986 179.5950
526.554932 87.981 179.7535
530.370544 87.977 179.9143
534.213806 87.972 -179.9216
538.084961 87.968 -179.7537
541.984131 87.964 -179.5828
545.911560 87.961 -179.4106
549.867432 87.957 -179.2384
553.851990 87.954 -179.0664
557.865417 87.951 -178.8936
561.907959 87.948 -178.7196
565.979797 87.946 -178.5448
570.081116 87.944 -178.3702
574.212158 87.943 -178.1961
578.373108 87.943 -178.0220
582.564209 87.942 -177.8470
586.785706 87.942 -177.6702
591.037781 87.941 -177.4904
595.320679 87.941 -177.3073
599.634644 87.941 -177.1210
603.979858 87.941 -176.9315
608.356567 87.941 -176.7392
612.764954 87.942 -176.5444
617.205322 87.943 -176.3481
621.677856 87.945 -176.1508
626.182800 87.947 -175.9528
630.720398 87.949 -175.7540
635.290833 87.952 -175.5537
639.894409 87.955 -175.3512
644.531372 87.959 -175.1456
649.201904 87.962 -174.9365
653.906311 87.967 -174.7240
658.644775 87.971 -174.5087
663.417603 87.976 -174.2908
668.224976 87.982 -174.0702
673.067200 87.987 -173.8474
677.944519 87.993 -173.6232
682.857178 87.999 -173.3982
687.805420 88.006 -173.1724
692.789551 88.013 -172.9450
697.809814 88.021 -172.7152
702.866455 88.029 -172.4829
707.959717 88.038 -172.2484
713.089905 88.048 -172.0123
718.257263 88.058 -171.7748
723.462036 88.069 -171.5360
728.704529 88.080 -171.2958
733.985046 88.092 -171.0534
739.303833 88.105 -170.8082
744.661133 88.117 -170.5605
750.057251 88.131 -170.3110
755.492493 88.146 -170.0606
760.967102 88.161 -169.8094
766.481384 88.177 -169.5574
772.035645 88.194 -169.3036
777.630127 88.212 -169.0471
783.265137 88.231 -168.7872
788.940979 88.251 -168.5236
794.657959 88.271 -168.2568
800.416382 88.293 -167.9873
806.216553 88.315 -167.7158
812.058716 88.338 -167.4430
817.943237 88.362 -167.1695
823.870361 88.388 -166.8956
829.840454 88.414 -166.6214
835.853821 88.442 -166.3467
841.910767 88.470 -166.0711
848.011597 88.500 -165.7937
854.156616 88.531 -165.5140
860.346191 88.562 -165.2319
866.580627 88.595 -164.9475
872.860229 88.629 -164.6612
879.185364 88.664 -164.3728
885.556274 88.701 -164.0815
891.973389 88.740 -163.7867
898.437012 88.781 -163.4880
904.947449 88.824 -163.1857
911.505066 88.870 -162.8811
918.110229 88.920 -162.5768
924.763245 88.973 -162.2773
931.464478 89.030 -161.9887
938.214233 89.091 -161.7179
945.012939 89.155 -161.4711
951.860901 89.221 -161.2524
958.758484 89.288 -161.0635
965.706055 89.355 -160.9028
972.703979 89.421 -160.7659
979.752563 89.485 -160.6465
986.852234 89.547 -160.5378
994.003357 89.609 -160.4347
1001.206299 89.669 -160.3340
1008.461426 89.729 -160.2339
1015.769165 89.788 -160.1340
1023.129822 89.848 -160.0350
1030.543823 89.908 -159.9383
1038.011597 89.969 -159.8463
1045.533447 90.031 -159.7609
1053.109863 90.093 -159.6837
1060.741089 90.156 -159.6147
1068.427612 90.219 -159.5537
1076.169922 90.283 -159.5002
1083.968262 90.348 -159.4544
1091.823120 90.413 -159.4168
1099.734863 90.478 -159.3877
1107.703979 90.544 -159.3670
1115.730835 90.609 -159.3546
1123.815918 90.674 -159.3506
1131.959595 90.739 -159.3555
1140.162231 90.804 -159.3695
1148.424316 90.869 -159.3927
1156.746216 90.934 -159.4244
1165.128418 90.999 -159.4638
1173.571411 91.063 -159.5105
1182.075562 91.127 -159.5640
1190.641357 91.190 -159.6241
1199.269287 91.253 -159.6906
1207.959717 91.316 -159.7632
1216.713135 91.378 -159.8420
1225.529907 91.440 -159.9268
1234.410645 91.501 -160.0173
1243.355713 91.562 -160.1131
1252.365601 91.622 -160.2133
1261.440796 91.682 -160.3171
1270.581665 91.742 -160.4241
1279.788818 91.800 -160.5341
1289.062744 91.859 -160.6469
1298.403809 91.917 -160.7626
1307.812622 91.975 -160.8811
1317.289551 92.032 -161.0024
1326.835205 92.089 -161.1263
1336.449951 92.146 -161.2527
1346.134399 92.203 -161.3814
1355.889038 92.259 -161.5123
1365.714355 92.316 -161.6448
1375.610840 92.372 -161.7787
1385.579102 92.428 -161.9140
1395.619629 92.484 -162.0508
1405.732910 92.540 -162.1894
1415.919434 92.597 -162.3297
1426.179810 92.653 -162.4713
1436.514526 92.709 -162.6143
1446.924072 92.766 -162.7582
1457.409058 92.822 -162.9029
1467.970093 92.879 -163.0482
1478.607666 92.937 -163.1945
1489.322266 92.994 -163.3420
1500.114502 93.052 -163.4913
1510.984985 93.111 -163.6426
1521.934204 93.170 -163.7965
1532.962769 93.229 -163.9532
1544.071289 93.289 -164.1129
1555.260254 93.350 -164.2761
1566.530273 93.411 -164.4431
1577.881958 93.473 -164.6140
1589.315918 93.535 -164.7892
1600.832764 93.598 -164.9688
1612.433105 93.662 -165.1530
1624.117432 93.726 -165.3424
1635.886475 93.791 -165.5374
1647.740723 93.857 -165.7384
1659.680908 93.922 -165.9454
1671.707642 93.989 -166.1582
1683.821533 94.055 -166.3771
1696.023193 94.123 -166.6023
1708.313232 94.190 -166.8343
1720.692383 94.258 -167.0732
1733.161255 94.327 -167.3190
1745.720459 94.396 -167.5717
1758.370728 94.465 -167.8312
1771.112549 94.535 -168.0976
1783.946777 94.605 -168.3706
1796.874023 94.675 -168.6502
1809.894897 94.746 -168.9366
1823.010132 94.817 -169.2300
1836.220459 94.889 -169.5311
1849.526489 94.961 -169.8402
1862.928955 95.034 -170.1579
1876.428467 95.108 -170.4843
1890.025879 95.181 -170.8196
1903.721802 95.256 -171.1638
1917.516968 95.330 -171.5172
1931.412109 95.405 -171.8803
1945.407959 95.481 -172.2534
1959.505127 95.557 -172.6370
1973.704468 95.633 -173.0315
1988.006714 95.710 -173.4374
2002.412598 95.787 -173.8551
2016.922852 95.864 -174.2847
2031.538330 95.942 -174.7267
2046.259644 96.019 -175.1813
2061.087646 96.097 -175.6490
2076.023193 96.175 -176.1302
2091.066895 96.253 -176.6252
2106.219727 96.331 -177.1341
2121.482178 96.409 -177.6571
2136.855225 96.487 -178.1948
2152.339844 96.564 -178.7477
2167.936523 96.641 -179.3165
2183.646240 96.718 -179.9013
2199.469727 96.794 179.4976
2215.407959 96.869 178.8804
2231.461670 96.944 178.2467
2247.631836 97.018 177.5966
2263.919189 97.091 176.9300
2280.324463 97.163 176.2468
2296.848633 97.234 175.5471
2313.492432 97.303 174.8307
2330.256836 97.371 174.0978
2347.142822 97.437 173.3481
2364.151123 97.502 172.5818
2381.282715 97.565 171.7989
2398.538574 97.626 170.9998
2415.919434 97.685 170.1848
2433.426270 97.741 169.3544
2451.059814 97.795 168.5092
2468.821289 97.847 167.6498
2486.711426 97.896 166.7767
2504.731201 97.942 165.8906
2522.881592 97.985 164.9922
2541.163330 98.025 164.0823
2559.577637 98.061 163.1617
2578.125488 98.094 162.2318
2596.807617 98.124 161.2935
2615.625244 98.149 160.3484
2634.579102 98.171 159.3980
2653.670410 98.189 158.4440
2672.899902 98.203 157.4879
2692.268799 98.212 156.5320
2711.778076 98.217 155.5789
2731.428711 98.218 154.6316
2751.221680 98.215 153.6933
2771.158203 98.207 152.7679
2791.239258 98.195 151.8594
2811.465820 98.179 150.9724
2831.838867 98.160 150.1114
2852.359619 98.139 149.2807
2873.029053 98.116 148.4844
2893.848145 98.092 147.7247
2914.818115 98.070 147.0021
2935.940186 98.051 146.3130
2957.215332 98.037 145.6503
2978.644531 98.029 145.0023
3000.229004 98.028 144.3542
3021.969971 98.033 143.6890
3043.868408 98.044 142.9904
3065.925537 98.059 142.2456
3088.142578 98.074 141.4477
3110.520508 98.088 140.5960
3133.060547 98.098 139.6962
3155.763916 98.103 138.7579
3178.631836 98.100 137.7933
3201.665527 98.090 136.8146
3224.866211 98.073 135.8330
3248.234863 98.050 134.8574
3271.772949 98.021 133.8944
3295.481445 97.987 132.9484
3319.361816 97.948 132.0222
3343.415283 97.907 131.1171
3367.643066 97.863 130.2332
3392.046387 97.817 129.3694
3416.626465 97.769 128.5240
3441.384766 97.721 127.6947
3466.322510 97.671 126.8793
3491.440918 97.620 126.0763
3516.741455 97.569 125.2847
3542.225098 97.516 124.5041
3567.893555 97.462 123.7350
3593.748047 97.407 122.9784
3619.789795 97.350 122.2358
3646.020264 97.292 121.5097
3672.440918 97.233 120.8025
3699.052979 97.173 120.1169
3725.857910 97.112 119.4548
3752.856934 97.053 118.8165
3780.051758 96.995 118.2010
3807.443604 96.938 117.6057
3835.033936 96.885 117.0266
3862.824219 96.834 116.4591
3890.815918 96.786 115.8981
3919.010254 96.741 115.3387
3947.408936 96.700 114.7771
3976.013428 96.660 114.2101
4004.825195 96.623 113.6356
4033.845703 96.588 113.0516
4063.076660 96.554 112.4570
4092.519287 96.521 111.8511
4122.175293 96.489 111.2335
4152.046387 96.457 110.6042
4182.133789 96.426 109.9634
4212.439453 96.395 109.3118
4242.964355 96.363 108.6503
4273.710449 96.331 107.9796
4304.679688 96.298 107.3007
4335.873047 96.265 106.6143
4367.292480 96.231 105.9210
4398.939453 96.197 105.2208
4430.815918 96.163 104.5127
4462.923340 96.129 103.7953
4495.263672 96.095 103.0666
4527.838379 96.061 102.3246
4560.648926 96.026 101.5677
4593.697266 95.990 100.7944
4626.984863 95.953 100.0038
4660.513672 95.915 99.1955
4694.285645 95.874 98.3693
4728.302246 95.830 97.5257
4762.565430 95.783 96.6652
4797.077148 95.732 95.7896
4831.838867 95.677 94.9019
4866.852539 95.616 94.0067
4902.119629 95.549 93.1102
4937.642578 95.476 92.2206
4973.422852 95.395 91.3478
5009.462402 95.308 90.5042
5045.763184 95.214 89.7043
5082.326660 95.115 88.9655
5119.155273 95.013 88.3059
5156.250977 94.911 87.7419
5193.615234 94.816 87.2795
5231.250488 94.736 86.9043
5269.158203 94.676 86.5705
5307.340820 94.640 86.2037
5345.799805 94.623 85.7242
5384.537598 94.614 85.0846
5423.556152 94.600 84.2891
5462.857422 94.574 83.3828
5502.443359 94.531 82.4231
5542.316406 94.473 81.4590
5582.478516 94.402 80.5224
5622.931641 94.321 79.6292
5663.677734 94.235 78.7844
5704.719238 94.144 77.9869
5746.058105 94.051 77.2331
5787.696289 93.957 76.5189
5829.636230 93.862 75.8408
5871.880371 93.768 75.1959
5914.430664 93.674 74.5828
5957.289062 93.581 74.0008
6000.458008 93.489 73.4500
6043.939941 93.398 72.9303
6087.736816 93.309 72.4419
6131.851074 93.223 71.9845
6176.285156 93.140 71.5578
6221.041016 93.060 71.1606
6266.121094 92.985 70.7913
6311.527832 92.914 70.4477
6357.263672 92.849 70.1273
6403.331055 92.790 69.8276
6449.732422 92.737 69.5461
6496.469727 92.691 69.2803
6543.545898 92.652 69.0273
6590.962891 92.622 68.7842
6638.723633 92.600 68.5471
6686.830566 92.588 68.3113
6735.286133 92.586 68.0708
6784.092773 92.594 67.8191
6833.252930 92.614 67.5490
6882.769531 92.644 67.2531
6932.645020 92.686 66.9237
6982.881836 92.739 66.5534
7033.482910 92.803 66.1349
7084.450195 92.879 65.6601
7135.787109 92.965 65.1211
7187.496094 93.063 64.5096
7239.579590 93.172 63.8174
7292.040527 93.292 63.0358
7344.881836 93.423 62.1553
7398.105957 93.565 61.1647
7451.715820 93.718 60.0502
7505.713867 93.882 58.7943
7560.103516 94.057 57.3752
7614.887207 94.242 55.7664
7670.067871 94.435 53.9378
7725.648438 94.633 51.8556
7781.631836 94.830 49.4863
7838.020508 95.020 46.7992
7894.817871 95.192 43.7729
7952.026855 95.335 40.4010
8009.650391 95.435 36.6990
8067.691406 95.480 32.7073
8126.153320 95.457 28.4927
8185.038574 95.357 24.1440
8244.350586 95.176 19.7649
8304.092773 94.913 15.4633
8364.267578 94.571 11.3407
8424.878906 94.160 7.4839
8485.928711 93.688 3.9587
8547.420898 93.169 0.8076
8609.359375 92.614 -1.9493
8671.746094 92.036 -4.3110
8734.584961 91.444 -6.2913
8797.878906 90.848 -7.9131
8861.631836 90.253 -9.2043
8925.846680 89.664 -10.1936
8990.527344 89.086 -10.9083
9055.676758 88.520 -11.3740
9121.297852 87.969 -11.6141
9187.394531 87.433 -11.6497
9253.969727 86.913 -11.5005
9321.027344 86.411 -11.1849
9388.571289 85.925 -10.7203
9456.604492 85.457 -10.1223
9525.130859 85.005 -9.4044
9594.154297 84.569 -8.5780
9663.677734 84.149 -7.6516
9733.705078 83.743 -6.6309
9804.239258 83.350 -5.5197
9875.285156 82.971 -4.3198
9946.845703 82.605 -3.0319
10018.924805 82.252 -1.6550
10091.526367 81.911 -0.1879
10164.653320 81.582 1.3721
10238.310547 81.266 3.0290
10312.501953 80.963 4.7894
10387.230469 80.673 6.6621
10462.500977 80.398 8.6582
10538.316406 80.138 10.7903
10614.681641 79.896 13.0724
10691.599609 79.675 15.5204
10769.075195 79.479 18.1514
10847.112305 79.315 20.9823
10925.714844 79.189 24.0253
11004.886719 79.111 27.2802
11084.632812 79.092 30.7233
11164.957031 79.143 34.2961
11245.863281 79.273 37.8979
11327.355469 79.485 41.3888
11409.438477 79.777 44.6064
11492.116211 80.137 47.3951
11575.392578 80.547 49.6391
11659.272461 80.986 51.2850
11743.760742 81.431 52.3475
11828.861328 81.864 52.8987
11914.578125 82.275 53.0481
12000.916016 82.656 52.9207
12087.879883 83.010 52.6380
12175.473633 83.344 52.3048
12263.702148 83.667 52.0003
12352.570312 83.994 51.7741
12442.082031 84.339 51.6469
12532.242188 84.717 51.6119
12623.055664 85.145 51.6366
12714.527344 85.638 51.6640
12806.662109 86.211 51.6105
12899.464844 86.876 51.3651
12992.939453 87.642 50.7872
13087.091797 88.508 49.7075
13181.925781 89.463 47.9352
13277.447266 90.486 45.2724
13373.661133 91.542 41.5346
13470.572266 92.588 36.5750
13568.185547 93.570 30.3079
13666.505859 94.434 22.7318
13765.539062 95.121 13.9534
13865.290039 95.578 4.2079
13965.763672 95.765 -6.1337
14066.965820 95.660 -16.5977
14168.900391 95.270 -26.6892
14271.574219 94.625 -35.9843
14374.992188 93.771 -44.1810
14479.159180 92.762 -51.1060
14584.081055 91.652 -56.6968
14689.763672 90.496 -60.9805
14796.211914 89.343 -64.0536
14903.431641 88.234 -66.0619
15011.427734 87.202 -67.1803
15120.207031 86.269 -67.5918
15229.774414 85.448 -67.4709
15340.135742 84.740 -66.9712
15451.296875 84.143 -66.2210
15563.263672 83.650 -65.3241
15676.041016 83.251 -64.3645
15789.635742 82.938 -63.4122
15904.053711 82.704 -62.5281
16019.300781 82.541 -61.7690
16135.382812 82.443 -61.1918
16252.306641 82.403 -60.8556
16370.077148 82.415 -60.8236
16488.701172 82.470 -61.1605
16608.185547 82.561 -61.9297
16728.535156 82.674 -63.1884
16849.757812 82.796 -64.9822
16971.857422 82.911 -67.3387
17094.841797 83.002 -70.2612
17218.718750 83.050 -73.7242
17343.492188 83.037 -77.6719
17469.169922 82.947 -82.0184
17595.757812 82.767 -86.6531
17723.263672 82.489 -91.4490
17851.693359 82.111 -96.2747
17981.054688 81.636 -101.0065
18111.353516 81.072 -105.5405
18242.595703 80.428 -109.8010
18374.789062 79.721 -113.7451
18507.939453 78.964 -117.3633
18642.054688 78.172 -120.6771
18777.142578 77.359 -123.7336
18913.208984 76.535 -126.5992
19050.261719 75.710 -129.3507
19188.308594 74.889 -132.0647
19327.355469 74.080 -134.8079
19467.410156 73.294 -137.6243
19608.478516 72.555 -140.5193
19750.570312 71.904 -143.4426
19893.691406 71.406 -146.2772
20037.849609 0.000 -148.8612
