* Measurement data measured by REW V5.30.4
* Source: Headset (2- CX31993 HIFI AUDIO), MICROPHONE (Master Volume), L, volume: 1.000
* Format: 256k Log Swept Sine, 1 sweep at -12.0 dBFS with no timing reference
* Dated: 06 8, 24 6:08:46 PM
* REW Settings:
*  C-weighting compensation: Off
*  Target level: 75.0 dB
* Note: ; 
* Measurement: Truthear GATe R
* Smoothing: 1/12 octave
* Frequency Step: 96 ppo
* Start Frequency: 20.141602 Hz
*
* Freq(Hz) SPL(dB) Phase(degrees)
20.141602 94.485 -155.0613
20.287556 94.488 -155.2090
20.434568 94.491 -155.4273
20.582645 94.496 -155.6979
20.731796 94.501 -156.0046
20.882027 94.506 -156.3350
21.033346 94.511 -156.6798
21.185762 94.516 -157.0323
21.339283 94.520 -157.3873
21.493916 94.524 -157.7411
21.649670 94.528 -158.0908
21.806553 94.533 -158.4349
21.964573 94.537 -158.7731
22.123737 94.542 -159.1063
22.284056 94.548 -159.4365
22.445536 94.555 -159.7662
22.608185 94.561 -160.0985
22.772013 94.568 -160.4358
22.937029 94.574 -160.7796
23.103241 94.579 -161.1299
23.270657 94.582 -161.4850
23.439285 94.582 -161.8416
23.609137 94.578 -162.1949
23.780218 94.572 -162.5396
23.952539 94.564 -162.8708
24.126110 94.553 -163.1848
24.300938 94.541 -163.4798
24.477032 94.529 -163.7570
24.654402 94.518 -164.0202
24.833057 94.509 -164.2761
25.013008 94.502 -164.5329
25.194263 94.496 -164.7993
25.376831 94.493 -165.0834
25.560722 94.490 -165.3910
25.745945 94.487 -165.7251
25.932510 94.483 -166.0852
26.120428 94.478 -166.4675
26.309708 94.472 -166.8659
26.500359 94.464 -167.2726
26.692390 94.455 -167.6795
26.885815 94.447 -168.0795
27.080641 94.441 -168.4674
27.276878 94.437 -168.8399
27.474539 94.436 -169.1960
27.673630 94.439 -169.5364
27.874165 94.445 -169.8628
28.076153 94.453 -170.1774
28.279604 94.461 -170.4822
28.484529 94.470 -170.7787
28.690941 94.476 -171.0681
28.898848 94.480 -171.3518
29.108261 94.481 -171.6312
29.319191 94.477 -171.9082
29.531651 94.469 -172.1853
29.745649 94.457 -172.4648
29.961199 94.440 -172.7489
30.178310 94.421 -173.0388
30.396996 94.398 -173.3340
30.617264 94.373 -173.6331
30.839128 94.347 -173.9330
31.062601 94.320 -174.2304
31.287693 94.294 -174.5216
31.514416 94.269 -174.8036
31.742783 94.245 -175.0741
31.972803 94.224 -175.3318
32.204491 94.204 -175.5757
32.437859 94.185 -175.8053
32.672916 94.168 -176.0203
32.909679 94.151 -176.2204
33.148155 94.136 -176.4065
33.388359 94.123 -176.5808
33.630306 94.112 -176.7479
33.874004 94.104 -176.9140
34.119469 94.100 -177.0871
34.366711 94.099 -177.2750
34.615746 94.100 -177.4841
34.866585 94.102 -177.7181
35.119244 94.105 -177.9768
35.373734 94.105 -178.2571
35.630066 94.103 -178.5533
35.888256 94.097 -178.8596
36.148315 94.089 -179.1708
36.410259 94.077 -179.4833
36.674103 94.063 -179.7953
36.939857 94.048 179.8942
37.207539 94.031 179.5864
37.477161 94.014 179.2831
37.748737 93.996 178.9867
38.022282 93.979 178.6991
38.297806 93.964 178.4209
38.575329 93.950 178.1507
38.854862 93.937 177.8852
39.136421 93.926 177.6206
39.420021 93.916 177.3540
39.705673 93.907 177.0845
39.993397 93.898 176.8137
40.283207 93.888 176.5446
40.575115 93.879 176.2813
40.869141 93.869 176.0276
41.165295 93.857 175.7872
41.463596 93.844 175.5632
41.764057 93.827 175.3573
42.066696 93.806 175.1688
42.371529 93.782 174.9919
42.678570 93.755 174.8163
42.987835 93.726 174.6285
43.299343 93.698 174.4171
43.613110 93.670 174.1782
43.929150 93.646 173.9193
44.247478 93.625 173.6581
44.568115 93.608 173.4162
44.891075 93.595 173.2119
45.216373 93.583 173.0574
45.544029 93.564 172.9613
45.874062 93.532 172.9352
46.206486 93.479 172.9968
46.541317 93.405 173.1639
46.878574 93.316 173.4368
47.218277 93.226 173.7761
47.560440 93.154 174.0931
47.905083 93.113 174.2664
48.252224 93.106 174.1870
48.601879 93.126 173.8071
48.954067 93.160 173.1645
49.308807 93.195 172.3681
49.666119 93.222 171.5533
50.026020 93.240 170.8336
50.388531 93.250 170.2675
50.753666 93.253 169.8531
51.121449 93.250 169.5488
51.491894 93.239 169.3026
51.865025 93.219 169.0758
52.240860 93.191 168.8504
52.619419 93.159 168.6240
53.000721 93.127 168.4005
53.384785 93.099 168.1843
53.771633 93.074 167.9788
54.161285 93.053 167.7859
54.553761 93.033 167.6058
54.949081 93.012 167.4352
55.347263 92.991 167.2685
55.748333 92.968 167.1009
56.152309 92.943 166.9315
56.559212 92.918 166.7637
56.969063 92.894 166.6027
57.381886 92.869 166.4520
57.797699 92.846 166.3103
58.216526 92.823 166.1718
58.638386 92.800 166.0277
59.063305 92.777 165.8702
59.491302 92.754 165.6945
59.922401 92.731 165.5017
60.356625 92.708 165.2989
60.793995 92.685 165.0970
61.234531 92.661 164.9059
61.678261 92.637 164.7299
62.125206 92.612 164.5651
62.575390 92.584 164.4022
63.028835 92.554 164.2325
63.485569 92.521 164.0547
63.945610 92.484 163.8788
64.408989 92.447 163.7224
64.875725 92.410 163.6010
65.345840 92.375 163.5175
65.819366 92.345 163.4575
66.296318 92.318 163.3950
66.776726 92.294 163.3071
67.260620 92.270 163.1888
67.748016 92.246 163.0591
68.238945 92.223 162.9562
68.733429 92.200 162.9252
69.231499 92.177 163.0049
69.733177 92.151 163.2089
70.238495 92.124 163.5040
70.747475 92.100 163.7982
71.260139 92.081 163.9626
71.776520 92.065 163.8908
72.296638 92.046 163.5604
72.820526 92.021 163.0471
73.348213 91.987 162.4804
73.879723 91.948 161.9771
74.415085 91.906 161.5980
74.954330 91.863 161.3456
75.497482 91.822 161.1878
76.044571 91.784 161.0822
76.595619 91.752 160.9943
77.150665 91.725 160.9047
77.709732 91.702 160.8090
78.272850 91.678 160.7087
78.840050 91.652 160.6022
79.411354 91.620 160.4828
79.986801 91.585 160.3426
80.566422 91.550 160.1804
81.150238 91.515 160.0059
81.738289 91.483 159.8385
82.330597 91.453 159.6971
82.927200 91.425 159.5900
83.528122 91.399 159.5119
84.133400 91.371 159.4516
84.743065 91.342 159.4000
85.357147 91.312 159.3511
85.975677 91.281 159.2996
86.598694 91.250 159.2397
87.226227 91.221 159.1681
87.858307 91.192 159.0864
88.494965 91.162 158.9995
89.136238 91.131 158.9132
89.782158 91.098 158.8316
90.432755 91.065 158.7563
91.088066 91.031 158.6864
91.748131 90.997 158.6190
92.412979 90.964 158.5505
93.082642 90.931 158.4777
93.757156 90.900 158.3999
94.436562 90.869 158.3206
95.120888 90.840 158.2472
95.810173 90.811 158.1870
96.504456 90.782 158.1423
97.203766 90.751 158.1079
97.908142 90.720 158.0731
98.617622 90.687 158.0277
99.332245 90.653 157.9681
100.052048 90.621 157.8994
100.777069 90.591 157.8326
101.507339 90.562 157.7773
102.242905 90.534 157.7352
102.983795 90.504 157.6992
103.730057 90.472 157.6613
104.481728 90.439 157.6192
105.238846 90.404 157.5763
106.001450 90.370 157.5363
106.769577 90.336 157.5009
107.543274 90.302 157.4694
108.322578 90.269 157.4418
109.107529 90.235 157.4186
109.898170 90.201 157.3997
110.694534 90.168 157.3826
111.496674 90.136 157.3668
112.304626 90.104 157.3569
113.118431 90.071 157.3600
113.938133 90.034 157.3807
114.763779 89.992 157.4243
115.595406 89.946 157.5069
116.433060 89.898 157.6631
117.276779 89.846 157.9283
118.126617 89.793 158.3007
118.982613 89.742 158.7109
119.844810 89.704 159.0273
120.713257 89.687 159.1252
121.587997 89.685 158.9865
122.469070 89.689 158.6996
123.356529 89.690 158.3571
124.250420 89.680 158.0045
125.150787 89.657 157.6744
126.057678 89.618 157.4051
126.971146 89.566 157.2190
127.891228 89.509 157.1089
128.817978 89.456 157.0486
129.751450 89.412 157.0175
130.691681 89.379 157.0122
131.638733 89.354 157.0370
132.592636 89.333 157.0891
133.553452 89.311 157.1541
134.521240 89.287 157.2152
135.496033 89.261 157.2671
136.477890 89.236 157.3149
137.466858 89.213 157.3675
138.462997 89.189 157.4272
139.466354 89.160 157.4852
140.476990 89.124 157.5334
141.494949 89.084 157.5745
142.520279 89.043 157.6204
143.553040 89.003 157.6786
144.593277 88.965 157.7435
145.641052 88.929 157.8059
146.696426 88.893 157.8655
147.759445 88.856 157.9261
148.830170 88.819 157.9865
149.908661 88.782 158.0393
150.994965 88.744 158.0788
152.089142 88.707 158.1045
153.191238 88.669 158.1229
154.301331 88.632 158.1458
155.419464 88.593 158.1803
156.545700 88.553 158.2239
157.680099 88.512 158.2737
158.822708 88.471 158.3354
159.973602 88.430 158.4230
161.132843 88.391 158.5498
162.300476 88.353 158.7220
163.476578 88.316 158.9380
164.661194 88.279 159.1898
165.854401 88.240 159.4678
167.056244 88.199 159.7651
168.266800 88.156 160.0771
169.486130 88.115 160.4004
170.714294 88.080 160.7315
171.951355 88.054 161.0676
173.197388 88.036 161.4130
174.452454 88.024 161.7786
175.716614 88.014 162.1691
176.989929 88.006 162.5680
178.272476 88.000 162.9395
179.564316 87.998 163.2515
180.865509 88.006 163.4899
182.176132 88.028 163.6408
183.496262 88.066 163.6772
184.825958 88.118 163.5786
186.165283 88.176 163.3681
187.514313 88.232 163.1162
188.873123 88.279 162.8915
190.241776 88.313 162.7189
191.620346 88.331 162.5895
193.008911 88.336 162.4870
194.407532 88.328 162.4029
195.816284 88.314 162.3359
197.235245 88.297 162.2838
198.664490 88.278 162.2387
200.104095 88.256 162.1920
201.554138 88.230 162.1388
203.014679 88.201 162.0806
204.485809 88.172 162.0215
205.967590 88.142 161.9669
207.460114 88.114 161.9241
208.963455 88.086 161.8987
210.477692 88.056 161.8893
212.002899 88.026 161.8902
213.539154 87.995 161.8937
215.086548 87.964 161.8915
216.645157 87.934 161.8778
218.215057 87.908 161.8512
219.796341 87.884 161.8123
221.389069 87.864 161.7681
222.993347 87.845 161.7389
224.609253 87.826 161.7521
226.236862 87.807 161.8270
227.876266 87.784 161.9657
229.527557 87.758 162.1544
231.190811 87.728 162.3716
232.866119 87.694 162.5931
234.553558 87.657 162.7902
236.253235 87.618 162.9357
237.965225 87.579 163.0190
239.689621 87.544 163.0546
241.426514 87.513 163.0711
243.175995 87.487 163.0933
244.938141 87.464 163.1323
246.713058 87.444 163.1835
248.500839 87.426 163.2363
250.301575 87.410 163.2861
252.115356 87.397 163.3305
253.942291 87.384 163.3696
255.782455 87.369 163.4129
257.635956 87.353 163.4742
259.502899 87.335 163.5610
261.383362 87.319 163.6715
263.277466 87.303 163.7983
265.185272 87.289 163.9334
267.106903 87.273 164.0731
269.042480 87.255 164.2199
270.992065 87.233 164.3780
272.955780 87.208 164.5461
274.933716 87.184 164.7172
276.925995 87.162 164.8816
278.932709 87.145 165.0301
280.953979 87.131 165.1567
282.989899 87.118 165.2621
285.040558 87.104 165.3552
287.106079 87.086 165.4559
289.186554 87.066 165.5810
291.282104 87.044 165.7308
293.392853 87.022 165.8917
295.518890 87.001 166.0508
297.660339 86.982 166.2047
299.817322 86.965 166.3576
301.989929 86.952 166.5164
304.178284 86.941 166.6857
306.382477 86.931 166.8636
308.602661 86.919 167.0436
310.838928 86.906 167.2185
313.091400 86.890 167.3824
315.360199 86.872 167.5318
317.645416 86.852 167.6668
319.947205 86.836 167.7964
322.265686 86.825 167.9374
324.600952 86.822 168.1017
326.953156 86.825 168.2861
329.322388 86.831 168.4747
331.708801 86.838 168.6505
334.112488 86.843 168.8011
336.533600 86.844 168.9201
338.972260 86.843 169.0097
341.428589 86.841 169.0782
343.902710 86.838 169.1344
346.394775 86.834 169.1834
348.904907 86.831 169.2270
351.433228 86.826 169.2695
353.979858 86.819 169.3177
356.544952 86.810 169.3745
359.128632 86.801 169.4363
361.731018 86.790 169.4976
364.352264 86.778 169.5576
366.992523 86.766 169.6198
369.651917 86.753 169.6873
372.330566 86.740 169.7617
375.028625 86.727 169.8437
377.746246 86.715 169.9336
380.483551 86.702 170.0305
383.240692 86.689 170.1325
386.017822 86.676 170.2375
388.815063 86.662 170.3431
391.632568 86.649 170.4484
394.470490 86.636 170.5541
397.328979 86.623 170.6623
400.208191 86.610 170.7741
403.108276 86.598 170.8893
406.029358 86.587 171.0073
408.971619 86.575 171.1274
411.935181 86.564 171.2491
414.920227 86.554 171.3714
417.926910 86.543 171.4937
420.955383 86.533 171.6166
424.005798 86.523 171.7414
427.078308 86.513 171.8687
430.173096 86.503 171.9988
433.290314 86.492 172.1313
436.430115 86.482 172.2655
439.592682 86.472 172.4005
442.778137 86.463 172.5354
445.986694 86.453 172.6700
449.218506 86.443 172.8043
452.473724 86.433 172.9383
455.752533 86.424 173.0726
459.055115 86.414 173.2076
462.381622 86.406 173.3431
465.732239 86.397 173.4784
469.107117 86.390 173.6132
472.506470 86.382 173.7479
475.930450 86.376 173.8843
479.379242 86.369 174.0244
482.853027 86.362 174.1691
486.351990 86.356 174.3180
489.876282 86.350 174.4701
493.426117 86.344 174.6238
497.001678 86.338 174.7773
500.603149 86.332 174.9291
504.230713 86.326 175.0795
507.884583 86.320 175.2294
511.564911 86.314 175.3802
515.271912 86.309 175.5319
519.005798 86.304 175.6842
522.766724 86.299 175.8369
526.554932 86.294 175.9906
530.370544 86.290 176.1460
534.213806 86.285 176.3033
538.084961 86.281 176.4621
541.984131 86.278 176.6226
545.911560 86.274 176.7850
549.867432 86.271 176.9493
553.851990 86.268 177.1154
557.865417 86.265 177.2828
561.907959 86.263 177.4513
565.979797 86.260 177.6212
570.081116 86.258 177.7925
574.212158 86.255 177.9651
578.373108 86.253 178.1386
582.564209 86.251 178.3124
586.785706 86.250 178.4867
591.037781 86.249 178.6619
595.320679 86.248 178.8384
599.634644 86.247 179.0162
603.979858 86.247 179.1953
608.356567 86.247 179.3753
612.764954 86.248 179.5563
617.205322 86.249 179.7380
621.677856 86.250 179.9204
626.182800 86.252 -179.8959
630.720398 86.254 -179.7099
635.290833 86.257 -179.5208
639.894409 86.259 -179.3286
644.531372 86.262 -179.1336
649.201904 86.265 -178.9361
653.906311 86.268 -178.7365
658.644775 86.272 -178.5353
663.417603 86.276 -178.3325
668.224976 86.280 -178.1277
673.067200 86.285 -177.9206
677.944519 86.291 -177.7116
682.857178 86.297 -177.5017
687.805420 86.303 -177.2913
692.789551 86.310 -177.0803
697.809814 86.318 -176.8683
702.866455 86.326 -176.6550
707.959717 86.334 -176.4395
713.089905 86.343 -176.2213
718.257263 86.352 -176.0000
723.462036 86.361 -175.7756
728.704529 86.370 -175.5482
733.985046 86.381 -175.3179
739.303833 86.392 -175.0851
744.661133 86.403 -174.8504
750.057251 86.416 -174.6141
755.492493 86.429 -174.3770
760.967102 86.443 -174.1392
766.481384 86.457 -173.9005
772.035645 86.472 -173.6606
777.630127 86.488 -173.4185
783.265137 86.504 -173.1739
788.940979 86.521 -172.9259
794.657959 86.539 -172.6742
800.416382 86.558 -172.4181
806.216553 86.577 -172.1571
812.058716 86.597 -171.8909
817.943237 86.617 -171.6192
823.870361 86.638 -171.3417
829.840454 86.661 -171.0578
835.853821 86.684 -170.7670
841.910767 86.709 -170.4692
848.011597 86.735 -170.1644
854.156616 86.763 -169.8522
860.346191 86.794 -169.5323
866.580627 86.827 -169.2050
872.860229 86.863 -168.8713
879.185364 86.902 -168.5331
885.556274 86.945 -168.1926
891.973389 86.993 -167.8524
898.437012 87.044 -167.5148
904.947449 87.099 -167.1824
911.505066 87.158 -166.8585
918.110229 87.223 -166.5475
924.763245 87.292 -166.2565
931.464478 87.366 -165.9948
938.214233 87.444 -165.7729
945.012939 87.524 -165.5996
951.860901 87.604 -165.4791
958.758484 87.682 -165.4087
965.706055 87.756 -165.3788
972.703979 87.826 -165.3758
979.752563 87.891 -165.3853
986.852234 87.951 -165.3952
994.003357 88.009 -165.3977
1001.206299 88.064 -165.3888
1008.461426 88.118 -165.3681
1015.769165 88.172 -165.3378
1023.129822 88.226 -165.3013
1030.543823 88.280 -165.2623
1038.011597 88.336 -165.2234
1045.533447 88.392 -165.1865
1053.109863 88.449 -165.1532
1060.741089 88.507 -165.1246
1068.427612 88.566 -165.1015
1076.169922 88.626 -165.0851
1083.968262 88.686 -165.0761
1091.823120 88.746 -165.0753
1099.734863 88.807 -165.0829
1107.703979 88.869 -165.0988
1115.730835 88.930 -165.1230
1123.815918 88.992 -165.1555
1131.959595 89.053 -165.1960
1140.162231 89.115 -165.2442
1148.424316 89.177 -165.2997
1156.746216 89.239 -165.3625
1165.128418 89.300 -165.4325
1173.571411 89.361 -165.5098
1182.075562 89.422 -165.5945
1190.641357 89.483 -165.6863
1199.269287 89.542 -165.7848
1207.959717 89.602 -165.8890
1216.713135 89.660 -165.9982
1225.529907 89.719 -166.1119
1234.410645 89.777 -166.2298
1243.355713 89.835 -166.3519
1252.365601 89.892 -166.4785
1261.440796 89.949 -166.6099
1270.581665 90.006 -166.7460
1279.788818 90.062 -166.8863
1289.062744 90.118 -167.0301
1298.403809 90.174 -167.1772
1307.812622 90.229 -167.3269
1317.289551 90.284 -167.4788
1326.835205 90.338 -167.6325
1336.449951 90.392 -167.7876
1346.134399 90.446 -167.9442
1355.889038 90.500 -168.1021
1365.714355 90.554 -168.2615
1375.610840 90.607 -168.4223
1385.579102 90.661 -168.5844
1395.619629 90.715 -168.7480
1405.732910 90.768 -168.9134
1415.919434 90.822 -169.0806
1426.179810 90.876 -169.2497
1436.514526 90.930 -169.4203
1446.924072 90.984 -169.5917
1457.409058 91.039 -169.7639
1467.970093 91.094 -169.9372
1478.607666 91.149 -170.1119
1489.322266 91.204 -170.2882
1500.114502 91.260 -170.4664
1510.984985 91.316 -170.6466
1521.934204 91.373 -170.8289
1532.962769 91.430 -171.0133
1544.071289 91.488 -171.2000
1555.260254 91.546 -171.3891
1566.530273 91.605 -171.5813
1577.881958 91.665 -171.7771
1589.315918 91.726 -171.9769
1600.832764 91.787 -172.1812
1612.433105 91.848 -172.3902
1624.117432 91.911 -172.6045
1635.886475 91.974 -172.8244
1647.740723 92.037 -173.0502
1659.680908 92.102 -173.2822
1671.707642 92.167 -173.5208
1683.821533 92.232 -173.7660
1696.023193 92.298 -174.0181
1708.313232 92.365 -174.2772
1720.692383 92.432 -174.5433
1733.161255 92.499 -174.8166
1745.720459 92.567 -175.0970
1758.370728 92.635 -175.3842
1771.112549 92.704 -175.6785
1783.946777 92.773 -175.9798
1796.874023 92.842 -176.2883
1809.894897 92.912 -176.6042
1823.010132 92.983 -176.9274
1836.220459 93.054 -177.2582
1849.526489 93.125 -177.5968
1862.928955 93.197 -177.9433
1876.428467 93.269 -178.2983
1890.025879 93.342 -178.6619
1903.721802 93.416 -179.0348
1917.516968 93.489 -179.4171
1931.412109 93.563 -179.8091
1945.407959 93.638 179.7891
1959.505127 93.713 179.3774
1973.704468 93.788 178.9559
1988.006714 93.864 178.5240
2002.412598 93.940 178.0809
2016.922852 94.017 177.6255
2031.538330 94.093 177.1575
2046.259644 94.171 176.6765
2061.087646 94.248 176.1821
2076.023193 94.326 175.6738
2091.066895 94.403 175.1513
2106.219727 94.481 174.6145
2121.482178 94.559 174.0632
2136.855225 94.636 173.4976
2152.339844 94.713 172.9174
2167.936523 94.790 172.3222
2183.646240 94.867 171.7116
2199.469727 94.942 171.0852
2215.407959 95.018 170.4425
2231.461670 95.092 169.7832
2247.631836 95.166 169.1074
2263.919189 95.239 168.4150
2280.324463 95.310 167.7059
2296.848633 95.380 166.9802
2313.492432 95.449 166.2384
2330.256836 95.516 165.4807
2347.142822 95.581 164.7075
2364.151123 95.644 163.9191
2381.282715 95.705 163.1161
2398.538574 95.763 162.2994
2415.919434 95.819 161.4703
2433.426270 95.871 160.6303
2451.059814 95.921 159.7815
2468.821289 95.967 158.9265
2486.711426 96.009 158.0683
2504.731201 96.048 157.2108
2522.881592 96.083 156.3585
2541.163330 96.114 155.5164
2559.577637 96.142 154.6906
2578.125488 96.168 153.8871
2596.807617 96.193 153.1121
2615.625244 96.217 152.3698
2634.579102 96.244 151.6618
2653.670410 96.275 150.9856
2672.899902 96.313 150.3329
2692.268799 96.359 149.6892
2711.778076 96.415 149.0341
2731.428711 96.481 148.3433
2751.221680 96.556 147.5925
2771.158203 96.636 146.7619
2791.239258 96.718 145.8397
2811.465820 96.798 144.8237
2831.838867 96.871 143.7213
2852.359619 96.936 142.5465
2873.029053 96.990 141.3174
2893.848145 97.033 140.0526
2914.818115 97.064 138.7687
2935.940186 97.085 137.4799
2957.215332 97.096 136.1970
2978.644531 97.098 134.9282
3000.229004 97.093 133.6783
3021.969971 97.081 132.4503
3043.868408 97.064 131.2457
3065.925537 97.042 130.0650
3088.142578 97.016 128.9077
3110.520508 96.987 127.7732
3133.060547 96.955 126.6602
3155.763916 96.921 125.5676
3178.631836 96.885 124.4944
3201.665527 96.847 123.4391
3224.866211 96.808 122.4007
3248.234863 96.767 121.3779
3271.772949 96.726 120.3696
3295.481445 96.683 119.3748
3319.361816 96.639 118.3924
3343.415283 96.594 117.4217
3367.643066 96.548 116.4618
3392.046387 96.502 115.5121
3416.626465 96.454 114.5723
3441.384766 96.405 113.6420
3466.322510 96.355 112.7217
3491.440918 96.304 111.8124
3516.741455 96.251 110.9158
3542.225098 96.198 110.0334
3567.893555 96.143 109.1666
3593.748047 96.088 108.3165
3619.789795 96.032 107.4831
3646.020264 95.978 106.6656
3672.440918 95.923 105.8623
3699.052979 95.870 105.0705
3725.857910 95.818 104.2874
3752.856934 95.766 103.5105
3780.051758 95.715 102.7385
3807.443604 95.664 101.9714
3835.033936 95.613 101.2108
3862.824219 95.561 100.4592
3890.815918 95.510 99.7201
3919.010254 95.459 98.9966
3947.408936 95.409 98.2906
3976.013428 95.361 97.6017
4004.825195 95.315 96.9273
4033.845703 95.272 96.2632
4063.076660 95.233 95.6039
4092.519287 95.198 94.9439
4122.175293 95.166 94.2777
4152.046387 95.138 93.6005
4182.133789 95.113 92.9087
4212.439453 95.090 92.1994
4242.964355 95.069 91.4706
4273.710449 95.049 90.7208
4304.679688 95.031 89.9494
4335.873047 95.013 89.1560
4367.292480 94.995 88.3405
4398.939453 94.977 87.5028
4430.815918 94.958 86.6436
4462.923340 94.939 85.7634
4495.263672 94.918 84.8635
4527.838379 94.895 83.9453
4560.648926 94.870 83.0101
4593.697266 94.844 82.0597
4626.984863 94.815 81.0959
4660.513672 94.784 80.1206
4694.285645 94.750 79.1360
4728.302246 94.714 78.1443
4762.565430 94.675 77.1475
4797.077148 94.635 76.1472
4831.838867 94.592 75.1447
4866.852539 94.547 74.1403
4902.119629 94.500 73.1338
4937.642578 94.451 72.1254
4973.422852 94.399 71.1164
5009.462402 94.345 70.1100
5045.763184 94.288 69.1117
5082.326660 94.228 68.1294
5119.155273 94.168 67.1716
5156.250977 94.107 66.2440
5193.615234 94.051 65.3440
5231.250488 94.000 64.4561
5269.158203 93.958 63.5515
5307.340820 93.922 62.5969
5345.799805 93.888 61.5701
5384.537598 93.850 60.4708
5423.556152 93.803 59.3191
5462.857422 93.746 58.1449
5502.443359 93.678 56.9772
5542.316406 93.600 55.8376
5582.478516 93.516 54.7384
5622.931641 93.428 53.6840
5663.677734 93.338 52.6731
5704.719238 93.248 51.7013
5746.058105 93.158 50.7628
5787.696289 93.069 49.8514
5829.636230 92.983 48.9618
5871.880371 92.898 48.0897
5914.430664 92.814 47.2320
5957.289062 92.733 46.3871
6000.458008 92.652 45.5542
6043.939941 92.573 44.7335
6087.736816 92.496 43.9256
6131.851074 92.419 43.1318
6176.285156 92.344 42.3530
6221.041016 92.271 41.5903
6266.121094 92.200 40.8443
6311.527832 92.132 40.1155
6357.263672 92.067 39.4039
6403.331055 92.006 38.7085
6449.732422 91.949 38.0278
6496.469727 91.898 37.3596
6543.545898 91.852 36.7015
6590.962891 91.812 36.0503
6638.723633 91.780 35.4022
6686.830566 91.754 34.7530
6735.286133 91.736 34.0982
6784.092773 91.726 33.4331
6833.252930 91.724 32.7526
6882.769531 91.730 32.0515
6932.645020 91.746 31.3245
6982.881836 91.770 30.5658
7033.482910 91.805 29.7688
7084.450195 91.848 28.9259
7135.787109 91.901 28.0286
7187.496094 91.964 27.0675
7239.579590 92.036 26.0330
7292.040527 92.117 24.9153
7344.881836 92.206 23.7048
7398.105957 92.304 22.3917
7451.715820 92.408 20.9663
7505.713867 92.518 19.4183
7560.103516 92.633 17.7362
7614.887207 92.753 15.9068
7670.067871 92.876 13.9149
7725.648438 93.000 11.7433
7781.631836 93.123 9.3728
7838.020508 93.241 6.7829
7894.817871 93.350 3.9535
7952.026855 93.444 0.8676
8009.650391 93.515 -2.4845
8067.691406 93.553 -6.1004
8126.153320 93.550 -9.9612
8185.038574 93.495 -14.0283
8244.350586 93.378 -18.2435
8304.092773 93.192 -22.5302
8364.267578 92.932 -26.7985
8424.878906 92.598 -30.9523
8485.928711 92.192 -34.8972
8547.420898 91.723 -38.5496
8609.359375 91.199 -41.8434
8671.746094 90.633 -44.7354
8734.584961 90.037 -47.2056
8797.878906 89.424 -49.2551
8861.631836 88.804 -50.9018
8925.846680 88.187 -52.1747
8990.527344 87.581 -53.1094
9055.676758 86.989 -53.7442
9121.297852 86.416 -54.1165
9187.394531 85.864 -54.2611
9253.969727 85.332 -54.2088
9321.027344 84.823 -53.9858
9388.571289 84.334 -53.6144
9456.604492 83.866 -53.1127
9525.130859 83.417 -52.4948
9594.154297 82.987 -51.7708
9663.677734 82.573 -50.9465
9733.705078 82.175 -50.0251
9804.239258 81.792 -49.0082
9875.285156 81.423 -47.8954
9946.845703 81.068 -46.6844
10018.924805 80.726 -45.3705
10091.526367 80.397 -43.9456
10164.653320 80.082 -42.3982
10238.310547 79.782 -40.7137
10312.501953 79.498 -38.8751
10387.230469 79.232 -36.8620
10462.500977 78.988 -34.6511
10538.316406 78.772 -32.2175
10614.681641 78.591 -29.5372
10691.599609 78.455 -26.5950
10769.075195 78.376 -23.3937
10847.112305 78.368 -19.9666
10925.714844 78.443 -16.3915
11004.886719 78.613 -12.7969
11084.632812 78.879 -9.3560
11164.957031 79.238 -6.2620
11245.863281 79.673 -3.6931
11327.355469 80.164 -1.7761
11409.438477 80.683 -0.5657
11492.116211 81.208 -0.0418
11575.392578 81.716 -0.1233
11659.272461 82.196 -0.6891
11743.760742 82.639 -1.6019
11828.861328 83.048 -2.7274
11914.578125 83.429 -3.9501
12000.916016 83.793 -5.1818
12087.879883 84.154 -6.3666
12175.473633 84.529 -7.4808
12263.702148 84.934 -8.5324
12352.570312 85.386 -9.5596
12442.082031 85.901 -10.6295
12532.242188 86.494 -11.8395
12623.055664 87.173 -13.3174
12714.527344 87.942 -15.2206
12806.662109 88.795 -17.7305
12899.464844 89.714 -21.0386
12992.939453 90.668 -25.3279
13087.091797 91.618 -30.7487
13181.925781 92.514 -37.3947
13277.447266 93.301 -45.2784
13373.661133 93.924 -54.3083
13470.572266 94.332 -64.2695
13568.185547 94.484 -74.8195
13666.505859 94.359 -85.5193
13765.539062 93.963 -95.9070
13865.290039 93.321 -105.5804
13965.763672 92.474 -114.2435
14066.965820 91.471 -121.7136
14168.900391 90.362 -127.9099
14271.574219 89.196 -132.8381
14374.992188 88.018 -136.5731
14479.159180 86.870 -139.2412
14584.081055 85.783 -141.0002
14689.763672 84.780 -142.0192
14796.211914 83.877 -142.4617
14903.431641 83.076 -142.4727
15011.427734 82.379 -142.1732
15120.207031 81.779 -141.6597
15229.774414 81.269 -141.0072
15340.135742 80.842 -140.2746
15451.296875 80.491 -139.5091
15563.263672 80.212 -138.7512
15676.041016 79.998 -138.0380
15789.635742 79.848 -137.4061
15904.053711 79.758 -136.8951
16019.300781 79.726 -136.5503
16135.382812 79.749 -136.4242
16252.306641 79.825 -136.5782
16370.077148 79.951 -137.0815
16488.701172 80.120 -138.0090
16608.185547 80.324 -139.4386
16728.535156 80.552 -141.4449
16849.757812 80.789 -144.0917
16971.857422 81.017 -147.4224
17094.841797 81.215 -151.4526
17218.718750 81.360 -156.1629
17343.492188 81.430 -161.4939
17469.169922 81.404 -167.3455
17595.757812 81.265 -173.5824
17723.263672 81.002 179.9546
17851.693359 80.612 173.4332
17981.054688 80.098 167.0112
18111.353516 79.469 160.8198
18242.595703 78.741 154.9529
18374.789062 77.929 149.4611
18507.939453 77.053 144.3523
18642.054688 76.130 139.5970
18777.142578 75.176 135.1375
18913.208984 74.203 130.8987
19050.261719 73.222 126.8016
19188.308594 72.239 122.7733
19327.355469 71.264 118.7570
19467.410156 70.309 114.7220
19608.478516 69.405 110.6767
19750.570312 68.603 106.6857
19893.691406 67.985 102.8809
20037.849609 0.000 99.4412
